%OpenBCI Raw EEG Data
%
%Sample Rate = 250.0 Hz
%First Column = SampleIndex
%Last Column = Timestamp 
%Other Columns = EEG data in microvolts followed by Accel Data (in G) interleaved with Aux Data
0, -4600.10, 14513.75, 187500.00, 187500.00, 187500.00, -187500.02, -187500.02, 187500.00, 0.000, -0.018, 1.020, 17:25:20.064
1, -5278.65, 13799.88, 187500.00, 187500.00, 187500.00, -187500.02, -187500.02, 187500.00, 0.000, 0.000, 0.000, 17:25:20.064
2, -5675.53, 13438.67, 187500.00, 187500.00, 187500.00, -187500.02, -187500.02, 187500.00, 0.000, 0.000, 0.000, 17:25:20.064
3, -4855.16, 14312.49, 187500.00, 187500.00, 187500.00, -187500.02, -187500.02, 187500.00, 0.000, 0.000, 0.000, 17:25:20.064
4, -4411.92, 14728.10, 187500.00, 187500.00, 187500.00, -187500.02, -187500.02, 187500.00, 0.000, 0.000, 0.000, 17:25:20.064
5, -4621.94, 14487.82, 187500.00, 187500.00, 187500.00, -187500.02, -187500.02, 187500.00, 0.000, 0.000, 0.000, 17:25:20.064
6, -5281.72, 13801.96, 187500.00, 187500.00, 187500.00, -187500.02, -187500.02, 187500.00, 0.000, 0.000, 0.000, 17:25:20.065
7, -5678.89, 13439.19, 187500.00, 187500.00, 187500.00, -187500.02, -187500.02, 187500.00, 0.008, -0.028, 1.024, 17:25:20.065
8, -4854.40, 14308.78, 187500.00, 187500.00, 187500.00, -187500.02, -187500.02, 187500.00, 0.000, 0.000, 0.000, 17:25:20.065
9, -4396.21, 14734.96, 187500.00, 187500.00, 187500.00, -187500.02, -187500.02, 187500.00, 0.000, 0.000, 0.000, 17:25:20.065
10, -4605.06, 14496.60, 187500.00, 187500.00, 187500.00, -187500.02, -187500.02, 187500.00, 0.000, 0.000, 0.000, 17:25:20.065
11, -5279.75, 13797.89, 187500.00, 187500.00, 187500.00, -187500.02, -187500.02, 187500.00, 0.000, 0.000, 0.000, 17:25:20.065
12, -5675.98, 13436.55, 187500.00, 187500.00, 187500.00, -187500.02, -187500.02, 187500.00, 0.000, 0.000, 0.000, 17:25:20.065
13, -4853.99, 14312.45, 187500.00, 187500.00, 187500.00, -187500.02, -187500.02, 187500.00, 0.000, 0.000, 0.000, 17:25:20.065
14, -4413.84, 14727.03, 187500.00, 187500.00, 187500.00, -187500.02, -187500.02, 187500.00, 0.000, 0.000, 0.000, 17:25:20.065
15, -4616.69, 14501.21, 187500.00, 187500.00, 187500.00, -187500.02, -187500.02, 187500.00, 0.000, 0.000, 0.000, 17:25:20.066
16, -5261.53, 13830.63, 187500.00, 187500.00, 187500.00, -187500.02, -187500.02, 187500.00, 0.000, 0.000, 0.000, 17:25:20.066
17, -5670.88, 13450.03, 187500.00, 187500.00, 187500.00, -187500.02, -187500.02, 187500.00, 0.006, -0.024, 1.014, 17:25:20.066
18, -4868.68, 14302.55, 187500.00, 187500.00, 187500.00, -187500.02, -187500.02, 187500.00, 0.000, 0.000, 0.000, 17:25:20.066
19, -4431.43, 14706.35, 187500.00, 187500.00, 187500.00, -187500.02, -187500.02, 187500.00, 0.000, 0.000, 0.000, 17:25:20.066
20, -4622.27, 14485.09, 187500.00, 187500.00, 187500.00, -187500.02, -187500.02, 187500.00, 0.000, 0.000, 0.000, 17:25:20.067
21, -5282.81, 13797.11, 187500.00, 187500.00, 187500.00, -187500.02, -187500.02, 187500.00, 0.000, 0.000, 0.000, 17:25:20.067
22, -5695.72, 13414.13, 187500.00, 187500.00, 187500.00, -187500.02, -187500.02, 187500.00, 0.000, 0.000, 0.000, 17:25:20.067
23, -4878.89, 14286.07, 187500.00, 187500.00, 187500.00, -187500.02, -187500.02, 187500.00, 0.000, 0.000, 0.000, 17:25:20.067
24, -4409.91, 14739.05, 187500.00, 187500.00, 187500.00, -187500.02, -187500.02, 187500.00, 0.000, 0.000, 0.000, 17:25:20.067
25, -4613.35, 14505.83, 187500.00, 187500.00, 187500.00, -187500.02, -187500.02, 187500.00, 0.000, 0.000, 0.000, 17:25:20.067
26, -5272.31, 13811.48, 187500.00, 187500.00, 187500.00, -187500.02, -187500.02, 187500.00, 0.000, 0.000, 0.000, 17:25:20.068
27, -5707.16, 13403.47, 187500.00, 187500.00, 187500.00, -187500.02, -187500.02, 187500.00, 0.000, -0.026, 1.022, 17:25:20.068
28, -4893.31, 14267.88, 187500.00, 187500.00, 187500.00, -187500.02, -187500.02, 187500.00, 0.000, 0.000, 0.000, 17:25:20.068
29, -4407.47, 14735.57, 187500.00, 187500.00, 187500.00, -187500.02, -187500.02, 187500.00, 0.000, 0.000, 0.000, 17:25:20.068
30, -4609.42, 14513.08, 187500.00, 187500.00, 187500.00, -187500.02, -187500.02, 187500.00, 0.000, 0.000, 0.000, 17:25:20.068
31, -5260.35, 13834.08, 187500.00, 187500.00, 187500.00, -187500.02, -187500.02, 187500.00, 0.000, 0.000, 0.000, 17:25:20.068
32, -5682.44, 13434.34, 187500.00, 187500.00, 187500.00, -187500.02, -187500.02, 187500.00, 0.000, 0.000, 0.000, 17:25:20.069
33, -4876.93, 14287.75, 187500.00, 187500.00, 187500.00, -187500.02, -187500.02, 187500.00, 0.000, 0.000, 0.000, 17:25:20.069
34, -4402.96, 14741.71, 187500.00, 187500.00, 187500.00, -187500.02, -187500.02, 187500.00, 0.000, 0.000, 0.000, 17:25:20.069
35, -4597.98, 14524.41, 187500.00, 187500.00, 187500.00, -187500.02, -187500.02, 187500.00, 0.000, 0.000, 0.000, 17:25:20.069
36, -5255.86, 13839.46, 187500.00, 187500.00, 187500.00, -187500.02, -187500.02, 187500.00, -0.002, -0.018, 1.028, 17:25:20.069
37, -5696.50, 13428.35, 187500.00, 187500.00, 187500.00, -187500.02, -187500.02, 187500.00, 0.000, 0.000, 0.000, 17:25:20.070
38, -4871.03, 14301.90, 187500.00, 187500.00, 187500.00, -187500.02, -187500.02, 187500.00, 0.000, 0.000, 0.000, 17:25:20.070
39, -4387.56, 14758.83, 187500.00, 187500.00, 187500.00, -187500.02, -187500.02, 187500.00, 0.000, 0.000, 0.000, 17:25:20.070
40, -4581.35, 14525.64, 187500.00, 187500.00, 187500.00, -187500.02, -187500.02, 187500.00, 0.000, 0.000, 0.000, 17:25:20.070
41, -5238.76, 13837.43, 187500.00, 187500.00, 187500.00, -187500.02, -187500.02, 187500.00, 0.000, 0.000, 0.000, 17:25:20.070
42, -5702.20, 13407.09, 187500.00, 187500.00, 187500.00, -187500.02, -187500.02, 187500.00, 0.000, 0.000, 0.000, 17:25:20.070
43, -4899.26, 14273.91, 187500.00, 187500.00, 187500.00, -187500.02, -187500.02, 187500.00, 0.000, 0.000, 0.000, 17:25:20.071
44, -4388.14, 14767.75, 187500.00, 187500.00, 187500.00, -187500.02, -187500.02, 187500.00, 0.000, 0.000, 0.000, 17:25:20.071
45, -4565.63, 14555.50, 187500.00, 187500.00, 187500.00, -187500.02, -187500.02, 187500.00, 0.000, 0.000, 0.000, 17:25:20.071
46, -5233.04, 13848.22, 187500.00, 187500.00, 187500.00, -187500.02, -187500.02, 187500.00, -0.002, -0.012, 1.018, 17:25:20.071
47, -5704.81, 13410.40, 187500.00, 187500.00, 187500.00, -187500.02, -187500.02, 187500.00, 0.000, 0.000, 0.000, 17:25:20.071
48, -4893.96, 14281.92, 187500.00, 187500.00, 187500.00, -187500.02, -187500.02, 187500.00, 0.000, 0.000, 0.000, 17:25:20.071
49, -4380.43, 14778.82, 187500.00, 187500.00, 187500.00, -187500.02, -187500.02, 187500.00, 0.000, 0.000, 0.000, 17:25:20.072
50, -4570.31, 14558.54, 187500.00, 187500.00, 187500.00, -187500.02, -187500.02, 187500.00, 0.000, 0.000, 0.000, 17:25:20.072
51, -5232.01, 13853.63, 187500.00, 187500.00, 187500.00, -187500.02, -187500.02, 187500.00, 0.000, 0.000, 0.000, 17:25:20.072
52, -5709.80, 13396.70, 187500.00, 187500.00, 187500.00, -187500.02, -187500.02, 187500.00, 0.000, 0.000, 0.000, 17:25:20.072
53, -4888.19, 14277.36, 187500.00, 187500.00, 187500.00, -187500.02, -187500.02, 187500.00, 0.000, 0.000, 0.000, 17:25:20.072
54, -4368.56, 14777.03, 187500.00, 187500.00, 187500.00, -187500.02, -187500.02, 187500.00, 0.000, 0.000, 0.000, 17:25:20.073
55, -4552.31, 14559.79, 187500.00, 187500.00, 187500.00, -187500.02, -187500.02, 187500.00, 0.000, 0.000, 0.000, 17:25:20.073
56, -5207.53, 13864.50, 187500.00, 187500.00, 187500.00, -187500.02, -187500.02, 187500.00, 0.000, -0.016, 1.026, 17:25:20.073
57, -5708.88, 13392.81, 187500.00, 187500.00, 187500.00, -187500.02, -187500.02, 187500.00, 0.000, 0.000, 0.000, 17:25:20.073
58, -4893.65, 14271.83, 187500.00, 187500.00, 187500.00, -187500.02, -187500.02, 187500.00, 0.000, 0.000, 0.000, 17:25:20.073
59, -4365.63, 14778.17, 187500.00, 187500.00, 187500.00, -187500.02, -187500.02, 187500.00, 0.000, 0.000, 0.000, 17:25:20.073
60, -4546.19, 14563.55, 187500.00, 187500.00, 187500.00, -187500.02, -187500.02, 187500.00, 0.000, 0.000, 0.000, 17:25:20.074
61, -5217.50, 13862.51, 187500.00, 187500.00, 187500.00, -187500.02, -187500.02, 187500.00, 0.000, 0.000, 0.000, 17:25:20.074
62, -5725.09, 13387.40, 187500.00, 187500.00, 187500.00, -187500.02, -187500.02, 187500.00, 0.000, 0.000, 0.000, 17:25:20.074
63, -4908.17, 14267.14, 187500.00, 187500.00, 187500.00, -187500.02, -187500.02, 187500.00, 0.000, 0.000, 0.000, 17:25:20.074
64, -4368.92, 14787.94, 187500.00, 187500.00, 187500.00, -187500.02, -187500.02, 187500.00, 0.000, 0.000, 0.000, 17:25:20.074
65, -4538.25, 14581.03, 187500.00, 187500.00, 187500.00, -187500.02, -187500.02, 187500.00, 0.000, 0.000, 0.000, 17:25:20.075
66, -5207.51, 13873.68, 187500.00, 187500.00, 187500.00, -187500.02, -187500.02, 187500.00, 0.004, -0.012, 1.030, 17:25:20.076
67, -5723.95, 13378.37, 187500.00, 187500.00, 187500.00, -187500.02, -187500.02, 187500.00, 0.000, 0.000, 0.000, 17:25:20.076
68, -4903.28, 14270.18, 187500.00, 187500.00, 187500.00, -187500.02, -187500.02, 187500.00, 0.000, 0.000, 0.000, 17:25:20.076
69, -4348.46, 14806.51, 187500.00, 187500.00, 187500.00, -187500.02, -187500.02, 187500.00, 0.000, 0.000, 0.000, 17:25:20.076
70, -4524.42, 14591.75, 187500.00, 187500.00, 187500.00, -187500.02, -187500.02, 187500.00, 0.000, 0.000, 0.000, 17:25:20.077
71, -5188.62, 13891.18, 187500.00, 187500.00, 187500.00, -187500.02, -187500.02, 187500.00, 0.000, 0.000, 0.000, 17:25:20.077
72, -5717.73, 13389.72, 187500.00, 187500.00, 187500.00, -187500.02, -187500.02, 187500.00, 0.000, 0.000, 0.000, 17:25:20.077
73, -4903.55, 14265.31, 187500.00, 187500.00, 187500.00, -187500.02, -187500.02, 187500.00, 0.000, 0.000, 0.000, 17:25:20.077
74, -4333.53, 14812.92, 187500.00, 187500.00, 187500.00, -187500.02, -187500.02, 187500.00, 0.000, 0.000, 0.000, 17:25:20.077
75, -4510.29, 14607.33, 187500.00, 187500.00, 187500.00, -187500.02, -187500.02, 187500.00, 0.000, 0.000, 0.000, 17:25:20.077
76, -5174.70, 13910.34, 187500.00, 187500.00, 187500.00, -187500.02, -187500.02, 187500.00, 0.004, -0.010, 1.028, 17:25:20.078
77, -5725.11, 13393.46, 187500.00, 187500.00, 187500.00, -187500.02, -187500.02, 187500.00, 0.000, 0.000, 0.000, 17:25:20.078
78, -4915.44, 14271.97, 187500.00, 187500.00, 187500.00, -187500.02, -187500.02, 187500.00, 0.000, 0.000, 0.000, 17:25:20.078
79, -4319.83, 14847.77, 187500.00, 187500.00, 187500.00, -187500.02, -187500.02, 187500.00, 0.000, 0.000, 0.000, 17:25:20.078
80, -4487.20, 14643.05, 187500.00, 187500.00, 187500.00, -187500.02, -187500.02, 187500.00, 0.000, 0.000, 0.000, 17:25:20.078
81, -5169.82, 13921.14, 187500.00, 187500.00, 187500.00, -187500.02, -187500.02, 187500.00, 0.000, 0.000, 0.000, 17:25:20.078
82, -5720.10, 13397.48, 187500.00, 187500.00, 187500.00, -187500.02, -187500.02, 187500.00, 0.000, 0.000, 0.000, 17:25:20.079
83, -4904.73, 14283.64, 187500.00, 187500.00, 187500.00, -187500.02, -187500.02, 187500.00, 0.000, 0.000, 0.000, 17:25:20.079
84, -4335.48, 14829.02, 187500.00, 187500.00, 187500.00, -187500.02, -187500.02, 187500.00, 0.000, 0.000, 0.000, 17:25:20.079
85, -4502.00, 14625.53, 187500.00, 187500.00, 187500.00, -187500.02, -187500.02, 187500.00, 0.000, 0.000, 0.000, 17:25:20.079
86, -5165.53, 13919.44, 187500.00, 187500.00, 187500.00, -187500.02, -187500.02, 187500.00, 0.006, -0.016, 1.026, 17:25:20.079
87, -5746.57, 13365.02, 187500.00, 187500.00, 187500.00, -187500.02, -187500.02, 187500.00, 0.000, 0.000, 0.000, 17:25:20.079
88, -4920.54, 14261.55, 187500.00, 187500.00, 187500.00, -187500.02, -187500.02, 187500.00, 0.000, 0.000, 0.000, 17:25:20.080
89, -4306.67, 14849.58, 187500.00, 187500.00, 187500.00, -187500.02, -187500.02, 187500.00, 0.000, 0.000, 0.000, 17:25:20.080
90, -4496.66, 14632.21, 187500.00, 187500.00, 187500.00, -187500.02, -187500.02, 187500.00, 0.000, 0.000, 0.000, 17:25:20.080
91, -5177.31, 13921.02, 187500.00, 187500.00, 187500.00, -187500.02, -187500.02, 187500.00, 0.000, 0.000, 0.000, 17:25:20.080
92, -5737.78, 13383.29, 187500.00, 187500.00, 187500.00, -187500.02, -187500.02, 187500.00, 0.000, 0.000, 0.000, 17:25:20.080
93, -4910.99, 14271.21, 187500.00, 187500.00, 187500.00, -187500.02, -187500.02, 187500.00, 0.000, 0.000, 0.000, 17:25:20.080
94, -4307.87, 14850.12, 187500.00, 187500.00, 187500.00, -187500.02, -187500.02, 187500.00, 0.000, 0.000, 0.000, 17:25:20.081
95, -4485.37, 14636.68, 187500.00, 187500.00, 187500.00, -187500.02, -187500.02, 187500.00, 0.000, 0.000, 0.000, 17:25:20.081
96, -5169.82, 13912.80, 187500.00, 187500.00, 187500.00, -187500.02, -187500.02, 187500.00, 0.000, -0.014, 1.034, 17:25:20.081
97, -5749.70, 13360.53, 187500.00, 187500.00, 187500.00, -187500.02, -187500.02, 187500.00, 0.000, 0.000, 0.000, 17:25:20.081
98, -4922.73, 14249.17, 187500.00, 187500.00, 187500.00, -187500.02, -187500.02, 187500.00, 0.000, 0.000, 0.000, 17:25:20.081
99, -4302.80, 14842.97, 187500.00, 187500.00, 187500.00, -187500.02, -187500.02, 187500.00, 0.000, 0.000, 0.000, 17:25:20.081
100, -4460.60, 14649.74, 187500.00, 187500.00, 187500.00, -187500.02, -187500.02, 187500.00, 0.000, 0.000, 0.000, 17:25:20.082
101, -5128.41, 13943.15, 187500.00, 187500.00, 187500.00, -187500.02, -187500.02, 187500.00, 0.000, 0.000, 0.000, 17:25:20.082
102, -5723.86, 13374.97, 187500.00, 187500.00, 187500.00, -187500.02, -187500.02, 187500.00, 0.000, 0.000, 0.000, 17:25:20.082
103, -4918.66, 14259.63, 187500.00, 187500.00, 187500.00, -187500.02, -187500.02, 187500.00, 0.000, 0.000, 0.000, 17:25:20.082
104, -4301.48, 14858.05, 187500.00, 187500.00, 187500.00, -187500.02, -187500.02, 187500.00, 0.000, 0.000, 0.000, 17:25:20.082
105, -4467.78, 14645.53, 187500.00, 187500.00, 187500.00, -187500.02, -187500.02, 187500.00, 0.000, 0.000, 0.000, 17:25:20.082
106, -5138.84, 13931.98, 187500.00, 187500.00, 187500.00, -187500.02, -187500.02, 187500.00, 0.004, -0.014, 1.030, 17:25:20.082
107, -5736.42, 13362.03, 187500.00, 187500.00, 187500.00, -187500.02, -187500.02, 187500.00, 0.000, 0.000, 0.000, 17:25:20.083
108, -4934.06, 14240.77, 187500.00, 187500.00, 187500.00, -187500.02, -187500.02, 187500.00, 0.000, 0.000, 0.000, 17:25:20.083
109, -4307.00, 14844.37, 187500.00, 187500.00, 187500.00, -187500.02, -187500.02, 187500.00, 0.000, 0.000, 0.000, 17:25:20.083
110, -4467.53, 14651.32, 187500.00, 187500.00, 187500.00, -187500.02, -187500.02, 187500.00, 0.000, 0.000, 0.000, 17:25:20.083
111, -5130.49, 13950.89, 187500.00, 187500.00, 187500.00, -187500.02, -187500.02, 187500.00, 0.000, 0.000, 0.000, 17:25:20.083
112, -5737.07, 13364.62, 187500.00, 187500.00, 187500.00, -187500.02, -187500.02, 187500.00, 0.000, 0.000, 0.000, 17:25:20.083
113, -4949.17, 14221.99, 187500.00, 187500.00, 187500.00, -187500.02, -187500.02, 187500.00, 0.000, 0.000, 0.000, 17:25:20.084
114, -4298.40, 14857.16, 187500.00, 187500.00, 187500.00, -187500.02, -187500.02, 187500.00, 0.000, 0.000, 0.000, 17:25:20.084
115, -4467.82, 14660.46, 187500.00, 187500.00, 187500.00, -187500.02, -187500.02, 187500.00, 0.000, 0.000, 0.000, 17:25:20.084
116, -5148.10, 13943.15, 187500.00, 187500.00, 187500.00, -187500.02, -187500.02, 187500.00, 0.002, -0.016, 1.028, 17:25:20.084
117, -5764.22, 13348.89, 187500.00, 187500.00, 187500.00, -187500.02, -187500.02, 187500.00, 0.000, 0.000, 0.000, 17:25:20.084
118, -4959.72, 14220.76, 187500.00, 187500.00, 187500.00, -187500.02, -187500.02, 187500.00, 0.000, 0.000, 0.000, 17:25:20.084
119, -4314.53, 14840.80, 187500.00, 187500.00, 187500.00, -187500.02, -187500.02, 187500.00, 0.000, 0.000, 0.000, 17:25:20.085
120, -4473.34, 14652.84, 187500.00, 187500.00, 187500.00, -187500.02, -187500.02, 187500.00, 0.000, 0.000, 0.000, 17:25:20.544
121, -5127.22, 13964.43, 187500.00, 187500.00, 187500.00, -187500.02, -187500.02, 187500.00, 0.000, 0.000, 0.000, 17:25:20.544
122, -5747.39, 13363.28, 187500.00, 187500.00, 187500.00, -187500.02, -187500.02, 187500.00, 0.000, 0.000, 0.000, 17:25:20.544
123, -4956.77, 14219.31, 187500.00, 187500.00, 187500.00, -187500.02, -187500.02, 187500.00, 0.000, 0.000, 0.000, 17:25:20.545
124, -4310.69, 14845.56, 187500.00, 187500.00, 187500.00, -187500.02, -187500.02, 187500.00, 0.000, 0.000, 0.000, 17:25:20.545
125, -4447.80, 14667.97, 187500.00, 187500.00, 187500.00, -187500.02, -187500.02, 187500.00, 0.000, 0.000, 0.000, 17:25:20.545
126, -5114.35, 13971.05, 187500.00, 187500.00, 187500.00, -187500.02, -187500.02, 187500.00, 0.008, -0.018, 1.028, 17:25:20.545
127, -5749.85, 13353.47, 187500.00, 187500.00, 187500.00, -187500.02, -187500.02, 187500.00, 0.000, 0.000, 0.000, 17:25:20.545
128, -4957.91, 14216.36, 187500.00, 187500.00, 187500.00, -187500.02, -187500.02, 187500.00, 0.000, 0.000, 0.000, 17:25:20.546
129, -4306.82, 14848.24, 187500.00, 187500.00, 187500.00, -187500.02, -187500.02, 187500.00, 0.000, 0.000, 0.000, 17:25:20.546
130, -4459.33, 14654.07, 187500.00, 187500.00, 187500.00, -187500.02, -187500.02, 187500.00, 0.000, 0.000, 0.000, 17:25:20.546
131, -5114.10, 13962.58, 187500.00, 187500.00, 187500.00, -187500.02, -187500.02, 187500.00, 0.000, 0.000, 0.000, 17:25:20.546
132, -5760.16, 13341.49, 187500.00, 187500.00, 187500.00, -187500.02, -187500.02, 187500.00, 0.000, 0.000, 0.000, 17:25:20.546
133, -4983.66, 14193.20, 187500.00, 187500.00, 187500.00, -187500.02, -187500.02, 187500.00, 0.000, 0.000, 0.000, 17:25:20.546
134, -4331.92, 14830.83, 187500.00, 187500.00, 187500.00, -187500.02, -187500.02, 187500.00, 0.000, 0.000, 0.000, 17:25:20.547
135, -4455.84, 14670.63, 187500.00, 187500.00, 187500.00, -187500.02, -187500.02, 187500.00, 0.000, 0.000, 0.000, 17:25:20.547
136, -5094.90, 13990.52, 187500.00, 187500.00, 187500.00, -187500.02, -187500.02, 187500.00, 0.000, -0.014, 1.032, 17:25:20.547
137, -5756.00, 13347.66, 187500.00, 187500.00, 187500.00, -187500.02, -187500.02, 187500.00, 0.000, 0.000, 0.000, 17:25:20.547
138, -4987.32, 14187.28, 187500.00, 187500.00, 187500.00, -187500.02, -187500.02, 187500.00, 0.000, 0.000, 0.000, 17:25:20.547
139, -4329.78, 14832.01, 187500.00, 187500.00, 187500.00, -187500.02, -187500.02, 187500.00, 0.000, 0.000, 0.000, 17:25:20.547
140, -4463.13, 14660.82, 187500.00, 187500.00, 187500.00, -187500.02, -187500.02, 187500.00, 0.000, 0.000, 0.000, 17:25:20.548
141, -5098.66, 13988.46, 187500.00, 187500.00, 187500.00, -187500.02, -187500.02, 187500.00, 0.000, 0.000, 0.000, 17:25:20.548
142, -5753.54, 13354.70, 187500.00, 187500.00, 187500.00, -187500.02, -187500.02, 187500.00, 0.000, 0.000, 0.000, 17:25:20.548
143, -4992.75, 14188.19, 187500.00, 187500.00, 187500.00, -187500.02, -187500.02, 187500.00, 0.000, 0.000, 0.000, 17:25:20.548
144, -4308.34, 14858.08, 187500.00, 187500.00, 187500.00, -187500.02, -187500.02, 187500.00, 0.000, 0.000, 0.000, 17:25:20.548
145, -4436.35, 14689.75, 187500.00, 187500.00, 187500.00, -187500.02, -187500.02, 187500.00, 0.000, 0.000, 0.000, 17:25:20.548
146, -5079.68, 14002.65, 187500.00, 187500.00, 187500.00, -187500.02, -187500.02, 187500.00, 0.000, -0.022, 1.030, 17:25:20.548
147, -5746.95, 13348.68, 187500.00, 187500.00, 187500.00, -187500.02, -187500.02, 187500.00, 0.000, 0.000, 0.000, 17:25:20.549
148, -5016.33, 14158.18, 187500.00, 187500.00, 187500.00, -187500.02, -187500.02, 187500.00, 0.000, 0.000, 0.000, 17:25:20.549
149, -4344.35, 14816.14, 187500.00, 187500.00, 187500.00, -187500.02, -187500.02, 187500.00, 0.000, 0.000, 0.000, 17:25:20.549
150, -4465.59, 14656.87, 187500.00, 187500.00, 187500.00, -187500.02, -187500.02, 187500.00, 0.000, 0.000, 0.000, 17:25:20.549
151, -5089.42, 13997.38, 187500.00, 187500.00, 187500.00, -187500.02, -187500.02, 187500.00, 0.000, 0.000, 0.000, 17:25:20.549
152, -5737.71, 13355.68, 187500.00, 187500.00, 187500.00, -187500.02, -187500.02, 187500.00, 0.000, 0.000, 0.000, 17:25:20.549
153, -4996.42, 14166.22, 187500.00, 187500.00, 187500.00, -187500.02, -187500.02, 187500.00, 0.000, 0.000, 0.000, 17:25:20.550
154, -4336.48, 14818.45, 187500.00, 187500.00, 187500.00, -187500.02, -187500.02, 187500.00, 0.000, 0.000, 0.000, 17:25:20.550
155, -4460.07, 14663.59, 187500.00, 187500.00, 187500.00, -187500.02, -187500.02, 187500.00, 0.000, 0.000, 0.000, 17:25:20.550
156, -5090.48, 14001.38, 187500.00, 187500.00, 187500.00, -187500.02, -187500.02, 187500.00, 0.004, -0.022, 1.028, 17:25:20.550
157, -5753.43, 13352.80, 187500.00, 187500.00, 187500.00, -187500.02, -187500.02, 187500.00, 0.000, 0.000, 0.000, 17:25:20.550
158, -5009.00, 14161.01, 187500.00, 187500.00, 187500.00, -187500.02, -187500.02, 187500.00, 0.000, 0.000, 0.000, 17:25:20.550
159, -4311.61, 14844.22, 187500.00, 187500.00, 187500.00, -187500.02, -187500.02, 187500.00, 0.000, 0.000, 0.000, 17:25:20.551
160, -4425.91, 14693.10, 187500.00, 187500.00, 187500.00, -187500.02, -187500.02, 187500.00, 0.000, 0.000, 0.000, 17:25:20.551
161, -5049.19, 14040.09, 187500.00, 187500.00, 187500.00, -187500.02, -187500.02, 187500.00, 0.000, 0.000, 0.000, 17:25:20.551
162, -5724.17, 13377.63, 187500.00, 187500.00, 187500.00, -187500.02, -187500.02, 187500.00, 0.000, 0.000, 0.000, 17:25:20.551
163, -4999.12, 14167.79, 187500.00, 187500.00, 187500.00, -187500.02, -187500.02, 187500.00, 0.000, 0.000, 0.000, 17:25:20.551
164, -4307.38, 14847.91, 187500.00, 187500.00, 187500.00, -187500.02, -187500.02, 187500.00, 0.000, 0.000, 0.000, 17:25:20.551
165, -4419.03, 14696.50, 187500.00, 187500.00, 187500.00, -187500.02, -187500.02, 187500.00, 0.000, 0.000, 0.000, 17:25:20.552
166, -5039.67, 14046.13, 187500.00, 187500.00, 187500.00, -187500.02, -187500.02, 187500.00, 0.004, -0.018, 1.028, 17:25:20.552
167, -5711.14, 13392.18, 187500.00, 187500.00, 187500.00, -187500.02, -187500.02, 187500.00, 0.000, 0.000, 0.000, 17:25:20.552
168, -5008.85, 14155.96, 187500.00, 187500.00, 187500.00, -187500.02, -187500.02, 187500.00, 0.000, 0.000, 0.000, 17:25:20.552
169, -4304.92, 14842.56, 187500.00, 187500.00, 187500.00, -187500.02, -187500.02, 187500.00, 0.000, 0.000, 0.000, 17:25:20.552
170, -4405.48, 14717.46, 187500.00, 187500.00, 187500.00, -187500.02, -187500.02, 187500.00, 0.000, 0.000, 0.000, 17:25:20.552
171, -5010.64, 14077.91, 187500.00, 187500.00, 187500.00, -187500.02, -187500.02, 187500.00, 0.000, 0.000, 0.000, 17:25:20.553
172, -5685.48, 13411.96, 187500.00, 187500.00, 187500.00, -187500.02, -187500.02, 187500.00, 0.000, 0.000, 0.000, 17:25:20.553
173, -4975.65, 14188.40, 187500.00, 187500.00, 187500.00, -187500.02, -187500.02, 187500.00, 0.000, 0.000, 0.000, 17:25:20.553
174, -4298.06, 14862.59, 187500.00, 187500.00, 187500.00, -187500.02, -187500.02, 187500.00, 0.000, 0.000, 0.000, 17:25:20.553
175, -4397.66, 14731.18, 187500.00, 187500.00, 187500.00, -187500.02, -187500.02, 187500.00, 0.002, -0.016, 1.020, 17:25:20.553
176, -4993.67, 14100.40, 187500.00, 187500.00, 187500.00, -187500.02, -187500.02, 187500.00, 0.000, 0.000, 0.000, 17:25:20.553
177, -5682.42, 13417.26, 187500.00, 187500.00, 187500.00, -187500.02, -187500.02, 187500.00, 0.000, 0.000, 0.000, 17:25:20.553
178, -4996.29, 14164.34, 187500.00, 187500.00, 187500.00, -187500.02, -187500.02, 187500.00, 0.000, 0.000, 0.000, 17:25:20.553
179, -4306.76, 14846.86, 187500.00, 187500.00, 187500.00, -187500.02, -187500.02, 187500.00, 0.000, 0.000, 0.000, 17:25:20.554
180, -4404.63, 14719.88, 187500.00, 187500.00, 187500.00, -187500.02, -187500.02, 187500.00, 0.000, 0.000, 0.000, 17:25:20.554
181, -4999.86, 14090.52, 187500.00, 187500.00, 187500.00, -187500.02, -187500.02, 187500.00, 0.000, 0.000, 0.000, 17:25:20.554
182, -5690.31, 13410.69, 187500.00, 187500.00, 187500.00, -187500.02, -187500.02, 187500.00, 0.000, 0.000, 0.000, 17:25:20.554
183, -4993.65, 14168.14, 187500.00, 187500.00, 187500.00, -187500.02, -187500.02, 187500.00, 0.000, 0.000, 0.000, 17:25:20.554
184, -4291.47, 14859.71, 187500.00, 187500.00, 187500.00, -187500.02, -187500.02, 187500.00, 0.000, 0.000, 0.000, 17:25:20.554
185, -4393.10, 14726.40, 187500.00, 187500.00, 187500.00, -187500.02, -187500.02, 187500.00, 0.000, -0.020, 1.022, 17:25:20.555
186, -4986.70, 14097.94, 187500.00, 187500.00, 187500.00, -187500.02, -187500.02, 187500.00, 0.000, 0.000, 0.000, 17:25:20.555
187, -5684.76, 13411.00, 187500.00, 187500.00, 187500.00, -187500.02, -187500.02, 187500.00, 0.000, 0.000, 0.000, 17:25:20.555
188, -4996.67, 14168.52, 187500.00, 187500.00, 187500.00, -187500.02, -187500.02, 187500.00, 0.000, 0.000, 0.000, 17:25:20.555
189, -4286.64, 14864.67, 187500.00, 187500.00, 187500.00, -187500.02, -187500.02, 187500.00, 0.000, 0.000, 0.000, 17:25:20.555
190, -4375.33, 14739.57, 187500.00, 187500.00, 187500.00, -187500.02, -187500.02, 187500.00, 0.000, 0.000, 0.000, 17:25:20.556
191, -4957.37, 14125.61, 187500.00, 187500.00, 187500.00, -187500.02, -187500.02, 187500.00, 0.000, 0.000, 0.000, 17:25:20.556
192, -5665.63, 13424.55, 187500.00, 187500.00, 187500.00, -187500.02, -187500.02, 187500.00, 0.000, 0.000, 0.000, 17:25:20.556
193, -5000.73, 14154.76, 187500.00, 187500.00, 187500.00, -187500.02, -187500.02, 187500.00, 0.000, 0.000, 0.000, 17:25:20.556
194, -4282.10, 14861.94, 187500.00, 187500.00, 187500.00, -187500.02, -187500.02, 187500.00, 0.000, 0.000, 0.000, 17:25:20.556
195, -4365.97, 14740.42, 187500.00, 187500.00, 187500.00, -187500.02, -187500.02, 187500.00, 0.000, -0.018, 1.028, 17:25:20.557
196, -4960.86, 14109.96, 187500.00, 187500.00, 187500.00, -187500.02, -187500.02, 187500.00, 0.000, 0.000, 0.000, 17:25:20.557
197, -5672.43, 13404.18, 187500.00, 187500.00, 187500.00, -187500.02, -187500.02, 187500.00, 0.000, 0.000, 0.000, 17:25:20.557
198, -5012.02, 14131.62, 187500.00, 187500.00, 187500.00, -187500.02, -187500.02, 187500.00, 0.000, 0.000, 0.000, 17:25:20.557
199, -4285.92, 14854.83, 187500.00, 187500.00, 187500.00, -187500.02, -187500.02, 187500.00, 0.000, 0.000, 0.000, 17:25:20.557
200, -4361.67, 14748.31, 187500.00, 187500.00, 187500.00, -187500.02, -187500.02, 187500.00, 0.000, 0.000, 0.000, 17:25:20.557
201, -4956.25, 14115.77, 187500.00, 187500.00, 187500.00, -187500.02, -187500.02, 187500.00, 0.000, 0.000, 0.000, 17:25:20.558
202, -5687.11, 13390.04, 187500.00, 187500.00, 187500.00, -187500.02, -187500.02, 187500.00, 0.000, 0.000, 0.000, 17:25:20.558
203, -5027.29, 14114.48, 187500.00, 187500.00, 187500.00, -187500.02, -187500.02, 187500.00, 0.000, 0.000, 0.000, 17:25:20.558
204, -4283.96, 14850.10, 187500.00, 187500.00, 187500.00, -187500.02, -187500.02, 187500.00, 0.000, 0.000, 0.000, 17:25:20.558
205, -4372.11, 14732.44, 187500.00, 187500.00, 187500.00, -187500.02, -187500.02, 187500.00, -0.004, -0.020, 1.032, 17:25:20.558
206, -4983.19, 14083.59, 187500.00, 187500.00, 187500.00, -187500.02, -187500.02, 187500.00, 0.000, 0.000, 0.000, 17:25:20.558
207, -5715.54, 13354.12, 187500.00, 187500.00, 187500.00, -187500.02, -187500.02, 187500.00, 0.000, 0.000, 0.000, 17:25:20.559
208, -5054.96, 14089.31, 187500.00, 187500.00, 187500.00, -187500.02, -187500.02, 187500.00, 0.000, 0.000, 0.000, 17:25:20.559
209, -4294.87, 14841.76, 187500.00, 187500.00, 187500.00, -187500.02, -187500.02, 187500.00, 0.000, 0.000, 0.000, 17:25:20.559
210, -4379.22, 14723.83, 187500.00, 187500.00, 187500.00, -187500.02, -187500.02, 187500.00, 0.000, 0.000, 0.000, 17:25:20.559
211, -4968.93, 14100.24, 187500.00, 187500.00, 187500.00, -187500.02, -187500.02, 187500.00, 0.000, 0.000, 0.000, 17:25:20.559
212, -5712.90, 13366.83, 187500.00, 187500.00, 187500.00, -187500.02, -187500.02, 187500.00, 0.000, 0.000, 0.000, 17:25:20.560
213, -5040.45, 14112.18, 187500.00, 187500.00, 187500.00, -187500.02, -187500.02, 187500.00, 0.000, 0.000, 0.000, 17:25:20.560
214, -4277.50, 14863.78, 187500.00, 187500.00, 187500.00, -187500.02, -187500.02, 187500.00, 0.000, 0.000, 0.000, 17:25:20.560
215, -4360.13, 14740.06, 187500.00, 187500.00, 187500.00, -187500.02, -187500.02, 187500.00, -0.002, -0.022, 1.032, 17:25:20.560
216, -4959.38, 14098.41, 187500.00, 187500.00, 187500.00, -187500.02, -187500.02, 187500.00, 0.000, 0.000, 0.000, 17:25:20.560
217, -5697.21, 13367.88, 187500.00, 187500.00, 187500.00, -187500.02, -187500.02, 187500.00, 0.000, 0.000, 0.000, 17:25:20.560
218, -5045.66, 14107.48, 187500.00, 187500.00, 187500.00, -187500.02, -187500.02, 187500.00, 0.000, 0.000, 0.000, 17:25:20.560
219, -4257.14, 14891.25, 187500.00, 187500.00, 187500.00, -187500.02, -187500.02, 187500.00, 0.000, 0.000, 0.000, 17:25:20.560
220, -4330.76, 14775.91, 187500.00, 187500.00, 187500.00, -187500.02, -187500.02, 187500.00, 0.000, 0.000, 0.000, 17:25:20.560
221, -4946.26, 14122.57, 187500.00, 187500.00, 187500.00, -187500.02, -187500.02, 187500.00, 0.000, 0.000, 0.000, 17:25:20.561
222, -5714.96, 13350.83, 187500.00, 187500.00, 187500.00, -187500.02, -187500.02, 187500.00, 0.000, 0.000, 0.000, 17:25:20.561
223, -5064.37, 14079.88, 187500.00, 187500.00, 187500.00, -187500.02, -187500.02, 187500.00, 0.000, 0.000, 0.000, 17:25:20.561
224, -4290.35, 14855.82, 187500.00, 187500.00, 187500.00, -187500.02, -187500.02, 187500.00, 0.000, 0.000, 0.000, 17:25:20.561
225, -4344.24, 14752.98, 187500.00, 187500.00, 187500.00, -187500.02, -187500.02, 187500.00, 0.002, -0.016, 1.028, 17:25:20.561
226, -4938.98, 14127.71, 187500.00, 187500.00, 187500.00, -187500.02, -187500.02, 187500.00, 0.000, 0.000, 0.000, 17:25:20.561
227, -5704.66, 13374.97, 187500.00, 187500.00, 187500.00, -187500.02, -187500.02, 187500.00, 0.000, 0.000, 0.000, 17:25:20.561
228, -5058.20, 14095.81, 187500.00, 187500.00, 187500.00, -187500.02, -187500.02, 187500.00, 0.000, 0.000, 0.000, 17:25:20.561
229, -4275.75, 14861.92, 187500.00, 187500.00, 187500.00, -187500.02, -187500.02, 187500.00, 0.000, 0.000, 0.000, 17:25:20.562
230, -4349.92, 14754.74, 187500.00, 187500.00, 187500.00, -187500.02, -187500.02, 187500.00, 0.000, 0.000, 0.000, 17:25:20.562
231, -4938.22, 14133.61, 187500.00, 187500.00, 187500.00, -187500.02, -187500.02, 187500.00, 0.000, 0.000, 0.000, 17:25:20.562
232, -5705.77, 13365.52, 187500.00, 187500.00, 187500.00, -187500.02, -187500.02, 187500.00, 0.000, 0.000, 0.000, 17:25:20.562
233, -5061.95, 14084.59, 187500.00, 187500.00, 187500.00, -187500.02, -187500.02, 187500.00, 0.000, 0.000, 0.000, 17:25:20.562
234, -4275.93, 14869.59, 187500.00, 187500.00, 187500.00, -187500.02, -187500.02, 187500.00, 0.000, 0.000, 0.000, 17:25:20.563
235, -4344.11, 14769.23, 187500.00, 187500.00, 187500.00, -187500.02, -187500.02, 187500.00, 0.000, -0.018, 1.030, 17:25:20.563
236, -4908.15, 14159.99, 187500.00, 187500.00, 187500.00, -187500.02, -187500.02, 187500.00, 0.000, 0.000, 0.000, 17:25:20.563
237, -5672.56, 13397.66, 187500.00, 187500.00, 187500.00, -187500.02, -187500.02, 187500.00, 0.000, 0.000, 0.000, 17:25:20.563
238, -5049.82, 14099.08, 187500.00, 187500.00, 187500.00, -187500.02, -187500.02, 187500.00, 0.000, 0.000, 0.000, 17:25:20.563
239, -4262.86, 14885.37, 187500.00, 187500.00, 187500.00, -187500.02, -187500.02, 187500.00, 0.000, 0.000, 0.000, 17:25:20.563
240, -4322.65, 14785.03, 187500.00, 187500.00, 187500.00, -187500.02, -187500.02, 187500.00, 0.000, 0.000, 0.000, 17:25:21.025
241, -4897.58, 14176.57, 187500.00, 187500.00, 187500.00, -187500.02, -187500.02, 187500.00, 0.000, 0.000, 0.000, 17:25:21.025
242, -5673.01, 13402.73, 187500.00, 187500.00, 187500.00, -187500.02, -187500.02, 187500.00, 0.000, 0.000, 0.000, 17:25:21.025
243, -5059.36, 14092.62, 187500.00, 187500.00, 187500.00, -187500.02, -187500.02, 187500.00, 0.000, 0.000, 0.000, 17:25:21.025
244, -4254.56, 14885.81, 187500.00, 187500.00, 187500.00, -187500.02, -187500.02, 187500.00, 0.000, 0.000, 0.000, 17:25:21.025
245, -4304.48, 14795.42, 187500.00, 187500.00, 187500.00, -187500.02, -187500.02, 187500.00, 0.002, -0.016, 1.036, 17:25:21.026
246, -4888.19, 14180.64, 187500.00, 187500.00, 187500.00, -187500.02, -187500.02, 187500.00, 0.000, 0.000, 0.000, 17:25:21.026
247, -5684.05, 13388.22, 187500.00, 187500.00, 187500.00, -187500.02, -187500.02, 187500.00, 0.000, 0.000, 0.000, 17:25:21.026
248, -5073.51, 14077.33, 187500.00, 187500.00, 187500.00, -187500.02, -187500.02, 187500.00, 0.000, 0.000, 0.000, 17:25:21.026
249, -4263.86, 14887.40, 187500.00, 187500.00, 187500.00, -187500.02, -187500.02, 187500.00, 0.000, 0.000, 0.000, 17:25:21.027
250, -4331.46, 14784.32, 187500.00, 187500.00, 187500.00, -187500.02, -187500.02, 187500.00, 0.000, 0.000, 0.000, 17:25:21.027
251, -4911.21, 14155.31, 187500.00, 187500.00, 187500.00, -187500.02, -187500.02, 187500.00, 0.000, 0.000, 0.000, 17:25:21.027
252, -5679.78, 13388.00, 187500.00, 187500.00, 187500.00, -187500.02, -187500.02, 187500.00, 0.000, 0.000, 0.000, 17:25:21.027
253, -5058.67, 14085.91, 187500.00, 187500.00, 187500.00, -187500.02, -187500.02, 187500.00, 0.000, 0.000, 0.000, 17:25:21.027
254, -4260.73, 14885.81, 187500.00, 187500.00, 187500.00, -187500.02, -187500.02, 187500.00, 0.000, 0.000, 0.000, 17:25:21.027
255, -4322.47, 14786.08, 187500.00, 187500.00, 187500.00, -187500.02, -187500.02, 187500.00, 0.002, -0.016, 1.034, 17:25:21.028
0, -4884.46, 14188.55, 187500.00, 187500.00, 187500.00, -187500.02, -187500.02, 187500.00, 0.000, 0.000, 0.000, 17:25:21.028
1, -5676.16, 13408.03, 187500.00, 187500.00, 187500.00, -187500.02, -187500.02, 187500.00, 0.000, 0.000, 0.000, 17:25:21.028
2, -5079.52, 14075.52, 187500.00, 187500.00, 187500.00, -187500.02, -187500.02, 187500.00, 0.000, 0.000, 0.000, 17:25:21.028
3, -4259.59, 14882.55, 187500.00, 187500.00, 187500.00, -187500.02, -187500.02, 187500.00, 0.000, 0.000, 0.000, 17:25:21.028
4, -4322.29, 14778.30, 187500.00, 187500.00, 187500.00, -187500.02, -187500.02, 187500.00, 0.000, 0.000, 0.000, 17:25:21.029
5, -4892.95, 14165.60, 187500.00, 187500.00, 187500.00, -187500.02, -187500.02, 187500.00, 0.000, 0.000, 0.000, 17:25:21.029
6, -5704.25, 13371.10, 187500.00, 187500.00, 187500.00, -187500.02, -187500.02, 187500.00, 0.000, 0.000, 0.000, 17:25:21.029
7, -5098.54, 14060.21, 187500.00, 187500.00, 187500.00, -187500.02, -187500.02, 187500.00, 0.000, 0.000, 0.000, 17:25:21.029
8, -4268.83, 14871.60, 187500.00, 187500.00, 187500.00, -187500.02, -187500.02, 187500.00, 0.000, 0.000, 0.000, 17:25:21.029
9, -4317.19, 14787.02, 187500.00, 187500.00, 187500.00, -187500.02, -187500.02, 187500.00, 0.006, -0.018, 1.030, 17:25:21.029
10, -4887.05, 14185.27, 187500.00, 187500.00, 187500.00, -187500.02, -187500.02, 187500.00, 0.000, 0.000, 0.000, 17:25:21.029
11, -5679.06, 13393.34, 187500.00, 187500.00, 187500.00, -187500.02, -187500.02, 187500.00, 0.000, 0.000, 0.000, 17:25:21.029
12, -5079.39, 14063.58, 187500.00, 187500.00, 187500.00, -187500.02, -187500.02, 187500.00, 0.000, 0.000, 0.000, 17:25:21.030
13, -4266.14, 14876.29, 187500.00, 187500.00, 187500.00, -187500.02, -187500.02, 187500.00, 0.000, 0.000, 0.000, 17:25:21.030
14, -4324.48, 14783.89, 187500.00, 187500.00, 187500.00, -187500.02, -187500.02, 187500.00, 0.000, 0.000, 0.000, 17:25:21.030
15, -4876.21, 14193.00, 187500.00, 187500.00, 187500.00, -187500.02, -187500.02, 187500.00, 0.000, 0.000, 0.000, 17:25:21.030
16, -5671.55, 13400.74, 187500.00, 187500.00, 187500.00, -187500.02, -187500.02, 187500.00, 0.000, 0.000, 0.000, 17:25:21.030
17, -5098.77, 14043.85, 187500.00, 187500.00, 187500.00, -187500.02, -187500.02, 187500.00, 0.000, 0.000, 0.000, 17:25:21.030
18, -4275.04, 14857.88, 187500.00, 187500.00, 187500.00, -187500.02, -187500.02, 187500.00, 0.000, 0.000, 0.000, 17:25:21.030
19, -4313.37, 14795.71, 187500.00, 187500.00, 187500.00, -187500.02, -187500.02, 187500.00, 0.008, -0.018, 1.034, 17:25:21.030
20, -4870.36, 14207.19, 187500.00, 187500.00, 187500.00, -187500.02, -187500.02, 187500.00, 0.000, 0.000, 0.000, 17:25:21.031
21, -5674.24, 13394.19, 187500.00, 187500.00, 187500.00, -187500.02, -187500.02, 187500.00, 0.000, 0.000, 0.000, 17:25:21.031
22, -5095.91, 14045.14, 187500.00, 187500.00, 187500.00, -187500.02, -187500.02, 187500.00, 0.000, 0.000, 0.000, 17:25:21.031
23, -4269.16, 14874.42, 187500.00, 187500.00, 187500.00, -187500.02, -187500.02, 187500.00, 0.000, 0.000, 0.000, 17:25:21.031
24, -4312.52, 14790.64, 187500.00, 187500.00, 187500.00, -187500.02, -187500.02, 187500.00, 0.000, 0.000, 0.000, 17:25:21.031
25, -4856.59, 14213.12, 187500.00, 187500.00, 187500.00, -187500.02, -187500.02, 187500.00, 0.000, 0.000, 0.000, 17:25:21.031
26, -5656.49, 13416.25, 187500.00, 187500.00, 187500.00, -187500.02, -187500.02, 187500.00, 0.000, 0.000, 0.000, 17:25:21.031
27, -5089.81, 14057.15, 187500.00, 187500.00, 187500.00, -187500.02, -187500.02, 187500.00, 0.000, 0.000, 0.000, 17:25:21.031
28, -4239.41, 14902.85, 187500.00, 187500.00, 187500.00, -187500.02, -187500.02, 187500.00, 0.000, 0.000, 0.000, 17:25:21.031
29, -4281.95, 14824.84, 187500.00, 187500.00, 187500.00, -187500.02, -187500.02, 187500.00, 0.010, -0.014, 1.026, 17:25:21.032
30, -4835.17, 14238.53, 187500.00, 187500.00, 187500.00, -187500.02, -187500.02, 187500.00, 0.000, 0.000, 0.000, 17:25:21.032
31, -5651.37, 13433.08, 187500.00, 187500.00, 187500.00, -187500.02, -187500.02, 187500.00, 0.000, 0.000, 0.000, 17:25:21.032
32, -5081.29, 14068.84, 187500.00, 187500.00, 187500.00, -187500.02, -187500.02, 187500.00, 0.000, 0.000, 0.000, 17:25:21.032
33, -4243.70, 14896.95, 187500.00, 187500.00, 187500.00, -187500.02, -187500.02, 187500.00, 0.000, 0.000, 0.000, 17:25:21.032
34, -4277.59, 14826.11, 187500.00, 187500.00, 187500.00, -187500.02, -187500.02, 187500.00, 0.000, 0.000, 0.000, 17:25:21.032
35, -4837.48, 14236.72, 187500.00, 187500.00, 187500.00, -187500.02, -187500.02, 187500.00, 0.000, 0.000, 0.000, 17:25:21.032
36, -5642.43, 13432.48, 187500.00, 187500.00, 187500.00, -187500.02, -187500.02, 187500.00, 0.000, 0.000, 0.000, 17:25:21.032
37, -5103.06, 14044.56, 187500.00, 187500.00, 187500.00, -187500.02, -187500.02, 187500.00, 0.000, 0.000, 0.000, 17:25:21.033
38, -4262.95, 14887.33, 187500.00, 187500.00, 187500.00, -187500.02, -187500.02, 187500.00, 0.000, 0.000, 0.000, 17:25:21.033
39, -4285.37, 14832.42, 187500.00, 187500.00, 187500.00, -187500.02, -187500.02, 187500.00, 0.008, -0.016, 1.022, 17:25:21.033
40, -4826.48, 14251.23, 187500.00, 187500.00, 187500.00, -187500.02, -187500.02, 187500.00, 0.000, 0.000, 0.000, 17:25:21.033
41, -5653.85, 13416.32, 187500.00, 187500.00, 187500.00, -187500.02, -187500.02, 187500.00, 0.000, 0.000, 0.000, 17:25:21.033
42, -5110.70, 14034.01, 187500.00, 187500.00, 187500.00, -187500.02, -187500.02, 187500.00, 0.000, 0.000, 0.000, 17:25:21.033
43, -4273.92, 14873.48, 187500.00, 187500.00, 187500.00, -187500.02, -187500.02, 187500.00, 0.000, 0.000, 0.000, 17:25:21.034
44, -4301.84, 14809.15, 187500.00, 187500.00, 187500.00, -187500.02, -187500.02, 187500.00, 0.000, 0.000, 0.000, 17:25:21.034
45, -4843.71, 14237.59, 187500.00, 187500.00, 187500.00, -187500.02, -187500.02, 187500.00, 0.000, 0.000, 0.000, 17:25:21.034
46, -5667.15, 13415.92, 187500.00, 187500.00, 187500.00, -187500.02, -187500.02, 187500.00, 0.000, 0.000, 0.000, 17:25:21.034
47, -5117.70, 14031.82, 187500.00, 187500.00, 187500.00, -187500.02, -187500.02, 187500.00, 0.000, 0.000, 0.000, 17:25:21.034
48, -4265.03, 14881.81, 187500.00, 187500.00, 187500.00, -187500.02, -187500.02, 187500.00, 0.008, -0.014, 1.026, 17:25:21.034
49, -4283.35, 14827.41, 187500.00, 187500.00, 187500.00, -187500.02, -187500.02, 187500.00, 0.000, 0.000, 0.000, 17:25:21.035
50, -4815.84, 14261.46, 187500.00, 187500.00, 187500.00, -187500.02, -187500.02, 187500.00, 0.000, 0.000, 0.000, 17:25:21.035
51, -5632.13, 13435.48, 187500.00, 187500.00, 187500.00, -187500.02, -187500.02, 187500.00, 0.000, 0.000, 0.000, 17:25:21.035
52, -5108.07, 14031.26, 187500.00, 187500.00, 187500.00, -187500.02, -187500.02, 187500.00, 0.000, 0.000, 0.000, 17:25:21.035
53, -4230.13, 14905.91, 187500.00, 187500.00, 187500.00, -187500.02, -187500.02, 187500.00, 0.000, 0.000, 0.000, 17:25:21.035
54, -4249.96, 14850.63, 187500.00, 187500.00, 187500.00, -187500.02, -187500.02, 187500.00, 0.000, 0.000, 0.000, 17:25:21.035
55, -4784.64, 14284.53, 187500.00, 187500.00, 187500.00, -187500.02, -187500.02, 187500.00, 0.000, 0.000, 0.000, 17:25:21.036
56, -5607.45, 13463.91, 187500.00, 187500.00, 187500.00, -187500.02, -187500.02, 187500.00, 0.000, 0.000, 0.000, 17:25:21.036
57, -5087.46, 14057.44, 187500.00, 187500.00, 187500.00, -187500.02, -187500.02, 187500.00, 0.000, 0.000, 0.000, 17:25:21.036
58, -4231.45, 14913.15, 187500.00, 187500.00, 187500.00, -187500.02, -187500.02, 187500.00, 0.004, -0.018, 1.024, 17:25:21.036
59, -4241.82, 14863.15, 187500.00, 187500.00, 187500.00, -187500.02, -187500.02, 187500.00, 0.000, 0.000, 0.000, 17:25:21.036
60, -4762.93, 14304.87, 187500.00, 187500.00, 187500.00, -187500.02, -187500.02, 187500.00, 0.000, 0.000, 0.000, 17:25:21.037
61, -5588.07, 13485.10, 187500.00, 187500.00, 187500.00, -187500.02, -187500.02, 187500.00, 0.000, 0.000, 0.000, 17:25:21.037
62, -5082.27, 14064.43, 187500.00, 187500.00, 187500.00, -187500.02, -187500.02, 187500.00, 0.000, 0.000, 0.000, 17:25:21.037
63, -4226.36, 14916.70, 187500.00, 187500.00, 187500.00, -187500.02, -187500.02, 187500.00, 0.000, 0.000, 0.000, 17:25:21.037
64, -4226.54, 14879.96, 187500.00, 187500.00, 187500.00, -187500.02, -187500.02, 187500.00, 0.000, 0.000, 0.000, 17:25:21.037
65, -4762.60, 14309.54, 187500.00, 187500.00, 187500.00, -187500.02, -187500.02, 187500.00, 0.000, 0.000, 0.000, 17:25:21.037
66, -5574.88, 13477.68, 187500.00, 187500.00, 187500.00, -187500.02, -187500.02, 187500.00, 0.000, 0.000, 0.000, 17:25:21.038
67, -5053.64, 14072.93, 187500.00, 187500.00, 187500.00, -187500.02, -187500.02, 187500.00, 0.000, 0.000, 0.000, 17:25:21.038
68, -4195.31, 14933.76, 187500.00, 187500.00, 187500.00, -187500.02, -187500.02, 187500.00, 0.008, -0.018, 1.028, 17:25:21.038
69, -4228.32, 14866.23, 187500.00, 187500.00, 187500.00, -187500.02, -187500.02, 187500.00, 0.000, 0.000, 0.000, 17:25:21.038
70, -4744.40, 14333.21, 187500.00, 187500.00, 187500.00, -187500.02, -187500.02, 187500.00, 0.000, 0.000, 0.000, 17:25:21.038
71, -5565.25, 13508.70, 187500.00, 187500.00, 187500.00, -187500.02, -187500.02, 187500.00, 0.000, 0.000, 0.000, 17:25:21.038
72, -5051.32, 14092.19, 187500.00, 187500.00, 187500.00, -187500.02, -187500.02, 187500.00, 0.000, 0.000, 0.000, 17:25:21.039
73, -4182.66, 14962.41, 187500.00, 187500.00, 187500.00, -187500.02, -187500.02, 187500.00, 0.000, 0.000, 0.000, 17:25:21.039
74, -4186.08, 14923.77, 187500.00, 187500.00, 187500.00, -187500.02, -187500.02, 187500.00, 0.000, 0.000, 0.000, 17:25:21.039
75, -4714.47, 14363.10, 187500.00, 187500.00, 187500.00, -187500.02, -187500.02, 187500.00, 0.000, 0.000, 0.000, 17:25:21.039
76, -5544.84, 13516.77, 187500.00, 187500.00, 187500.00, -187500.02, -187500.02, 187500.00, 0.000, 0.000, 0.000, 17:25:21.039
77, -5074.78, 14062.13, 187500.00, 187500.00, 187500.00, -187500.02, -187500.02, 187500.00, 0.000, 0.000, 0.000, 17:25:21.039
78, -4201.77, 14938.03, 187500.00, 187500.00, 187500.00, -187500.02, -187500.02, 187500.00, 0.004, -0.018, 1.022, 17:25:21.039
79, -4179.82, 14924.71, 187500.00, 187500.00, 187500.00, -187500.02, -187500.02, 187500.00, 0.000, 0.000, 0.000, 17:25:21.039
80, -4709.11, 14369.56, 187500.00, 187500.00, 187500.00, -187500.02, -187500.02, 187500.00, 0.000, 0.000, 0.000, 17:25:21.039
81, -5530.85, 13528.91, 187500.00, 187500.00, 187500.00, -187500.02, -187500.02, 187500.00, 0.000, 0.000, 0.000, 17:25:21.040
82, -5058.07, 14081.73, 187500.00, 187500.00, 187500.00, -187500.02, -187500.02, 187500.00, 0.000, 0.000, 0.000, 17:25:21.040
83, -4192.11, 14956.98, 187500.00, 187500.00, 187500.00, -187500.02, -187500.02, 187500.00, 0.000, 0.000, 0.000, 17:25:21.040
84, -4194.06, 14909.24, 187500.00, 187500.00, 187500.00, -187500.02, -187500.02, 187500.00, 0.000, 0.000, 0.000, 17:25:21.040
85, -4699.92, 14367.03, 187500.00, 187500.00, 187500.00, -187500.02, -187500.02, 187500.00, 0.000, 0.000, 0.000, 17:25:21.040
86, -5542.92, 13522.56, 187500.00, 187500.00, 187500.00, -187500.02, -187500.02, 187500.00, 0.000, 0.000, 0.000, 17:25:21.040
87, -5098.19, 14057.21, 187500.00, 187500.00, 187500.00, -187500.02, -187500.02, 187500.00, 0.000, 0.000, 0.000, 17:25:21.040
88, -4210.96, 14947.95, 187500.00, 187500.00, 187500.00, -187500.02, -187500.02, 187500.00, 0.006, -0.020, 1.032, 17:25:21.040
89, -4199.20, 14911.16, 187500.00, 187500.00, 187500.00, -187500.02, -187500.02, 187500.00, 0.000, 0.000, 0.000, 17:25:21.041
90, -4710.43, 14370.79, 187500.00, 187500.00, 187500.00, -187500.02, -187500.02, 187500.00, 0.000, 0.000, 0.000, 17:25:21.041
91, -5553.63, 13517.95, 187500.00, 187500.00, 187500.00, -187500.02, -187500.02, 187500.00, 0.000, 0.000, 0.000, 17:25:21.041
92, -5103.93, 14046.86, 187500.00, 187500.00, 187500.00, -187500.02, -187500.02, 187500.00, 0.000, 0.000, 0.000, 17:25:21.041
93, -4225.17, 14930.74, 187500.00, 187500.00, 187500.00, -187500.02, -187500.02, 187500.00, 0.000, 0.000, 0.000, 17:25:21.041
94, -4203.33, 14899.47, 187500.00, 187500.00, 187500.00, -187500.02, -187500.02, 187500.00, 0.000, 0.000, 0.000, 17:25:21.041
95, -4717.51, 14346.80, 187500.00, 187500.00, 187500.00, -187500.02, -187500.02, 187500.00, 0.000, 0.000, 0.000, 17:25:21.041
96, -5581.99, 13479.02, 187500.00, 187500.00, 187500.00, -187500.02, -187500.02, 187500.00, 0.000, 0.000, 0.000, 17:25:21.041
97, -5133.21, 13999.30, 187500.00, 187500.00, 187500.00, -187500.02, -187500.02, 187500.00, 0.000, 0.000, 0.000, 17:25:21.041
98, -4243.25, 14896.32, 187500.00, 187500.00, 187500.00, -187500.02, -187500.02, 187500.00, 0.012, -0.016, 1.032, 17:25:21.042
99, -4237.98, 14866.32, 187500.00, 187500.00, 187500.00, -187500.02, -187500.02, 187500.00, 0.000, 0.000, 0.000, 17:25:21.042
100, -4727.55, 14341.10, 187500.00, 187500.00, 187500.00, -187500.02, -187500.02, 187500.00, 0.000, 0.000, 0.000, 17:25:21.042
101, -5576.29, 13485.90, 187500.00, 187500.00, 187500.00, -187500.02, -187500.02, 187500.00, 0.000, 0.000, 0.000, 17:25:21.042
102, -5145.13, 13989.93, 187500.00, 187500.00, 187500.00, -187500.02, -187500.02, 187500.00, 0.000, 0.000, 0.000, 17:25:21.042
103, -4241.24, 14900.97, 187500.00, 187500.00, 187500.00, -187500.02, -187500.02, 187500.00, 0.000, 0.000, 0.000, 17:25:21.042
104, -4228.19, 14874.86, 187500.00, 187500.00, 187500.00, -187500.02, -187500.02, 187500.00, 0.000, 0.000, 0.000, 17:25:21.505
105, -4725.45, 14340.01, 187500.00, 187500.00, 187500.00, -187500.02, -187500.02, 187500.00, 0.000, 0.000, 0.000, 17:25:21.505
106, -5564.20, 13487.49, 187500.00, 187500.00, 187500.00, -187500.02, -187500.02, 187500.00, 0.000, 0.000, 0.000, 17:25:21.505
107, -5159.36, 13974.71, 187500.00, 187500.00, 187500.00, -187500.02, -187500.02, 187500.00, 0.000, 0.000, 0.000, 17:25:21.505
108, -4256.76, 14884.99, 187500.00, 187500.00, 187500.00, -187500.02, -187500.02, 187500.00, 0.008, -0.018, 1.028, 17:25:21.506
109, -4226.38, 14875.00, 187500.00, 187500.00, 187500.00, -187500.02, -187500.02, 187500.00, 0.000, 0.000, 0.000, 17:25:21.506
110, -4704.24, 14354.83, 187500.00, 187500.00, 187500.00, -187500.02, -187500.02, 187500.00, 0.000, 0.000, 0.000, 17:25:21.506
111, -5564.11, 13497.01, 187500.00, 187500.00, 187500.00, -187500.02, -187500.02, 187500.00, 0.000, 0.000, 0.000, 17:25:21.506
112, -5169.00, 13977.35, 187500.00, 187500.00, 187500.00, -187500.02, -187500.02, 187500.00, 0.000, 0.000, 0.000, 17:25:21.506
113, -4246.94, 14897.71, 187500.00, 187500.00, 187500.00, -187500.02, -187500.02, 187500.00, 0.000, 0.000, 0.000, 17:25:21.506
114, -4210.02, 14885.34, 187500.00, 187500.00, 187500.00, -187500.02, -187500.02, 187500.00, 0.000, 0.000, 0.000, 17:25:21.506
115, -4705.98, 14356.03, 187500.00, 187500.00, 187500.00, -187500.02, -187500.02, 187500.00, 0.000, 0.000, 0.000, 17:25:21.506
116, -5561.27, 13484.87, 187500.00, 187500.00, 187500.00, -187500.02, -187500.02, 187500.00, 0.000, 0.000, 0.000, 17:25:21.507
117, -5161.82, 13960.27, 187500.00, 187500.00, 187500.00, -187500.02, -187500.02, 187500.00, 0.000, 0.000, 0.000, 17:25:21.507
118, -4253.40, 14883.62, 187500.00, 187500.00, 187500.00, -187500.02, -187500.02, 187500.00, 0.004, -0.022, 1.028, 17:25:21.507
119, -4223.61, 14873.99, 187500.00, 187500.00, 187500.00, -187500.02, -187500.02, 187500.00, 0.000, 0.000, 0.000, 17:25:21.507
120, -4702.56, 14357.78, 187500.00, 187500.00, 187500.00, -187500.02, -187500.02, 187500.00, 0.000, 0.000, 0.000, 17:25:21.507
121, -5568.65, 13481.32, 187500.00, 187500.00, 187500.00, -187500.02, -187500.02, 187500.00, 0.000, 0.000, 0.000, 17:25:21.507
122, -5172.19, 13956.47, 187500.00, 187500.00, 187500.00, -187500.02, -187500.02, 187500.00, 0.000, 0.000, 0.000, 17:25:21.507
123, -4261.61, 14873.25, 187500.00, 187500.00, 187500.00, -187500.02, -187500.02, 187500.00, 0.000, 0.000, 0.000, 17:25:21.507
124, -4230.89, 14856.91, 187500.00, 187500.00, 187500.00, -187500.02, -187500.02, 187500.00, 0.000, 0.000, 0.000, 17:25:21.508
125, -4726.86, 14321.23, 187500.00, 187500.00, 187500.00, -187500.02, -187500.02, 187500.00, 0.000, 0.000, 0.000, 17:25:21.508
126, -5582.12, 13462.77, 187500.00, 187500.00, 187500.00, -187500.02, -187500.02, 187500.00, 0.000, 0.000, 0.000, 17:25:21.508
127, -5195.55, 13930.79, 187500.00, 187500.00, 187500.00, -187500.02, -187500.02, 187500.00, 0.000, 0.000, 0.000, 17:25:21.508
128, -4277.70, 14854.59, 187500.00, 187500.00, 187500.00, -187500.02, -187500.02, 187500.00, 0.004, -0.020, 1.030, 17:25:21.508
129, -4235.70, 14861.18, 187500.00, 187500.00, 187500.00, -187500.02, -187500.02, 187500.00, 0.000, 0.000, 0.000, 17:25:21.508
130, -4719.68, 14343.92, 187500.00, 187500.00, 187500.00, -187500.02, -187500.02, 187500.00, 0.000, 0.000, 0.000, 17:25:21.508
131, -5587.24, 13461.76, 187500.00, 187500.00, 187500.00, -187500.02, -187500.02, 187500.00, 0.000, 0.000, 0.000, 17:25:21.509
132, -5208.92, 13908.22, 187500.00, 187500.00, 187500.00, -187500.02, -187500.02, 187500.00, 0.000, 0.000, 0.000, 17:25:21.509
133, -4280.34, 14851.77, 187500.00, 187500.00, 187500.00, -187500.02, -187500.02, 187500.00, 0.000, 0.000, 0.000, 17:25:21.509
134, -4241.27, 14854.21, 187500.00, 187500.00, 187500.00, -187500.02, -187500.02, 187500.00, 0.000, 0.000, 0.000, 17:25:21.509
135, -4719.26, 14337.10, 187500.00, 187500.00, 187500.00, -187500.02, -187500.02, 187500.00, 0.000, 0.000, 0.000, 17:25:21.509
136, -5584.14, 13458.07, 187500.00, 187500.00, 187500.00, -187500.02, -187500.02, 187500.00, 0.000, 0.000, 0.000, 17:25:21.509
137, -5221.50, 13895.27, 187500.00, 187500.00, 187500.00, -187500.02, -187500.02, 187500.00, 0.000, 0.000, 0.000, 17:25:21.509
138, -4277.99, 14845.67, 187500.00, 187500.00, 187500.00, -187500.02, -187500.02, 187500.00, -0.002, -0.020, 1.028, 17:25:21.510
139, -4234.74, 14857.18, 187500.00, 187500.00, 187500.00, -187500.02, -187500.02, 187500.00, 0.000, 0.000, 0.000, 17:25:21.510
140, -4720.84, 14344.30, 187500.00, 187500.00, 187500.00, -187500.02, -187500.02, 187500.00, 0.000, 0.000, 0.000, 17:25:21.510
141, -5595.78, 13456.87, 187500.00, 187500.00, 187500.00, -187500.02, -187500.02, 187500.00, 0.000, 0.000, 0.000, 17:25:21.510
142, -5219.22, 13909.42, 187500.00, 187500.00, 187500.00, -187500.02, -187500.02, 187500.00, 0.000, 0.000, 0.000, 17:25:21.510
143, -4283.24, 14855.75, 187500.00, 187500.00, 187500.00, -187500.02, -187500.02, 187500.00, 0.000, 0.000, 0.000, 17:25:21.511
144, -4233.31, 14866.68, 187500.00, 187500.00, 187500.00, -187500.02, -187500.02, 187500.00, 0.000, 0.000, 0.000, 17:25:21.511
145, -4712.19, 14358.96, 187500.00, 187500.00, 187500.00, -187500.02, -187500.02, 187500.00, 0.000, 0.000, 0.000, 17:25:21.511
146, -5598.40, 13461.11, 187500.00, 187500.00, 187500.00, -187500.02, -187500.02, 187500.00, 0.000, 0.000, 0.000, 17:25:21.511
147, -5226.66, 13897.51, 187500.00, 187500.00, 187500.00, -187500.02, -187500.02, 187500.00, 0.000, 0.000, 0.000, 17:25:21.511
148, -4282.46, 14852.64, 187500.00, 187500.00, 187500.00, -187500.02, -187500.02, 187500.00, 0.000, -0.018, 1.024, 17:25:21.511
149, -4242.74, 14856.00, 187500.00, 187500.00, 187500.00, -187500.02, -187500.02, 187500.00, 0.000, 0.000, 0.000, 17:25:21.512
150, -4706.14, 14366.67, 187500.00, 187500.00, 187500.00, -187500.02, -187500.02, 187500.00, 0.000, 0.000, 0.000, 17:25:21.512
151, -5583.02, 13478.97, 187500.00, 187500.00, 187500.00, -187500.02, -187500.02, 187500.00, 0.000, 0.000, 0.000, 17:25:21.512
152, -5228.72, 13891.03, 187500.00, 187500.00, 187500.00, -187500.02, -187500.02, 187500.00, 0.000, 0.000, 0.000, 17:25:21.512
153, -4301.24, 14828.26, 187500.00, 187500.00, 187500.00, -187500.02, -187500.02, 187500.00, 0.000, 0.000, 0.000, 17:25:21.512
154, -4238.47, 14860.74, 187500.00, 187500.00, 187500.00, -187500.02, -187500.02, 187500.00, 0.000, 0.000, 0.000, 17:25:21.512
155, -4705.96, 14366.70, 187500.00, 187500.00, 187500.00, -187500.02, -187500.02, 187500.00, 0.000, 0.000, 0.000, 17:25:21.513
156, -5580.43, 13479.33, 187500.00, 187500.00, 187500.00, -187500.02, -187500.02, 187500.00, 0.000, 0.000, 0.000, 17:25:21.513
157, -5232.43, 13888.35, 187500.00, 187500.00, 187500.00, -187500.02, -187500.02, 187500.00, 0.000, 0.000, 0.000, 17:25:21.513
158, -4282.97, 14851.48, 187500.00, 187500.00, 187500.00, -187500.02, -187500.02, 187500.00, 0.000, -0.016, 1.020, 17:25:21.513
159, -4223.67, 14876.18, 187500.00, 187500.00, 187500.00, -187500.02, -187500.02, 187500.00, 0.000, 0.000, 0.000, 17:25:21.513
160, -4698.92, 14371.43, 187500.00, 187500.00, 187500.00, -187500.02, -187500.02, 187500.00, 0.000, 0.000, 0.000, 17:25:21.513
161, -5582.68, 13467.93, 187500.00, 187500.00, 187500.00, -187500.02, -187500.02, 187500.00, 0.000, 0.000, 0.000, 17:25:21.514
162, -5250.85, 13864.70, 187500.00, 187500.00, 187500.00, -187500.02, -187500.02, 187500.00, 0.000, 0.000, 0.000, 17:25:21.514
163, -4302.35, 14831.34, 187500.00, 187500.00, 187500.00, -187500.02, -187500.02, 187500.00, 0.000, 0.000, 0.000, 17:25:21.514
164, -4242.18, 14857.56, 187500.00, 187500.00, 187500.00, -187500.02, -187500.02, 187500.00, 0.000, 0.000, 0.000, 17:25:21.514
165, -4692.46, 14374.27, 187500.00, 187500.00, 187500.00, -187500.02, -187500.02, 187500.00, 0.000, 0.000, 0.000, 17:25:21.514
166, -5563.51, 13488.54, 187500.00, 187500.00, 187500.00, -187500.02, -187500.02, 187500.00, 0.000, 0.000, 0.000, 17:25:21.514
167, -5253.35, 13871.31, 187500.00, 187500.00, 187500.00, -187500.02, -187500.02, 187500.00, 0.000, 0.000, 0.000, 17:25:21.515
168, -4301.35, 14838.05, 187500.00, 187500.00, 187500.00, -187500.02, -187500.02, 187500.00, 0.004, -0.016, 1.026, 17:25:21.515
169, -4225.87, 14876.78, 187500.00, 187500.00, 187500.00, -187500.02, -187500.02, 187500.00, 0.000, 0.000, 0.000, 17:25:21.515
170, -4690.31, 14380.46, 187500.00, 187500.00, 187500.00, -187500.02, -187500.02, 187500.00, 0.000, 0.000, 0.000, 17:25:21.515
171, -5568.24, 13484.99, 187500.00, 187500.00, 187500.00, -187500.02, -187500.02, 187500.00, 0.000, 0.000, 0.000, 17:25:21.515
172, -5250.72, 13866.51, 187500.00, 187500.00, 187500.00, -187500.02, -187500.02, 187500.00, 0.000, 0.000, 0.000, 17:25:21.515
173, -4295.87, 14833.02, 187500.00, 187500.00, 187500.00, -187500.02, -187500.02, 187500.00, 0.000, 0.000, 0.000, 17:25:21.516
174, -4220.32, 14874.88, 187500.00, 187500.00, 187500.00, -187500.02, -187500.02, 187500.00, 0.000, 0.000, 0.000, 17:25:21.516
175, -4684.23, 14381.47, 187500.00, 187500.00, 187500.00, -187500.02, -187500.02, 187500.00, 0.000, 0.000, 0.000, 17:25:21.516
176, -5570.70, 13481.97, 187500.00, 187500.00, 187500.00, -187500.02, -187500.02, 187500.00, 0.000, 0.000, 0.000, 17:25:21.516
177, -5265.96, 13856.45, 187500.00, 187500.00, 187500.00, -187500.02, -187500.02, 187500.00, -0.002, -0.016, 1.028, 17:25:21.516
178, -4305.82, 14828.59, 187500.00, 187500.00, 187500.00, -187500.02, -187500.02, 187500.00, 0.000, 0.000, 0.000, 17:25:21.516
179, -4235.77, 14861.92, 187500.00, 187500.00, 187500.00, -187500.02, -187500.02, 187500.00, 0.000, 0.000, 0.000, 17:25:21.517
180, -4693.62, 14374.54, 187500.00, 187500.00, 187500.00, -187500.02, -187500.02, 187500.00, 0.000, 0.000, 0.000, 17:25:21.517
181, -5571.89, 13476.18, 187500.00, 187500.00, 187500.00, -187500.02, -187500.02, 187500.00, 0.000, 0.000, 0.000, 17:25:21.517
182, -5268.40, 13850.48, 187500.00, 187500.00, 187500.00, -187500.02, -187500.02, 187500.00, 0.000, 0.000, 0.000, 17:25:21.517
183, -4317.17, 14820.21, 187500.00, 187500.00, 187500.00, -187500.02, -187500.02, 187500.00, 0.000, 0.000, 0.000, 17:25:21.517
184, -4235.28, 14863.55, 187500.00, 187500.00, 187500.00, -187500.02, -187500.02, 187500.00, 0.000, 0.000, 0.000, 17:25:21.517
185, -4683.90, 14377.78, 187500.00, 187500.00, 187500.00, -187500.02, -187500.02, 187500.00, 0.000, 0.000, 0.000, 17:25:21.518
186, -5563.68, 13475.69, 187500.00, 187500.00, 187500.00, -187500.02, -187500.02, 187500.00, 0.000, 0.000, 0.000, 17:25:21.518
187, -5284.78, 13837.72, 187500.00, 187500.00, 187500.00, -187500.02, -187500.02, 187500.00, 0.006, -0.014, 1.026, 17:25:21.518
188, -4338.34, 14806.26, 187500.00, 187500.00, 187500.00, -187500.02, -187500.02, 187500.00, 0.000, 0.000, 0.000, 17:25:21.518
189, -4250.36, 14858.63, 187500.00, 187500.00, 187500.00, -187500.02, -187500.02, 187500.00, 0.000, 0.000, 0.000, 17:25:21.518
190, -4697.15, 14380.49, 187500.00, 187500.00, 187500.00, -187500.02, -187500.02, 187500.00, 0.000, 0.000, 0.000, 17:25:21.518
191, -5564.49, 13492.52, 187500.00, 187500.00, 187500.00, -187500.02, -187500.02, 187500.00, 0.000, 0.000, 0.000, 17:25:21.519
192, -5280.31, 13849.61, 187500.00, 187500.00, 187500.00, -187500.02, -187500.02, 187500.00, 0.000, 0.000, 0.000, 17:25:21.519
193, -4324.10, 14823.79, 187500.00, 187500.00, 187500.00, -187500.02, -187500.02, 187500.00, 0.000, 0.000, 0.000, 17:25:21.519
194, -4225.08, 14889.93, 187500.00, 187500.00, 187500.00, -187500.02, -187500.02, 187500.00, 0.000, 0.000, 0.000, 17:25:21.519
195, -4657.25, 14417.90, 187500.00, 187500.00, 187500.00, -187500.02, -187500.02, 187500.00, 0.000, 0.000, 0.000, 17:25:21.519
196, -5544.73, 13506.73, 187500.00, 187500.00, 187500.00, -187500.02, -187500.02, 187500.00, 0.000, 0.000, 0.000, 17:25:21.520
197, -5282.07, 13846.41, 187500.00, 187500.00, 187500.00, -187500.02, -187500.02, 187500.00, 0.006, -0.014, 1.028, 17:25:21.520
198, -4315.88, 14830.90, 187500.00, 187500.00, 187500.00, -187500.02, -187500.02, 187500.00, 0.000, 0.000, 0.000, 17:25:21.520
199, -4214.65, 14892.99, 187500.00, 187500.00, 187500.00, -187500.02, -187500.02, 187500.00, 0.000, 0.000, 0.000, 17:25:21.520
200, -4653.10, 14422.19, 187500.00, 187500.00, 187500.00, -187500.02, -187500.02, 187500.00, 0.000, 0.000, 0.000, 17:25:21.520
201, -5549.56, 13507.85, 187500.00, 187500.00, 187500.00, -187500.02, -187500.02, 187500.00, 0.000, 0.000, 0.000, 17:25:21.520
202, -5296.87, 13839.24, 187500.00, 187500.00, 187500.00, -187500.02, -187500.02, 187500.00, 0.000, 0.000, 0.000, 17:25:21.521
203, -4320.68, 14827.14, 187500.00, 187500.00, 187500.00, -187500.02, -187500.02, 187500.00, 0.000, 0.000, 0.000, 17:25:21.521
204, -4223.29, 14887.71, 187500.00, 187500.00, 187500.00, -187500.02, -187500.02, 187500.00, 0.000, 0.000, 0.000, 17:25:21.521
205, -4671.78, 14401.81, 187500.00, 187500.00, 187500.00, -187500.02, -187500.02, 187500.00, 0.000, 0.000, 0.000, 17:25:21.521
206, -5555.59, 13492.21, 187500.00, 187500.00, 187500.00, -187500.02, -187500.02, 187500.00, 0.000, 0.000, 0.000, 17:25:21.521
207, -5311.56, 13824.00, 187500.00, 187500.00, 187500.00, -187500.02, -187500.02, 187500.00, 0.008, -0.016, 1.024, 17:25:21.521
208, -4344.13, 14809.39, 187500.00, 187500.00, 187500.00, -187500.02, -187500.02, 187500.00, 0.000, 0.000, 0.000, 17:25:21.522
209, -4223.41, 14884.09, 187500.00, 187500.00, 187500.00, -187500.02, -187500.02, 187500.00, 0.000, 0.000, 0.000, 17:25:21.522
210, -4646.93, 14426.67, 187500.00, 187500.00, 187500.00, -187500.02, -187500.02, 187500.00, 0.000, 0.000, 0.000, 17:25:21.522
211, -5532.70, 13514.40, 187500.00, 187500.00, 187500.00, -187500.02, -187500.02, 187500.00, 0.000, 0.000, 0.000, 17:25:21.522
212, -5309.19, 13822.41, 187500.00, 187500.00, 187500.00, -187500.02, -187500.02, 187500.00, 0.000, 0.000, 0.000, 17:25:21.522
213, -4340.40, 14815.90, 187500.00, 187500.00, 187500.00, -187500.02, -187500.02, 187500.00, 0.000, 0.000, 0.000, 17:25:21.522
214, -4230.72, 14878.95, 187500.00, 187500.00, 187500.00, -187500.02, -187500.02, 187500.00, 0.000, 0.000, 0.000, 17:25:21.522
215, -4653.90, 14413.70, 187500.00, 187500.00, 187500.00, -187500.02, -187500.02, 187500.00, 0.000, 0.000, 0.000, 17:25:21.523
216, -5526.16, 13524.86, 187500.00, 187500.00, 187500.00, -187500.02, -187500.02, 187500.00, 0.000, 0.000, 0.000, 17:25:21.523
217, -5300.63, 13827.68, 187500.00, 187500.00, 187500.00, -187500.02, -187500.02, 187500.00, 0.012, -0.014, 1.034, 17:25:21.523
218, -4336.22, 14811.23, 187500.00, 187500.00, 187500.00, -187500.02, -187500.02, 187500.00, 0.000, 0.000, 0.000, 17:25:21.523
219, -4212.66, 14888.45, 187500.00, 187500.00, 187500.00, -187500.02, -187500.02, 187500.00, 0.000, 0.000, 0.000, 17:25:21.523
220, -4634.32, 14431.43, 187500.00, 187500.00, 187500.00, -187500.02, -187500.02, 187500.00, 0.000, 0.000, 0.000, 17:25:21.523
221, -5530.74, 13514.33, 187500.00, 187500.00, 187500.00, -187500.02, -187500.02, 187500.00, 0.000, 0.000, 0.000, 17:25:21.523
222, -5323.89, 13805.46, 187500.00, 187500.00, 187500.00, -187500.02, -187500.02, 187500.00, 0.000, 0.000, 0.000, 17:25:21.523
223, -4351.93, 14805.12, 187500.00, 187500.00, 187500.00, -187500.02, -187500.02, 187500.00, 0.000, 0.000, 0.000, 17:25:21.523
224, -4222.42, 14896.57, 187500.00, 187500.00, 187500.00, -187500.02, -187500.02, 187500.00, 0.000, 0.000, 0.000, 17:25:21.985
225, -4637.79, 14436.88, 187500.00, 187500.00, 187500.00, -187500.02, -187500.02, 187500.00, 0.000, 0.000, 0.000, 17:25:21.986
226, -5506.93, 13539.93, 187500.00, 187500.00, 187500.00, -187500.02, -187500.02, 187500.00, 0.000, 0.000, 0.000, 17:25:21.986
227, -5308.16, 13818.14, 187500.00, 187500.00, 187500.00, -187500.02, -187500.02, 187500.00, 0.006, -0.012, 1.032, 17:25:21.986
228, -4342.36, 14798.75, 187500.00, 187500.00, 187500.00, -187500.02, -187500.02, 187500.00, 0.000, 0.000, 0.000, 17:25:21.986
229, -4208.95, 14890.73, 187500.00, 187500.00, 187500.00, -187500.02, -187500.02, 187500.00, 0.000, 0.000, 0.000, 17:25:21.986
230, -4638.68, 14432.12, 187500.00, 187500.00, 187500.00, -187500.02, -187500.02, 187500.00, 0.000, 0.000, 0.000, 17:25:21.987
231, -5533.49, 13517.69, 187500.00, 187500.00, 187500.00, -187500.02, -187500.02, 187500.00, 0.000, 0.000, 0.000, 17:25:21.987
232, -5340.41, 13792.05, 187500.00, 187500.00, 187500.00, -187500.02, -187500.02, 187500.00, 0.000, 0.000, 0.000, 17:25:21.987
233, -4355.42, 14800.27, 187500.00, 187500.00, 187500.00, -187500.02, -187500.02, 187500.00, 0.000, 0.000, 0.000, 17:25:21.987
234, -4227.39, 14885.95, 187500.00, 187500.00, 187500.00, -187500.02, -187500.02, 187500.00, 0.000, 0.000, 0.000, 17:25:21.987
235, -4644.40, 14431.16, 187500.00, 187500.00, 187500.00, -187500.02, -187500.02, 187500.00, 0.000, 0.000, 0.000, 17:25:21.988
236, -5540.71, 13513.28, 187500.00, 187500.00, 187500.00, -187500.02, -187500.02, 187500.00, 0.000, 0.000, 0.000, 17:25:21.988
237, -5345.51, 13778.82, 187500.00, 187500.00, 187500.00, -187500.02, -187500.02, 187500.00, 0.002, -0.016, 1.034, 17:25:21.988
238, -4351.97, 14790.66, 187500.00, 187500.00, 187500.00, -187500.02, -187500.02, 187500.00, 0.000, 0.000, 0.000, 17:25:21.988
239, -4210.15, 14886.35, 187500.00, 187500.00, 187500.00, -187500.02, -187500.02, 187500.00, 0.000, 0.000, 0.000, 17:25:21.988
240, -4610.83, 14451.36, 187500.00, 187500.00, 187500.00, -187500.02, -187500.02, 187500.00, 0.000, 0.000, 0.000, 17:25:21.988
241, -5500.90, 13536.53, 187500.00, 187500.00, 187500.00, -187500.02, -187500.02, 187500.00, 0.000, 0.000, 0.000, 17:25:21.989
242, -5327.14, 13786.85, 187500.00, 187500.00, 187500.00, -187500.02, -187500.02, 187500.00, 0.000, 0.000, 0.000, 17:25:21.989
243, -4342.81, 14795.49, 187500.00, 187500.00, 187500.00, -187500.02, -187500.02, 187500.00, 0.000, 0.000, 0.000, 17:25:21.989
244, -4197.32, 14897.88, 187500.00, 187500.00, 187500.00, -187500.02, -187500.02, 187500.00, 0.000, 0.000, 0.000, 17:25:21.989
245, -4606.00, 14459.95, 187500.00, 187500.00, 187500.00, -187500.02, -187500.02, 187500.00, 0.000, 0.000, 0.000, 17:25:21.989
246, -5502.19, 13541.38, 187500.00, 187500.00, 187500.00, -187500.02, -187500.02, 187500.00, 0.000, 0.000, 0.000, 17:25:21.990
247, -5324.27, 13789.46, 187500.00, 187500.00, 187500.00, -187500.02, -187500.02, 187500.00, 0.002, -0.016, 1.028, 17:25:21.990
248, -4343.10, 14790.82, 187500.00, 187500.00, 187500.00, -187500.02, -187500.02, 187500.00, 0.000, 0.000, 0.000, 17:25:21.990
249, -4198.86, 14889.59, 187500.00, 187500.00, 187500.00, -187500.02, -187500.02, 187500.00, 0.000, 0.000, 0.000, 17:25:21.990
250, -4609.09, 14442.76, 187500.00, 187500.00, 187500.00, -187500.02, -187500.02, 187500.00, 0.000, 0.000, 0.000, 17:25:21.990
251, -5511.78, 13525.02, 187500.00, 187500.00, 187500.00, -187500.02, -187500.02, 187500.00, 0.000, 0.000, 0.000, 17:25:21.991
252, -5350.18, 13758.97, 187500.00, 187500.00, 187500.00, -187500.02, -187500.02, 187500.00, 0.000, 0.000, 0.000, 17:25:21.991
253, -4351.44, 14782.53, 187500.00, 187500.00, 187500.00, -187500.02, -187500.02, 187500.00, 0.000, 0.000, 0.000, 17:25:21.991
254, -4197.03, 14900.63, 187500.00, 187500.00, 187500.00, -187500.02, -187500.02, 187500.00, 0.000, 0.000, 0.000, 17:25:21.991
255, -4617.49, 14442.53, 187500.00, 187500.00, 187500.00, -187500.02, -187500.02, 187500.00, 0.000, 0.000, 0.000, 17:25:21.991
0, -5503.76, 13532.28, 187500.00, 187500.00, 187500.00, -187500.02, -187500.02, 187500.00, 0.000, 0.000, 0.000, 17:25:21.992
1, -5339.43, 13766.30, 187500.00, 187500.00, 187500.00, -187500.02, -187500.02, 187500.00, 0.008, -0.014, 1.028, 17:25:21.992
2, -4346.01, 14782.62, 187500.00, 187500.00, 187500.00, -187500.02, -187500.02, 187500.00, 0.000, 0.000, 0.000, 17:25:21.992
3, -4212.16, 14884.88, 187500.00, 187500.00, 187500.00, -187500.02, -187500.02, 187500.00, 0.000, 0.000, 0.000, 17:25:21.992
4, -4611.34, 14451.52, 187500.00, 187500.00, 187500.00, -187500.02, -187500.02, 187500.00, 0.000, 0.000, 0.000, 17:25:21.992
5, -5489.39, 13546.27, 187500.00, 187500.00, 187500.00, -187500.02, -187500.02, 187500.00, 0.000, 0.000, 0.000, 17:25:21.992
6, -5341.17, 13753.90, 187500.00, 187500.00, 187500.00, -187500.02, -187500.02, 187500.00, 0.000, 0.000, 0.000, 17:25:21.993
7, -4343.17, 14777.70, 187500.00, 187500.00, 187500.00, -187500.02, -187500.02, 187500.00, 0.000, 0.000, 0.000, 17:25:21.993
8, -4183.40, 14904.21, 187500.00, 187500.00, 187500.00, -187500.02, -187500.02, 187500.00, 0.000, 0.000, 0.000, 17:25:21.993
9, -4597.62, 14465.42, 187500.00, 187500.00, 187500.00, -187500.02, -187500.02, 187500.00, 0.000, 0.000, 0.000, 17:25:21.993
10, -5481.47, 13556.76, 187500.00, 187500.00, 187500.00, -187500.02, -187500.02, 187500.00, 0.000, 0.000, 0.000, 17:25:21.993
11, -5339.45, 13763.51, 187500.00, 187500.00, 187500.00, -187500.02, -187500.02, 187500.00, 0.004, -0.018, 1.030, 17:25:21.994
12, -4346.10, 14779.82, 187500.00, 187500.00, 187500.00, -187500.02, -187500.02, 187500.00, 0.000, 0.000, 0.000, 17:25:21.994
13, -4184.63, 14898.15, 187500.00, 187500.00, 187500.00, -187500.02, -187500.02, 187500.00, 0.000, 0.000, 0.000, 17:25:21.994
14, -4577.79, 14472.93, 187500.00, 187500.00, 187500.00, -187500.02, -187500.02, 187500.00, 0.000, 0.000, 0.000, 17:25:21.994
15, -5474.52, 13550.59, 187500.00, 187500.00, 187500.00, -187500.02, -187500.02, 187500.00, 0.000, 0.000, 0.000, 17:25:21.994
16, -5357.51, 13737.52, 187500.00, 187500.00, 187500.00, -187500.02, -187500.02, 187500.00, 0.000, 0.000, 0.000, 17:25:21.994
17, -4367.51, 14763.01, 187500.00, 187500.00, 187500.00, -187500.02, -187500.02, 187500.00, 0.000, 0.000, 0.000, 17:25:21.995
18, -4196.09, 14893.59, 187500.00, 187500.00, 187500.00, -187500.02, -187500.02, 187500.00, 0.000, 0.000, 0.000, 17:25:21.995
19, -4593.33, 14462.99, 187500.00, 187500.00, 187500.00, -187500.02, -187500.02, 187500.00, 0.000, 0.000, 0.000, 17:25:21.995
20, -5488.45, 13538.88, 187500.00, 187500.00, 187500.00, -187500.02, -187500.02, 187500.00, 0.000, 0.000, 0.000, 17:25:21.995
21, -5368.75, 13724.93, 187500.00, 187500.00, 187500.00, -187500.02, -187500.02, 187500.00, 0.004, -0.012, 1.030, 17:25:21.995
22, -4368.00, 14754.59, 187500.00, 187500.00, 187500.00, -187500.02, -187500.02, 187500.00, 0.000, 0.000, 0.000, 17:25:21.995
23, -4199.76, 14888.90, 187500.00, 187500.00, 187500.00, -187500.02, -187500.02, 187500.00, 0.000, 0.000, 0.000, 17:25:21.995
24, -4583.18, 14463.95, 187500.00, 187500.00, 187500.00, -187500.02, -187500.02, 187500.00, 0.000, 0.000, 0.000, 17:25:21.995
25, -5478.79, 13539.08, 187500.00, 187500.00, 187500.00, -187500.02, -187500.02, 187500.00, 0.000, 0.000, 0.000, 17:25:21.996
26, -5358.14, 13737.85, 187500.00, 187500.00, 187500.00, -187500.02, -187500.02, 187500.00, 0.000, 0.000, 0.000, 17:25:21.996
27, -4363.10, 14762.57, 187500.00, 187500.00, 187500.00, -187500.02, -187500.02, 187500.00, 0.000, 0.000, 0.000, 17:25:21.996
28, -4191.58, 14891.38, 187500.00, 187500.00, 187500.00, -187500.02, -187500.02, 187500.00, 0.000, 0.000, 0.000, 17:25:21.996
29, -4575.98, 14472.60, 187500.00, 187500.00, 187500.00, -187500.02, -187500.02, 187500.00, 0.000, 0.000, 0.000, 17:25:21.996
30, -5464.80, 13565.07, 187500.00, 187500.00, 187500.00, -187500.02, -187500.02, 187500.00, 0.000, 0.000, 0.000, 17:25:21.996
31, -5369.83, 13726.43, 187500.00, 187500.00, 187500.00, -187500.02, -187500.02, 187500.00, 0.006, -0.006, 1.026, 17:25:21.996
32, -4343.82, 14775.87, 187500.00, 187500.00, 187500.00, -187500.02, -187500.02, 187500.00, 0.000, 0.000, 0.000, 17:25:21.996
33, -4153.31, 14926.85, 187500.00, 187500.00, 187500.00, -187500.02, -187500.02, 187500.00, 0.000, 0.000, 0.000, 17:25:21.997
34, -4544.24, 14500.96, 187500.00, 187500.00, 187500.00, -187500.02, -187500.02, 187500.00, 0.000, 0.000, 0.000, 17:25:21.997
35, -5433.17, 13588.63, 187500.00, 187500.00, 187500.00, -187500.02, -187500.02, 187500.00, 0.000, 0.000, 0.000, 17:25:21.997
36, -5336.86, 13750.97, 187500.00, 187500.00, 187500.00, -187500.02, -187500.02, 187500.00, 0.000, 0.000, 0.000, 17:25:21.997
37, -4344.04, 14771.89, 187500.00, 187500.00, 187500.00, -187500.02, -187500.02, 187500.00, 0.000, 0.000, 0.000, 17:25:21.997
38, -4163.15, 14913.13, 187500.00, 187500.00, 187500.00, -187500.02, -187500.02, 187500.00, 0.000, 0.000, 0.000, 17:25:21.997
39, -4530.72, 14512.67, 187500.00, 187500.00, 187500.00, -187500.02, -187500.02, 187500.00, 0.000, 0.000, 0.000, 17:25:21.998
40, -5433.28, 13598.42, 187500.00, 187500.00, 187500.00, -187500.02, -187500.02, 187500.00, 0.000, 0.000, 0.000, 17:25:21.998
41, -5359.32, 13737.18, 187500.00, 187500.00, 187500.00, -187500.02, -187500.02, 187500.00, 0.008, -0.014, 1.026, 17:25:21.998
42, -4358.79, 14757.60, 187500.00, 187500.00, 187500.00, -187500.02, -187500.02, 187500.00, 0.000, 0.000, 0.000, 17:25:21.998
43, -4185.86, 14892.16, 187500.00, 187500.00, 187500.00, -187500.02, -187500.02, 187500.00, 0.000, 0.000, 0.000, 17:25:21.998
44, -4563.27, 14478.19, 187500.00, 187500.00, 187500.00, -187500.02, -187500.02, 187500.00, 0.000, 0.000, 0.000, 17:25:21.999
45, -5442.65, 13570.30, 187500.00, 187500.00, 187500.00, -187500.02, -187500.02, 187500.00, 0.000, 0.000, 0.000, 17:25:21.999
46, -5367.66, 13721.87, 187500.00, 187500.00, 187500.00, -187500.02, -187500.02, 187500.00, 0.000, 0.000, 0.000, 17:25:21.999
47, -4353.20, 14763.84, 187500.00, 187500.00, 187500.00, -187500.02, -187500.02, 187500.00, 0.000, 0.000, 0.000, 17:25:21.999
48, -4169.56, 14901.88, 187500.00, 187500.00, 187500.00, -187500.02, -187500.02, 187500.00, 0.000, 0.000, 0.000, 17:25:21.999
49, -4546.93, 14492.31, 187500.00, 187500.00, 187500.00, -187500.02, -187500.02, 187500.00, 0.000, 0.000, 0.000, 17:25:21.999
50, -5437.69, 13579.60, 187500.00, 187500.00, 187500.00, -187500.02, -187500.02, 187500.00, 0.000, 0.000, 0.000, 17:25:22.000
51, -5368.87, 13713.69, 187500.00, 187500.00, 187500.00, -187500.02, -187500.02, 187500.00, 0.006, -0.012, 1.038, 17:25:22.000
52, -4353.05, 14753.74, 187500.00, 187500.00, 187500.00, -187500.02, -187500.02, 187500.00, 0.000, 0.000, 0.000, 17:25:22.000
53, -4154.34, 14915.79, 187500.00, 187500.00, 187500.00, -187500.02, -187500.02, 187500.00, 0.000, 0.000, 0.000, 17:25:22.000
54, -4530.48, 14509.63, 187500.00, 187500.00, 187500.00, -187500.02, -187500.02, 187500.00, 0.000, 0.000, 0.000, 17:25:22.000
55, -5415.13, 13597.75, 187500.00, 187500.00, 187500.00, -187500.02, -187500.02, 187500.00, 0.000, 0.000, 0.000, 17:25:22.000
56, -5353.94, 13727.05, 187500.00, 187500.00, 187500.00, -187500.02, -187500.02, 187500.00, 0.000, 0.000, 0.000, 17:25:22.001
57, -4336.86, 14776.83, 187500.00, 187500.00, 187500.00, -187500.02, -187500.02, 187500.00, 0.000, 0.000, 0.000, 17:25:22.001
58, -4125.44, 14947.21, 187500.00, 187500.00, 187500.00, -187500.02, -187500.02, 187500.00, 0.000, 0.000, 0.000, 17:25:22.001
59, -4501.46, 14532.66, 187500.00, 187500.00, 187500.00, -187500.02, -187500.02, 187500.00, 0.000, 0.000, 0.000, 17:25:22.001
60, -5402.80, 13604.50, 187500.00, 187500.00, 187500.00, -187500.02, -187500.02, 187500.00, 0.010, -0.016, 1.032, 17:25:22.001
61, -5355.63, 13727.61, 187500.00, 187500.00, 187500.00, -187500.02, -187500.02, 187500.00, 0.000, 0.000, 0.000, 17:25:22.001
62, -4354.50, 14765.88, 187500.00, 187500.00, 187500.00, -187500.02, -187500.02, 187500.00, 0.000, 0.000, 0.000, 17:25:22.002
63, -4155.64, 14930.14, 187500.00, 187500.00, 187500.00, -187500.02, -187500.02, 187500.00, 0.000, 0.000, 0.000, 17:25:22.002
64, -4517.58, 14526.64, 187500.00, 187500.00, 187500.00, -187500.02, -187500.02, 187500.00, 0.000, 0.000, 0.000, 17:25:22.002
65, -5408.27, 13606.31, 187500.00, 187500.00, 187500.00, -187500.02, -187500.02, 187500.00, 0.000, 0.000, 0.000, 17:25:22.002
66, -5381.63, 13703.59, 187500.00, 187500.00, 187500.00, -187500.02, -187500.02, 187500.00, 0.000, 0.000, 0.000, 17:25:22.002
67, -4363.24, 14749.83, 187500.00, 187500.00, 187500.00, -187500.02, -187500.02, 187500.00, 0.000, 0.000, 0.000, 17:25:22.002
68, -4141.62, 14926.34, 187500.00, 187500.00, 187500.00, -187500.02, -187500.02, 187500.00, 0.000, 0.000, 0.000, 17:25:22.002
69, -4520.35, 14513.68, 187500.00, 187500.00, 187500.00, -187500.02, -187500.02, 187500.00, 0.000, 0.000, 0.000, 17:25:22.002
70, -5410.44, 13591.87, 187500.00, 187500.00, 187500.00, -187500.02, -187500.02, 187500.00, 0.008, -0.020, 1.028, 17:25:22.003
71, -5369.47, 13697.77, 187500.00, 187500.00, 187500.00, -187500.02, -187500.02, 187500.00, 0.000, 0.000, 0.000, 17:25:22.003
72, -4347.12, 14752.35, 187500.00, 187500.00, 187500.00, -187500.02, -187500.02, 187500.00, 0.000, 0.000, 0.000, 17:25:22.003
73, -4140.68, 14917.98, 187500.00, 187500.00, 187500.00, -187500.02, -187500.02, 187500.00, 0.000, 0.000, 0.000, 17:25:22.003
74, -4505.42, 14521.32, 187500.00, 187500.00, 187500.00, -187500.02, -187500.02, 187500.00, 0.000, 0.000, 0.000, 17:25:22.003
75, -5390.48, 13613.42, 187500.00, 187500.00, 187500.00, -187500.02, -187500.02, 187500.00, 0.000, 0.000, 0.000, 17:25:22.003
76, -5376.91, 13694.00, 187500.00, 187500.00, 187500.00, -187500.02, -187500.02, 187500.00, 0.000, 0.000, 0.000, 17:25:22.003
77, -4351.79, 14756.98, 187500.00, 187500.00, 187500.00, -187500.02, -187500.02, 187500.00, 0.000, 0.000, 0.000, 17:25:22.003
78, -4122.60, 14945.67, 187500.00, 187500.00, 187500.00, -187500.02, -187500.02, 187500.00, 0.000, 0.000, 0.000, 17:25:22.004
79, -4475.38, 14556.89, 187500.00, 187500.00, 187500.00, -187500.02, -187500.02, 187500.00, 0.000, 0.000, 0.000, 17:25:22.004
80, -5363.46, 13638.14, 187500.00, 187500.00, 187500.00, -187500.02, -187500.02, 187500.00, 0.004, -0.022, 1.032, 17:25:22.004
81, -5364.08, 13706.60, 187500.00, 187500.00, 187500.00, -187500.02, -187500.02, 187500.00, 0.000, 0.000, 0.000, 17:25:22.004
82, -4349.34, 14753.40, 187500.00, 187500.00, 187500.00, -187500.02, -187500.02, 187500.00, 0.000, 0.000, 0.000, 17:25:22.004
83, -4121.50, 14938.30, 187500.00, 187500.00, 187500.00, -187500.02, -187500.02, 187500.00, 0.000, 0.000, 0.000, 17:25:22.004
84, -4488.95, 14534.62, 187500.00, 187500.00, 187500.00, -187500.02, -187500.02, 187500.00, 0.000, 0.000, 0.000, 17:25:22.005
85, -5361.45, 13637.07, 187500.00, 187500.00, 187500.00, -187500.02, -187500.02, 187500.00, 0.000, 0.000, 0.000, 17:25:22.005
86, -5372.38, 13695.87, 187500.00, 187500.00, 187500.00, -187500.02, -187500.02, 187500.00, 0.000, 0.000, 0.000, 17:25:22.005
87, -4364.71, 14733.38, 187500.00, 187500.00, 187500.00, -187500.02, -187500.02, 187500.00, 0.000, 0.000, 0.000, 17:25:22.005
88, -4117.35, 14938.81, 187500.00, 187500.00, 187500.00, -187500.02, -187500.02, 187500.00, 0.000, 0.000, 0.000, 17:25:22.005
89, -4483.27, 14534.69, 187500.00, 187500.00, 187500.00, -187500.02, -187500.02, 187500.00, 0.000, 0.000, 0.000, 17:25:22.466
90, -5376.38, 13614.18, 187500.00, 187500.00, 187500.00, -187500.02, -187500.02, 187500.00, 0.000, -0.022, 1.030, 17:25:22.466
91, -5394.57, 13666.73, 187500.00, 187500.00, 187500.00, -187500.02, -187500.02, 187500.00, 0.000, 0.000, 0.000, 17:25:22.466
92, -4379.13, 14718.49, 187500.00, 187500.00, 187500.00, -187500.02, -187500.02, 187500.00, 0.000, 0.000, 0.000, 17:25:22.467
93, -4131.83, 14920.15, 187500.00, 187500.00, 187500.00, -187500.02, -187500.02, 187500.00, 0.000, 0.000, 0.000, 17:25:22.467
94, -4485.70, 14534.24, 187500.00, 187500.00, 187500.00, -187500.02, -187500.02, 187500.00, 0.000, 0.000, 0.000, 17:25:22.467
95, -5370.57, 13615.74, 187500.00, 187500.00, 187500.00, -187500.02, -187500.02, 187500.00, 0.000, 0.000, 0.000, 17:25:22.467
96, -5395.24, 13652.60, 187500.00, 187500.00, 187500.00, -187500.02, -187500.02, 187500.00, 0.000, 0.000, 0.000, 17:25:22.467
97, -4372.52, 14710.08, 187500.00, 187500.00, 187500.00, -187500.02, -187500.02, 187500.00, 0.000, 0.000, 0.000, 17:25:22.468
98, -4101.68, 14943.73, 187500.00, 187500.00, 187500.00, -187500.02, -187500.02, 187500.00, 0.000, 0.000, 0.000, 17:25:22.468
99, -4453.47, 14563.10, 187500.00, 187500.00, 187500.00, -187500.02, -187500.02, 187500.00, 0.000, 0.000, 0.000, 17:25:22.468
100, -5341.37, 13645.54, 187500.00, 187500.00, 187500.00, -187500.02, -187500.02, 187500.00, 0.004, -0.020, 1.030, 17:25:22.468
101, -5387.69, 13665.59, 187500.00, 187500.00, 187500.00, -187500.02, -187500.02, 187500.00, 0.000, 0.000, 0.000, 17:25:22.468
102, -4374.73, 14713.86, 187500.00, 187500.00, 187500.00, -187500.02, -187500.02, 187500.00, 0.000, 0.000, 0.000, 17:25:22.468
103, -4110.82, 14932.69, 187500.00, 187500.00, 187500.00, -187500.02, -187500.02, 187500.00, 0.000, 0.000, 0.000, 17:25:22.469
104, -4454.64, 14553.85, 187500.00, 187500.00, 187500.00, -187500.02, -187500.02, 187500.00, 0.000, 0.000, 0.000, 17:25:22.469
105, -5343.70, 13639.19, 187500.00, 187500.00, 187500.00, -187500.02, -187500.02, 187500.00, 0.000, 0.000, 0.000, 17:25:22.469
106, -5395.62, 13654.77, 187500.00, 187500.00, 187500.00, -187500.02, -187500.02, 187500.00, 0.000, 0.000, 0.000, 17:25:22.469
107, -4385.17, 14700.12, 187500.00, 187500.00, 187500.00, -187500.02, -187500.02, 187500.00, 0.000, 0.000, 0.000, 17:25:22.469
108, -4121.08, 14922.16, 187500.00, 187500.00, 187500.00, -187500.02, -187500.02, 187500.00, 0.000, 0.000, 0.000, 17:25:22.469
109, -4461.97, 14547.25, 187500.00, 187500.00, 187500.00, -187500.02, -187500.02, 187500.00, 0.000, 0.000, 0.000, 17:25:22.470
110, -5353.11, 13623.08, 187500.00, 187500.00, 187500.00, -187500.02, -187500.02, 187500.00, 0.008, -0.022, 1.032, 17:25:22.470
111, -5411.83, 13627.77, 187500.00, 187500.00, 187500.00, -187500.02, -187500.02, 187500.00, 0.000, 0.000, 0.000, 17:25:22.470
112, -4395.74, 14680.09, 187500.00, 187500.00, 187500.00, -187500.02, -187500.02, 187500.00, 0.000, 0.000, 0.000, 17:25:22.470
113, -4133.64, 14907.96, 187500.00, 187500.00, 187500.00, -187500.02, -187500.02, 187500.00, 0.000, 0.000, 0.000, 17:25:22.470
114, -4473.59, 14532.99, 187500.00, 187500.00, 187500.00, -187500.02, -187500.02, 187500.00, 0.000, 0.000, 0.000, 17:25:22.470
115, -5342.83, 13633.31, 187500.00, 187500.00, 187500.00, -187500.02, -187500.02, 187500.00, 0.000, 0.000, 0.000, 17:25:22.471
116, -5412.90, 13626.54, 187500.00, 187500.00, 187500.00, -187500.02, -187500.02, 187500.00, 0.000, 0.000, 0.000, 17:25:22.471
117, -4417.51, 14660.42, 187500.00, 187500.00, 187500.00, -187500.02, -187500.02, 187500.00, 0.000, 0.000, 0.000, 17:25:22.471
118, -4133.26, 14900.88, 187500.00, 187500.00, 187500.00, -187500.02, -187500.02, 187500.00, 0.000, 0.000, 0.000, 17:25:22.471
119, -4453.41, 14541.55, 187500.00, 187500.00, 187500.00, -187500.02, -187500.02, 187500.00, 0.000, 0.000, 0.000, 17:25:22.471
120, -5323.87, 13634.68, 187500.00, 187500.00, 187500.00, -187500.02, -187500.02, 187500.00, 0.008, -0.020, 1.026, 17:25:22.471
121, -5399.96, 13628.48, 187500.00, 187500.00, 187500.00, -187500.02, -187500.02, 187500.00, 0.000, 0.000, 0.000, 17:25:22.472
122, -4384.74, 14688.00, 187500.00, 187500.00, 187500.00, -187500.02, -187500.02, 187500.00, 0.000, 0.000, 0.000, 17:25:22.472
123, -4105.99, 14928.04, 187500.00, 187500.00, 187500.00, -187500.02, -187500.02, 187500.00, 0.000, 0.000, 0.000, 17:25:22.472
124, -4436.40, 14565.54, 187500.00, 187500.00, 187500.00, -187500.02, -187500.02, 187500.00, 0.000, 0.000, 0.000, 17:25:22.472
125, -5317.32, 13659.80, 187500.00, 187500.00, 187500.00, -187500.02, -187500.02, 187500.00, 0.000, 0.000, 0.000, 17:25:22.472
126, -5401.30, 13642.41, 187500.00, 187500.00, 187500.00, -187500.02, -187500.02, 187500.00, 0.000, 0.000, 0.000, 17:25:22.473
127, -4380.87, 14699.31, 187500.00, 187500.00, 187500.00, -187500.02, -187500.02, 187500.00, 0.000, 0.000, 0.000, 17:25:22.473
128, -4108.25, 14932.17, 187500.00, 187500.00, 187500.00, -187500.02, -187500.02, 187500.00, 0.000, 0.000, 0.000, 17:25:22.473
129, -4446.30, 14561.16, 187500.00, 187500.00, 187500.00, -187500.02, -187500.02, 187500.00, 0.000, 0.000, 0.000, 17:25:22.473
130, -5304.60, 13667.44, 187500.00, 187500.00, 187500.00, -187500.02, -187500.02, 187500.00, 0.008, -0.020, 1.030, 17:25:22.473
131, -5400.29, 13635.68, 187500.00, 187500.00, 187500.00, -187500.02, -187500.02, 187500.00, 0.000, 0.000, 0.000, 17:25:22.473
132, -4395.22, 14677.34, 187500.00, 187500.00, 187500.00, -187500.02, -187500.02, 187500.00, 0.000, 0.000, 0.000, 17:25:22.474
133, -4108.54, 14922.67, 187500.00, 187500.00, 187500.00, -187500.02, -187500.02, 187500.00, 0.000, 0.000, 0.000, 17:25:22.474
134, -4442.77, 14561.67, 187500.00, 187500.00, 187500.00, -187500.02, -187500.02, 187500.00, 0.000, 0.000, 0.000, 17:25:22.474
135, -5316.30, 13656.04, 187500.00, 187500.00, 187500.00, -187500.02, -187500.02, 187500.00, 0.000, 0.000, 0.000, 17:25:22.474
136, -5410.51, 13619.05, 187500.00, 187500.00, 187500.00, -187500.02, -187500.02, 187500.00, 0.000, 0.000, 0.000, 17:25:22.474
137, -4396.81, 14671.30, 187500.00, 187500.00, 187500.00, -187500.02, -187500.02, 187500.00, 0.000, 0.000, 0.000, 17:25:22.475
138, -4116.54, 14917.26, 187500.00, 187500.00, 187500.00, -187500.02, -187500.02, 187500.00, 0.000, 0.000, 0.000, 17:25:22.475
139, -4460.27, 14543.81, 187500.00, 187500.00, 187500.00, -187500.02, -187500.02, 187500.00, 0.000, 0.000, 0.000, 17:25:22.475
140, -5323.94, 13648.18, 187500.00, 187500.00, 187500.00, -187500.02, -187500.02, 187500.00, 0.006, -0.026, 1.028, 17:25:22.475
141, -5412.41, 13616.91, 187500.00, 187500.00, 187500.00, -187500.02, -187500.02, 187500.00, 0.000, 0.000, 0.000, 17:25:22.475
142, -4394.53, 14672.80, 187500.00, 187500.00, 187500.00, -187500.02, -187500.02, 187500.00, 0.000, 0.000, 0.000, 17:25:22.475
143, -4109.75, 14916.35, 187500.00, 187500.00, 187500.00, -187500.02, -187500.02, 187500.00, 0.000, 0.000, 0.000, 17:25:22.476
144, -4434.16, 14561.33, 187500.00, 187500.00, 187500.00, -187500.02, -187500.02, 187500.00, 0.000, 0.000, 0.000, 17:25:22.476
145, -5272.51, 13695.09, 187500.00, 187500.00, 187500.00, -187500.02, -187500.02, 187500.00, 0.000, 0.000, 0.000, 17:25:22.476
146, -5395.26, 13634.97, 187500.00, 187500.00, 187500.00, -187500.02, -187500.02, 187500.00, 0.000, 0.000, 0.000, 17:25:22.476
147, -4392.43, 14674.79, 187500.00, 187500.00, 187500.00, -187500.02, -187500.02, 187500.00, 0.000, 0.000, 0.000, 17:25:22.476
148, -4080.74, 14951.55, 187500.00, 187500.00, 187500.00, -187500.02, -187500.02, 187500.00, 0.000, 0.000, 0.000, 17:25:22.478
149, -4399.14, 14605.79, 187500.00, 187500.00, 187500.00, -187500.02, -187500.02, 187500.00, 0.000, 0.000, 0.000, 17:25:22.478
150, -5277.72, 13695.52, 187500.00, 187500.00, 187500.00, -187500.02, -187500.02, 187500.00, 0.004, -0.020, 1.028, 17:25:22.478
151, -5401.61, 13634.85, 187500.00, 187500.00, 187500.00, -187500.02, -187500.02, 187500.00, 0.000, 0.000, 0.000, 17:25:22.478
152, -4384.61, 14692.56, 187500.00, 187500.00, 187500.00, -187500.02, -187500.02, 187500.00, 0.000, 0.000, 0.000, 17:25:22.479
153, -4076.76, 14957.29, 187500.00, 187500.00, 187500.00, -187500.02, -187500.02, 187500.00, 0.000, 0.000, 0.000, 17:25:22.479
154, -4380.94, 14622.64, 187500.00, 187500.00, 187500.00, -187500.02, -187500.02, 187500.00, 0.000, 0.000, 0.000, 17:25:22.479
155, -5250.00, 13723.72, 187500.00, 187500.00, 187500.00, -187500.02, -187500.02, 187500.00, 0.000, 0.000, 0.000, 17:25:22.479
156, -5395.76, 13639.57, 187500.00, 187500.00, 187500.00, -187500.02, -187500.02, 187500.00, 0.000, 0.000, 0.000, 17:25:22.479
157, -4387.78, 14691.44, 187500.00, 187500.00, 187500.00, -187500.02, -187500.02, 187500.00, 0.000, 0.000, 0.000, 17:25:22.479
158, -4079.69, 14960.16, 187500.00, 187500.00, 187500.00, -187500.02, -187500.02, 187500.00, 0.000, 0.000, 0.000, 17:25:22.480
159, -4405.35, 14601.75, 187500.00, 187500.00, 187500.00, -187500.02, -187500.02, 187500.00, 0.000, 0.000, 0.000, 17:25:22.480
160, -5264.26, 13708.50, 187500.00, 187500.00, 187500.00, -187500.02, -187500.02, 187500.00, 0.006, -0.018, 1.022, 17:25:22.480
161, -5415.07, 13619.28, 187500.00, 187500.00, 187500.00, -187500.02, -187500.02, 187500.00, 0.000, 0.000, 0.000, 17:25:22.480
162, -4406.13, 14667.39, 187500.00, 187500.00, 187500.00, -187500.02, -187500.02, 187500.00, 0.000, 0.000, 0.000, 17:25:22.480
163, -4087.17, 14943.44, 187500.00, 187500.00, 187500.00, -187500.02, -187500.02, 187500.00, 0.000, 0.000, 0.000, 17:25:22.480
164, -4405.04, 14594.66, 187500.00, 187500.00, 187500.00, -187500.02, -187500.02, 187500.00, 0.000, 0.000, 0.000, 17:25:22.481
165, -5267.88, 13700.12, 187500.00, 187500.00, 187500.00, -187500.02, -187500.02, 187500.00, 0.000, 0.000, 0.000, 17:25:22.481
166, -5427.96, 13599.61, 187500.00, 187500.00, 187500.00, -187500.02, -187500.02, 187500.00, 0.000, 0.000, 0.000, 17:25:22.481
167, -4414.07, 14655.41, 187500.00, 187500.00, 187500.00, -187500.02, -187500.02, 187500.00, 0.000, 0.000, 0.000, 17:25:22.481
168, -4094.41, 14937.65, 187500.00, 187500.00, 187500.00, -187500.02, -187500.02, 187500.00, 0.000, 0.000, 0.000, 17:25:22.481
169, -4404.48, 14597.99, 187500.00, 187500.00, 187500.00, -187500.02, -187500.02, 187500.00, 0.000, 0.000, 0.000, 17:25:22.482
170, -5262.00, 13700.30, 187500.00, 187500.00, 187500.00, -187500.02, -187500.02, 187500.00, 0.006, -0.018, 1.034, 17:25:22.482
171, -5426.76, 13593.57, 187500.00, 187500.00, 187500.00, -187500.02, -187500.02, 187500.00, 0.000, 0.000, 0.000, 17:25:22.482
172, -4404.97, 14661.27, 187500.00, 187500.00, 187500.00, -187500.02, -187500.02, 187500.00, 0.000, 0.000, 0.000, 17:25:22.482
173, -4084.33, 14953.83, 187500.00, 187500.00, 187500.00, -187500.02, -187500.02, 187500.00, 0.000, 0.000, 0.000, 17:25:22.482
174, -4399.27, 14607.62, 187500.00, 187500.00, 187500.00, -187500.02, -187500.02, 187500.00, 0.000, 0.000, 0.000, 17:25:22.482
175, -5252.32, 13711.32, 187500.00, 187500.00, 187500.00, -187500.02, -187500.02, 187500.00, 0.000, 0.000, 0.000, 17:25:22.483
176, -5431.00, 13590.37, 187500.00, 187500.00, 187500.00, -187500.02, -187500.02, 187500.00, 0.000, 0.000, 0.000, 17:25:22.483
177, -4428.82, 14641.73, 187500.00, 187500.00, 187500.00, -187500.02, -187500.02, 187500.00, 0.000, 0.000, 0.000, 17:25:22.483
178, -4079.62, 14951.60, 187500.00, 187500.00, 187500.00, -187500.02, -187500.02, 187500.00, 0.000, 0.000, 0.000, 17:25:22.483
179, -4381.28, 14618.00, 187500.00, 187500.00, 187500.00, -187500.02, -187500.02, 187500.00, 0.000, 0.000, 0.000, 17:25:22.483
180, -5241.75, 13727.05, 187500.00, 187500.00, 187500.00, -187500.02, -187500.02, 187500.00, 0.002, -0.018, 1.030, 17:25:22.484
181, -5427.43, 13595.34, 187500.00, 187500.00, 187500.00, -187500.02, -187500.02, 187500.00, 0.000, 0.000, 0.000, 17:25:22.484
182, -4410.92, 14660.02, 187500.00, 187500.00, 187500.00, -187500.02, -187500.02, 187500.00, 0.000, 0.000, 0.000, 17:25:22.484
183, -4060.60, 14973.83, 187500.00, 187500.00, 187500.00, -187500.02, -187500.02, 187500.00, 0.000, 0.000, 0.000, 17:25:22.484
184, -4370.01, 14631.09, 187500.00, 187500.00, 187500.00, -187500.02, -187500.02, 187500.00, 0.000, 0.000, 0.000, 17:25:22.484
185, -5218.10, 13745.36, 187500.00, 187500.00, 187500.00, -187500.02, -187500.02, 187500.00, 0.000, 0.000, 0.000, 17:25:22.484
186, -5405.99, 13616.28, 187500.00, 187500.00, 187500.00, -187500.02, -187500.02, 187500.00, 0.000, 0.000, 0.000, 17:25:22.485
187, -4410.78, 14661.65, 187500.00, 187500.00, 187500.00, -187500.02, -187500.02, 187500.00, 0.000, 0.000, 0.000, 17:25:22.485
188, -4060.10, 14977.23, 187500.00, 187500.00, 187500.00, -187500.02, -187500.02, 187500.00, 0.000, 0.000, 0.000, 17:25:22.485
189, -4357.34, 14640.97, 187500.00, 187500.00, 187500.00, -187500.02, -187500.02, 187500.00, 0.006, -0.016, 1.026, 17:25:22.485
190, -5209.07, 13752.89, 187500.00, 187500.00, 187500.00, -187500.02, -187500.02, 187500.00, 0.000, 0.000, 0.000, 17:25:22.485
191, -5407.78, 13613.62, 187500.00, 187500.00, 187500.00, -187500.02, -187500.02, 187500.00, 0.000, 0.000, 0.000, 17:25:22.485
192, -4399.96, 14671.08, 187500.00, 187500.00, 187500.00, -187500.02, -187500.02, 187500.00, 0.000, 0.000, 0.000, 17:25:22.486
193, -4051.95, 14981.84, 187500.00, 187500.00, 187500.00, -187500.02, -187500.02, 187500.00, 0.000, 0.000, 0.000, 17:25:22.486
194, -4352.53, 14651.01, 187500.00, 187500.00, 187500.00, -187500.02, -187500.02, 187500.00, 0.000, 0.000, 0.000, 17:25:22.486
195, -5214.71, 13755.38, 187500.00, 187500.00, 187500.00, -187500.02, -187500.02, 187500.00, 0.000, 0.000, 0.000, 17:25:22.486
196, -5427.94, 13598.42, 187500.00, 187500.00, 187500.00, -187500.02, -187500.02, 187500.00, 0.000, 0.000, 0.000, 17:25:22.487
197, -4424.06, 14649.36, 187500.00, 187500.00, 187500.00, -187500.02, -187500.02, 187500.00, 0.000, 0.000, 0.000, 17:25:22.487
198, -4072.60, 14962.35, 187500.00, 187500.00, 187500.00, -187500.02, -187500.02, 187500.00, 0.000, 0.000, 0.000, 17:25:22.487
199, -4375.78, 14624.03, 187500.00, 187500.00, 187500.00, -187500.02, -187500.02, 187500.00, 0.008, -0.020, 1.032, 17:25:22.487
200, -5234.64, 13728.49, 187500.00, 187500.00, 187500.00, -187500.02, -187500.02, 187500.00, 0.000, 0.000, 0.000, 17:25:22.487
201, -5460.75, 13561.79, 187500.00, 187500.00, 187500.00, -187500.02, -187500.02, 187500.00, 0.000, 0.000, 0.000, 17:25:22.487
202, -4452.58, 14621.88, 187500.00, 187500.00, 187500.00, -187500.02, -187500.02, 187500.00, 0.000, 0.000, 0.000, 17:25:22.488
203, -4090.46, 14952.96, 187500.00, 187500.00, 187500.00, -187500.02, -187500.02, 187500.00, 0.000, 0.000, 0.000, 17:25:22.488
204, -4383.71, 14626.33, 187500.00, 187500.00, 187500.00, -187500.02, -187500.02, 187500.00, 0.000, 0.000, 0.000, 17:25:22.488
205, -5223.58, 13741.03, 187500.00, 187500.00, 187500.00, -187500.02, -187500.02, 187500.00, 0.000, 0.000, 0.000, 17:25:22.488
206, -5467.33, 13554.43, 187500.00, 187500.00, 187500.00, -187500.02, -187500.02, 187500.00, 0.000, 0.000, 0.000, 17:25:22.488
207, -4469.16, 14608.50, 187500.00, 187500.00, 187500.00, -187500.02, -187500.02, 187500.00, 0.000, 0.000, 0.000, 17:25:22.488
208, -4101.32, 14941.69, 187500.00, 187500.00, 187500.00, -187500.02, -187500.02, 187500.00, 0.000, 0.000, 0.000, 17:25:22.489
209, -4393.15, 14610.75, 187500.00, 187500.00, 187500.00, -187500.02, -187500.02, 187500.00, 0.006, -0.022, 1.032, 17:25:22.948
210, -5227.04, 13740.60, 187500.00, 187500.00, 187500.00, -187500.02, -187500.02, 187500.00, 0.000, 0.000, 0.000, 17:25:22.948
211, -5471.42, 13552.35, 187500.00, 187500.00, 187500.00, -187500.02, -187500.02, 187500.00, 0.000, 0.000, 0.000, 17:25:22.948
212, -4468.00, 14608.63, 187500.00, 187500.00, 187500.00, -187500.02, -187500.02, 187500.00, 0.000, 0.000, 0.000, 17:25:22.948
213, -4089.83, 14950.48, 187500.00, 187500.00, 187500.00, -187500.02, -187500.02, 187500.00, 0.000, 0.000, 0.000, 17:25:22.948
214, -4374.37, 14624.21, 187500.00, 187500.00, 187500.00, -187500.02, -187500.02, 187500.00, 0.000, 0.000, 0.000, 17:25:22.948
215, -5218.39, 13743.17, 187500.00, 187500.00, 187500.00, -187500.02, -187500.02, 187500.00, 0.000, 0.000, 0.000, 17:25:22.949
216, -5460.96, 13556.15, 187500.00, 187500.00, 187500.00, -187500.02, -187500.02, 187500.00, 0.000, 0.000, 0.000, 17:25:22.949
217, -4455.73, 14612.72, 187500.00, 187500.00, 187500.00, -187500.02, -187500.02, 187500.00, 0.000, 0.000, 0.000, 17:25:22.949
218, -4073.74, 14961.52, 187500.00, 187500.00, 187500.00, -187500.02, -187500.02, 187500.00, 0.000, 0.000, 0.000, 17:25:22.949
219, -4361.94, 14635.72, 187500.00, 187500.00, 187500.00, -187500.02, -187500.02, 187500.00, 0.008, -0.014, 1.034, 17:25:22.949
220, -5201.74, 13754.66, 187500.00, 187500.00, 187500.00, -187500.02, -187500.02, 187500.00, 0.000, 0.000, 0.000, 17:25:22.950
221, -5456.55, 13551.93, 187500.00, 187500.00, 187500.00, -187500.02, -187500.02, 187500.00, 0.000, 0.000, 0.000, 17:25:22.950
222, -4470.24, 14592.31, 187500.00, 187500.00, 187500.00, -187500.02, -187500.02, 187500.00, 0.000, 0.000, 0.000, 17:25:22.950
223, -4085.52, 14942.43, 187500.00, 187500.00, 187500.00, -187500.02, -187500.02, 187500.00, 0.000, 0.000, 0.000, 17:25:22.950
224, -4367.22, 14626.22, 187500.00, 187500.00, 187500.00, -187500.02, -187500.02, 187500.00, 0.000, 0.000, 0.000, 17:25:22.950
225, -5196.85, 13761.45, 187500.00, 187500.00, 187500.00, -187500.02, -187500.02, 187500.00, 0.000, 0.000, 0.000, 17:25:22.950
226, -5463.44, 13549.40, 187500.00, 187500.00, 187500.00, -187500.02, -187500.02, 187500.00, 0.000, 0.000, 0.000, 17:25:22.950
227, -4459.91, 14600.81, 187500.00, 187500.00, 187500.00, -187500.02, -187500.02, 187500.00, 0.000, 0.000, 0.000, 17:25:22.950
228, -4075.21, 14959.98, 187500.00, 187500.00, 187500.00, -187500.02, -187500.02, 187500.00, 0.000, 0.000, 0.000, 17:25:22.951
229, -4357.65, 14642.83, 187500.00, 187500.00, 187500.00, -187500.02, -187500.02, 187500.00, 0.002, -0.012, 1.024, 17:25:22.951
230, -5185.20, 13770.71, 187500.00, 187500.00, 187500.00, -187500.02, -187500.02, 187500.00, 0.000, 0.000, 0.000, 17:25:22.951
231, -5461.96, 13546.70, 187500.00, 187500.00, 187500.00, -187500.02, -187500.02, 187500.00, 0.000, 0.000, 0.000, 17:25:22.951
232, -4477.28, 14590.64, 187500.00, 187500.00, 187500.00, -187500.02, -187500.02, 187500.00, 0.000, 0.000, 0.000, 17:25:22.951
233, -4086.37, 14945.85, 187500.00, 187500.00, 187500.00, -187500.02, -187500.02, 187500.00, 0.000, 0.000, 0.000, 17:25:22.951
234, -4353.23, 14639.10, 187500.00, 187500.00, 187500.00, -187500.02, -187500.02, 187500.00, 0.000, 0.000, 0.000, 17:25:22.951
235, -5174.45, 13780.36, 187500.00, 187500.00, 187500.00, -187500.02, -187500.02, 187500.00, 0.000, 0.000, 0.000, 17:25:22.951
236, -5456.22, 13552.87, 187500.00, 187500.00, 187500.00, -187500.02, -187500.02, 187500.00, 0.000, 0.000, 0.000, 17:25:22.951
237, -4476.34, 14588.67, 187500.00, 187500.00, 187500.00, -187500.02, -187500.02, 187500.00, 0.000, 0.000, 0.000, 17:25:22.952
238, -4083.19, 14953.38, 187500.00, 187500.00, 187500.00, -187500.02, -187500.02, 187500.00, 0.000, 0.000, 0.000, 17:25:22.952
239, -4351.59, 14650.34, 187500.00, 187500.00, 187500.00, -187500.02, -187500.02, 187500.00, -0.002, -0.008, 1.030, 17:25:22.952
240, -5178.27, 13785.19, 187500.00, 187500.00, 187500.00, -187500.02, -187500.02, 187500.00, 0.000, 0.000, 0.000, 17:25:22.952
241, -5471.37, 13541.25, 187500.00, 187500.00, 187500.00, -187500.02, -187500.02, 187500.00, 0.000, 0.000, 0.000, 17:25:22.952
242, -4491.58, 14572.80, 187500.00, 187500.00, 187500.00, -187500.02, -187500.02, 187500.00, 0.000, 0.000, 0.000, 17:25:22.952
243, -4106.82, 14925.67, 187500.00, 187500.00, 187500.00, -187500.02, -187500.02, 187500.00, 0.000, 0.000, 0.000, 17:25:22.952
244, -4363.33, 14632.81, 187500.00, 187500.00, 187500.00, -187500.02, -187500.02, 187500.00, 0.000, 0.000, 0.000, 17:25:22.952
245, -5184.26, 13775.74, 187500.00, 187500.00, 187500.00, -187500.02, -187500.02, 187500.00, 0.000, 0.000, 0.000, 17:25:22.953
246, -5489.61, 13524.66, 187500.00, 187500.00, 187500.00, -187500.02, -187500.02, 187500.00, 0.000, 0.000, 0.000, 17:25:22.953
247, -4510.96, 14556.51, 187500.00, 187500.00, 187500.00, -187500.02, -187500.02, 187500.00, 0.000, 0.000, 0.000, 17:25:22.953
248, -4101.59, 14930.88, 187500.00, 187500.00, 187500.00, -187500.02, -187500.02, 187500.00, 0.000, 0.000, 0.000, 17:25:22.953
249, -4373.43, 14626.13, 187500.00, 187500.00, 187500.00, -187500.02, -187500.02, 187500.00, 0.000, -0.020, 1.026, 17:25:22.953
250, -5193.87, 13768.09, 187500.00, 187500.00, 187500.00, -187500.02, -187500.02, 187500.00, 0.000, 0.000, 0.000, 17:25:22.953
251, -5500.70, 13505.68, 187500.00, 187500.00, 187500.00, -187500.02, -187500.02, 187500.00, 0.000, 0.000, 0.000, 17:25:22.953
252, -4521.74, 14542.47, 187500.00, 187500.00, 187500.00, -187500.02, -187500.02, 187500.00, 0.000, 0.000, 0.000, 17:25:22.953
253, -4114.98, 14921.53, 187500.00, 187500.00, 187500.00, -187500.02, -187500.02, 187500.00, 0.000, 0.000, 0.000, 17:25:22.953
254, -4376.54, 14622.33, 187500.00, 187500.00, 187500.00, -187500.02, -187500.02, 187500.00, 0.000, 0.000, 0.000, 17:25:22.954
255, -5190.63, 13766.26, 187500.00, 187500.00, 187500.00, -187500.02, -187500.02, 187500.00, 0.000, 0.000, 0.000, 17:25:22.954
0, -5506.67, 13499.67, 187500.00, 187500.00, 187500.00, -187500.02, -187500.02, 187500.00, 0.000, 0.000, 0.000, 17:25:22.954
1, -4518.20, 14545.71, 187500.00, 187500.00, 187500.00, -187500.02, -187500.02, 187500.00, 0.000, 0.000, 0.000, 17:25:22.954
2, -4107.96, 14921.49, 187500.00, 187500.00, 187500.00, -187500.02, -187500.02, 187500.00, 0.000, 0.000, 0.000, 17:25:22.954
3, -4377.83, 14616.27, 187500.00, 187500.00, 187500.00, -187500.02, -187500.02, 187500.00, 0.000, -0.020, 1.026, 17:25:22.955
4, -5194.68, 13767.42, 187500.00, 187500.00, 187500.00, -187500.02, -187500.02, 187500.00, 0.000, 0.000, 0.000, 17:25:22.955
5, -5522.87, 13486.30, 187500.00, 187500.00, 187500.00, -187500.02, -187500.02, 187500.00, 0.000, 0.000, 0.000, 17:25:22.955
6, -4543.42, 14526.15, 187500.00, 187500.00, 187500.00, -187500.02, -187500.02, 187500.00, 0.000, 0.000, 0.000, 17:25:22.955
7, -4100.94, 14930.27, 187500.00, 187500.00, 187500.00, -187500.02, -187500.02, 187500.00, 0.000, 0.000, 0.000, 17:25:22.955
8, -4360.20, 14633.44, 187500.00, 187500.00, 187500.00, -187500.02, -187500.02, 187500.00, 0.000, 0.000, 0.000, 17:25:22.956
9, -5163.43, 13790.62, 187500.00, 187500.00, 187500.00, -187500.02, -187500.02, 187500.00, 0.000, 0.000, 0.000, 17:25:22.956
10, -5502.33, 13496.61, 187500.00, 187500.00, 187500.00, -187500.02, -187500.02, 187500.00, 0.000, 0.000, 0.000, 17:25:22.956
11, -4539.04, 14522.02, 187500.00, 187500.00, 187500.00, -187500.02, -187500.02, 187500.00, 0.000, 0.000, 0.000, 17:25:22.956
12, -4095.22, 14938.09, 187500.00, 187500.00, 187500.00, -187500.02, -187500.02, 187500.00, 0.000, 0.000, 0.000, 17:25:22.956
13, -4351.93, 14641.60, 187500.00, 187500.00, 187500.00, -187500.02, -187500.02, 187500.00, 0.010, -0.020, 1.028, 17:25:22.956
14, -5159.99, 13794.71, 187500.00, 187500.00, 187500.00, -187500.02, -187500.02, 187500.00, 0.000, 0.000, 0.000, 17:25:22.957
15, -5490.19, 13515.92, 187500.00, 187500.00, 187500.00, -187500.02, -187500.02, 187500.00, 0.000, 0.000, 0.000, 17:25:22.957
16, -4509.73, 14547.95, 187500.00, 187500.00, 187500.00, -187500.02, -187500.02, 187500.00, 0.000, 0.000, 0.000, 17:25:22.957
17, -4091.20, 14933.98, 187500.00, 187500.00, 187500.00, -187500.02, -187500.02, 187500.00, 0.000, 0.000, 0.000, 17:25:22.957
18, -4344.60, 14652.06, 187500.00, 187500.00, 187500.00, -187500.02, -187500.02, 187500.00, 0.000, 0.000, 0.000, 17:25:22.957
19, -5152.30, 13810.63, 187500.00, 187500.00, 187500.00, -187500.02, -187500.02, 187500.00, 0.000, 0.000, 0.000, 17:25:22.957
20, -5526.36, 13485.01, 187500.00, 187500.00, 187500.00, -187500.02, -187500.02, 187500.00, 0.000, 0.000, 0.000, 17:25:22.958
21, -4571.13, 14499.89, 187500.00, 187500.00, 187500.00, -187500.02, -187500.02, 187500.00, 0.000, 0.000, 0.000, 17:25:22.958
22, -4105.93, 14928.46, 187500.00, 187500.00, 187500.00, -187500.02, -187500.02, 187500.00, 0.000, 0.000, 0.000, 17:25:22.958
23, -4349.16, 14646.83, 187500.00, 187500.00, 187500.00, -187500.02, -187500.02, 187500.00, 0.012, -0.024, 1.030, 17:25:22.958
24, -5169.91, 13793.17, 187500.00, 187500.00, 187500.00, -187500.02, -187500.02, 187500.00, 0.000, 0.000, 0.000, 17:25:22.958
25, -5535.90, 13476.65, 187500.00, 187500.00, 187500.00, -187500.02, -187500.02, 187500.00, 0.000, 0.000, 0.000, 17:25:22.958
26, -4568.88, 14502.19, 187500.00, 187500.00, 187500.00, -187500.02, -187500.02, 187500.00, 0.000, 0.000, 0.000, 17:25:22.958
27, -4110.75, 14932.66, 187500.00, 187500.00, 187500.00, -187500.02, -187500.02, 187500.00, 0.000, 0.000, 0.000, 17:25:22.959
28, -4362.30, 14644.04, 187500.00, 187500.00, 187500.00, -187500.02, -187500.02, 187500.00, 0.000, 0.000, 0.000, 17:25:22.959
29, -5159.65, 13804.97, 187500.00, 187500.00, 187500.00, -187500.02, -187500.02, 187500.00, 0.000, 0.000, 0.000, 17:25:22.959
30, -5531.48, 13479.06, 187500.00, 187500.00, 187500.00, -187500.02, -187500.02, 187500.00, 0.000, 0.000, 0.000, 17:25:22.959
31, -4564.58, 14508.58, 187500.00, 187500.00, 187500.00, -187500.02, -187500.02, 187500.00, 0.000, 0.000, 0.000, 17:25:22.959
32, -4102.64, 14933.25, 187500.00, 187500.00, 187500.00, -187500.02, -187500.02, 187500.00, 0.000, 0.000, 0.000, 17:25:22.959
33, -4345.83, 14650.29, 187500.00, 187500.00, 187500.00, -187500.02, -187500.02, 187500.00, 0.012, -0.020, 1.030, 17:25:22.960
34, -5147.29, 13814.43, 187500.00, 187500.00, 187500.00, -187500.02, -187500.02, 187500.00, 0.000, 0.000, 0.000, 17:25:22.960
35, -5521.17, 13487.00, 187500.00, 187500.00, 187500.00, -187500.02, -187500.02, 187500.00, 0.000, 0.000, 0.000, 17:25:22.960
36, -4564.47, 14498.86, 187500.00, 187500.00, 187500.00, -187500.02, -187500.02, 187500.00, 0.000, 0.000, 0.000, 17:25:22.960
37, -4107.67, 14915.68, 187500.00, 187500.00, 187500.00, -187500.02, -187500.02, 187500.00, 0.000, 0.000, 0.000, 17:25:22.960
38, -4342.70, 14643.25, 187500.00, 187500.00, 187500.00, -187500.02, -187500.02, 187500.00, 0.000, 0.000, 0.000, 17:25:22.960
39, -5139.56, 13821.63, 187500.00, 187500.00, 187500.00, -187500.02, -187500.02, 187500.00, 0.000, 0.000, 0.000, 17:25:22.961
40, -5534.20, 13478.41, 187500.00, 187500.00, 187500.00, -187500.02, -187500.02, 187500.00, 0.000, 0.000, 0.000, 17:25:22.961
41, -4581.01, 14491.55, 187500.00, 187500.00, 187500.00, -187500.02, -187500.02, 187500.00, 0.000, 0.000, 0.000, 17:25:22.961
42, -4118.62, 14920.42, 187500.00, 187500.00, 187500.00, -187500.02, -187500.02, 187500.00, 0.000, 0.000, 0.000, 17:25:22.961
43, -4350.30, 14655.32, 187500.00, 187500.00, 187500.00, -187500.02, -187500.02, 187500.00, 0.012, -0.016, 1.032, 17:25:22.961
44, -5139.09, 13828.15, 187500.00, 187500.00, 187500.00, -187500.02, -187500.02, 187500.00, 0.000, 0.000, 0.000, 17:25:22.961
45, -5544.57, 13465.23, 187500.00, 187500.00, 187500.00, -187500.02, -187500.02, 187500.00, 0.000, 0.000, 0.000, 17:25:22.962
46, -4579.96, 14485.20, 187500.00, 187500.00, 187500.00, -187500.02, -187500.02, 187500.00, 0.000, 0.000, 0.000, 17:25:22.962
47, -4097.39, 14935.86, 187500.00, 187500.00, 187500.00, -187500.02, -187500.02, 187500.00, 0.000, 0.000, 0.000, 17:25:22.962
48, -4336.33, 14672.24, 187500.00, 187500.00, 187500.00, -187500.02, -187500.02, 187500.00, 0.000, 0.000, 0.000, 17:25:22.962
49, -5143.74, 13826.07, 187500.00, 187500.00, 187500.00, -187500.02, -187500.02, 187500.00, 0.000, 0.000, 0.000, 17:25:22.962
50, -5555.88, 13458.43, 187500.00, 187500.00, 187500.00, -187500.02, -187500.02, 187500.00, 0.000, 0.000, 0.000, 17:25:22.962
51, -4592.48, 14483.19, 187500.00, 187500.00, 187500.00, -187500.02, -187500.02, 187500.00, 0.000, 0.000, 0.000, 17:25:22.963
52, -4117.24, 14926.94, 187500.00, 187500.00, 187500.00, -187500.02, -187500.02, 187500.00, 0.000, 0.000, 0.000, 17:25:22.963
53, -4342.54, 14665.49, 187500.00, 187500.00, 187500.00, -187500.02, -187500.02, 187500.00, 0.006, -0.022, 1.026, 17:25:22.963
54, -5118.37, 13851.93, 187500.00, 187500.00, 187500.00, -187500.02, -187500.02, 187500.00, 0.000, 0.000, 0.000, 17:25:22.963
55, -5538.20, 13476.51, 187500.00, 187500.00, 187500.00, -187500.02, -187500.02, 187500.00, 0.000, 0.000, 0.000, 17:25:22.963
56, -4593.46, 14477.47, 187500.00, 187500.00, 187500.00, -187500.02, -187500.02, 187500.00, 0.000, 0.000, 0.000, 17:25:22.963
57, -4116.63, 14925.13, 187500.00, 187500.00, 187500.00, -187500.02, -187500.02, 187500.00, 0.000, 0.000, 0.000, 17:25:22.964
58, -4345.13, 14655.50, 187500.00, 187500.00, 187500.00, -187500.02, -187500.02, 187500.00, 0.000, 0.000, 0.000, 17:25:22.964
59, -5118.91, 13845.92, 187500.00, 187500.00, 187500.00, -187500.02, -187500.02, 187500.00, 0.000, 0.000, 0.000, 17:25:22.964
60, -5538.34, 13479.02, 187500.00, 187500.00, 187500.00, -187500.02, -187500.02, 187500.00, 0.000, 0.000, 0.000, 17:25:22.964
61, -4592.30, 14484.40, 187500.00, 187500.00, 187500.00, -187500.02, -187500.02, 187500.00, 0.000, 0.000, 0.000, 17:25:22.964
62, -4097.48, 14947.59, 187500.00, 187500.00, 187500.00, -187500.02, -187500.02, 187500.00, 0.000, 0.000, 0.000, 17:25:22.964
63, -4342.65, 14669.09, 187500.00, 187500.00, 187500.00, -187500.02, -187500.02, 187500.00, 0.002, -0.022, 1.026, 17:25:22.964
64, -5124.54, 13847.44, 187500.00, 187500.00, 187500.00, -187500.02, -187500.02, 187500.00, 0.000, 0.000, 0.000, 17:25:22.965
65, -5553.00, 13457.67, 187500.00, 187500.00, 187500.00, -187500.02, -187500.02, 187500.00, 0.000, 0.000, 0.000, 17:25:22.965
66, -4599.63, 14470.83, 187500.00, 187500.00, 187500.00, -187500.02, -187500.02, 187500.00, 0.000, 0.000, 0.000, 17:25:22.965
67, -4107.80, 14930.41, 187500.00, 187500.00, 187500.00, -187500.02, -187500.02, 187500.00, 0.000, 0.000, 0.000, 17:25:22.965
68, -4347.41, 14669.52, 187500.00, 187500.00, 187500.00, -187500.02, -187500.02, 187500.00, 0.000, 0.000, 0.000, 17:25:22.965
69, -5116.38, 13864.58, 187500.00, 187500.00, 187500.00, -187500.02, -187500.02, 187500.00, 0.000, 0.000, 0.000, 17:25:22.965
70, -5550.63, 13466.32, 187500.00, 187500.00, 187500.00, -187500.02, -187500.02, 187500.00, 0.000, 0.000, 0.000, 17:25:22.965
71, -4616.10, 14468.98, 187500.00, 187500.00, 187500.00, -187500.02, -187500.02, 187500.00, 0.000, 0.000, 0.000, 17:25:22.965
72, -4122.09, 14929.85, 187500.00, 187500.00, 187500.00, -187500.02, -187500.02, 187500.00, 0.004, -0.012, 1.018, 17:25:22.966
73, -4340.02, 14671.66, 187500.00, 187500.00, 187500.00, -187500.02, -187500.02, 187500.00, 0.000, 0.000, 0.000, 17:25:23.427
74, -5114.06, 13861.21, 187500.00, 187500.00, 187500.00, -187500.02, -187500.02, 187500.00, 0.000, 0.000, 0.000, 17:25:23.427
75, -5555.91, 13463.66, 187500.00, 187500.00, 187500.00, -187500.02, -187500.02, 187500.00, 0.000, 0.000, 0.000, 17:25:23.428
76, -4612.75, 14468.80, 187500.00, 187500.00, 187500.00, -187500.02, -187500.02, 187500.00, 0.000, 0.000, 0.000, 17:25:23.428
77, -4106.44, 14945.78, 187500.00, 187500.00, 187500.00, -187500.02, -187500.02, 187500.00, 0.000, 0.000, 0.000, 17:25:23.428
78, -4336.04, 14688.43, 187500.00, 187500.00, 187500.00, -187500.02, -187500.02, 187500.00, 0.000, 0.000, 0.000, 17:25:23.428
79, -5098.23, 13890.56, 187500.00, 187500.00, 187500.00, -187500.02, -187500.02, 187500.00, 0.000, 0.000, 0.000, 17:25:23.428
80, -5549.76, 13479.76, 187500.00, 187500.00, 187500.00, -187500.02, -187500.02, 187500.00, 0.000, 0.000, 0.000, 17:25:23.428
81, -4614.09, 14478.14, 187500.00, 187500.00, 187500.00, -187500.02, -187500.02, 187500.00, 0.000, 0.000, 0.000, 17:25:23.429
82, -4094.26, 14964.83, 187500.00, 187500.00, 187500.00, -187500.02, -187500.02, 187500.00, 0.004, -0.010, 1.022, 17:25:23.429
83, -4311.45, 14711.54, 187500.00, 187500.00, 187500.00, -187500.02, -187500.02, 187500.00, 0.000, 0.000, 0.000, 17:25:23.429
84, -5068.97, 13914.03, 187500.00, 187500.00, 187500.00, -187500.02, -187500.02, 187500.00, 0.000, 0.000, 0.000, 17:25:23.429
85, -5538.02, 13484.65, 187500.00, 187500.00, 187500.00, -187500.02, -187500.02, 187500.00, 0.000, 0.000, 0.000, 17:25:23.429
86, -4622.05, 14470.23, 187500.00, 187500.00, 187500.00, -187500.02, -187500.02, 187500.00, 0.000, 0.000, 0.000, 17:25:23.430
87, -4104.50, 14963.78, 187500.00, 187500.00, 187500.00, -187500.02, -187500.02, 187500.00, 0.000, 0.000, 0.000, 17:25:23.430
88, -4330.36, 14702.96, 187500.00, 187500.00, 187500.00, -187500.02, -187500.02, 187500.00, 0.000, 0.000, 0.000, 17:25:23.430
89, -5087.95, 13908.91, 187500.00, 187500.00, 187500.00, -187500.02, -187500.02, 187500.00, 0.000, 0.000, 0.000, 17:25:23.430
90, -5560.42, 13474.39, 187500.00, 187500.00, 187500.00, -187500.02, -187500.02, 187500.00, 0.000, 0.000, 0.000, 17:25:23.430
91, -4640.47, 14463.43, 187500.00, 187500.00, 187500.00, -187500.02, -187500.02, 187500.00, 0.000, 0.000, 0.000, 17:25:23.431
92, -4116.83, 14953.52, 187500.00, 187500.00, 187500.00, -187500.02, -187500.02, 187500.00, 0.004, -0.014, 1.024, 17:25:23.431
93, -4331.01, 14700.61, 187500.00, 187500.00, 187500.00, -187500.02, -187500.02, 187500.00, 0.000, 0.000, 0.000, 17:25:23.431
94, -5099.37, 13884.43, 187500.00, 187500.00, 187500.00, -187500.02, -187500.02, 187500.00, 0.000, 0.000, 0.000, 17:25:23.431
95, -5587.24, 13437.29, 187500.00, 187500.00, 187500.00, -187500.02, -187500.02, 187500.00, 0.000, 0.000, 0.000, 17:25:23.431
96, -4670.60, 14428.99, 187500.00, 187500.00, 187500.00, -187500.02, -187500.02, 187500.00, 0.000, 0.000, 0.000, 17:25:23.431
97, -4126.69, 14938.92, 187500.00, 187500.00, 187500.00, -187500.02, -187500.02, 187500.00, 0.000, 0.000, 0.000, 17:25:23.432
98, -4347.32, 14678.90, 187500.00, 187500.00, 187500.00, -187500.02, -187500.02, 187500.00, 0.000, 0.000, 0.000, 17:25:23.432
99, -5099.13, 13884.17, 187500.00, 187500.00, 187500.00, -187500.02, -187500.02, 187500.00, 0.000, 0.000, 0.000, 17:25:23.432
100, -5593.73, 13431.01, 187500.00, 187500.00, 187500.00, -187500.02, -187500.02, 187500.00, 0.000, 0.000, 0.000, 17:25:23.432
101, -4682.98, 14412.96, 187500.00, 187500.00, 187500.00, -187500.02, -187500.02, 187500.00, 0.000, 0.000, 0.000, 17:25:23.432
102, -4145.04, 14925.24, 187500.00, 187500.00, 187500.00, -187500.02, -187500.02, 187500.00, 0.008, -0.012, 1.034, 17:25:23.432
103, -4339.08, 14689.19, 187500.00, 187500.00, 187500.00, -187500.02, -187500.02, 187500.00, 0.000, 0.000, 0.000, 17:25:23.433
104, -5104.60, 13883.70, 187500.00, 187500.00, 187500.00, -187500.02, -187500.02, 187500.00, 0.000, 0.000, 0.000, 17:25:23.433
105, -5604.54, 13427.43, 187500.00, 187500.00, 187500.00, -187500.02, -187500.02, 187500.00, 0.000, 0.000, 0.000, 17:25:23.433
106, -4687.67, 14413.10, 187500.00, 187500.00, 187500.00, -187500.02, -187500.02, 187500.00, 0.000, 0.000, 0.000, 17:25:23.433
107, -4135.50, 14942.16, 187500.00, 187500.00, 187500.00, -187500.02, -187500.02, 187500.00, 0.000, 0.000, 0.000, 17:25:23.433
108, -4344.15, 14702.42, 187500.00, 187500.00, 187500.00, -187500.02, -187500.02, 187500.00, 0.000, 0.000, 0.000, 17:25:23.433
109, -5084.49, 13918.83, 187500.00, 187500.00, 187500.00, -187500.02, -187500.02, 187500.00, 0.000, 0.000, 0.000, 17:25:23.434
110, -5585.28, 13454.27, 187500.00, 187500.00, 187500.00, -187500.02, -187500.02, 187500.00, 0.000, 0.000, 0.000, 17:25:23.434
111, -4670.11, 14443.34, 187500.00, 187500.00, 187500.00, -187500.02, -187500.02, 187500.00, 0.000, 0.000, 0.000, 17:25:23.434
112, -4108.97, 14970.33, 187500.00, 187500.00, 187500.00, -187500.02, -187500.02, 187500.00, 0.004, -0.016, 1.030, 17:25:23.434
113, -4319.07, 14723.47, 187500.00, 187500.00, 187500.00, -187500.02, -187500.02, 187500.00, 0.000, 0.000, 0.000, 17:25:23.434
114, -5067.45, 13935.22, 187500.00, 187500.00, 187500.00, -187500.02, -187500.02, 187500.00, 0.000, 0.000, 0.000, 17:25:23.434
115, -5565.87, 13475.22, 187500.00, 187500.00, 187500.00, -187500.02, -187500.02, 187500.00, 0.000, 0.000, 0.000, 17:25:23.435
116, -4652.27, 14450.36, 187500.00, 187500.00, 187500.00, -187500.02, -187500.02, 187500.00, 0.000, 0.000, 0.000, 17:25:23.435
117, -4105.52, 14971.62, 187500.00, 187500.00, 187500.00, -187500.02, -187500.02, 187500.00, 0.000, 0.000, 0.000, 17:25:23.435
118, -4311.88, 14732.33, 187500.00, 187500.00, 187500.00, -187500.02, -187500.02, 187500.00, 0.000, 0.000, 0.000, 17:25:23.435
119, -5061.51, 13946.50, 187500.00, 187500.00, 187500.00, -187500.02, -187500.02, 187500.00, 0.000, 0.000, 0.000, 17:25:23.435
120, -5581.12, 13461.18, 187500.00, 187500.00, 187500.00, -187500.02, -187500.02, 187500.00, 0.000, 0.000, 0.000, 17:25:23.435
121, -4689.08, 14418.17, 187500.00, 187500.00, 187500.00, -187500.02, -187500.02, 187500.00, 0.000, 0.000, 0.000, 17:25:23.435
122, -4130.80, 14956.74, 187500.00, 187500.00, 187500.00, -187500.02, -187500.02, 187500.00, 0.002, -0.014, 1.028, 17:25:23.435
123, -4335.32, 14717.06, 187500.00, 187500.00, 187500.00, -187500.02, -187500.02, 187500.00, 0.000, 0.000, 0.000, 17:25:23.436
124, -5078.63, 13927.24, 187500.00, 187500.00, 187500.00, -187500.02, -187500.02, 187500.00, 0.000, 0.000, 0.000, 17:25:23.436
125, -5594.84, 13434.72, 187500.00, 187500.00, 187500.00, -187500.02, -187500.02, 187500.00, 0.000, 0.000, 0.000, 17:25:23.436
126, -4700.26, 14394.88, 187500.00, 187500.00, 187500.00, -187500.02, -187500.02, 187500.00, 0.000, 0.000, 0.000, 17:25:23.436
127, -4141.44, 14939.86, 187500.00, 187500.00, 187500.00, -187500.02, -187500.02, 187500.00, 0.000, 0.000, 0.000, 17:25:23.436
128, -4349.69, 14696.99, 187500.00, 187500.00, 187500.00, -187500.02, -187500.02, 187500.00, 0.000, 0.000, 0.000, 17:25:23.436
129, -5081.33, 13923.08, 187500.00, 187500.00, 187500.00, -187500.02, -187500.02, 187500.00, 0.000, 0.000, 0.000, 17:25:23.436
130, -5606.73, 13428.30, 187500.00, 187500.00, 187500.00, -187500.02, -187500.02, 187500.00, 0.000, 0.000, 0.000, 17:25:23.436
131, -4709.02, 14395.48, 187500.00, 187500.00, 187500.00, -187500.02, -187500.02, 187500.00, 0.000, 0.000, 0.000, 17:25:23.437
132, -4130.27, 14951.17, 187500.00, 187500.00, 187500.00, -187500.02, -187500.02, 187500.00, 0.006, -0.018, 1.032, 17:25:23.437
133, -4332.48, 14711.69, 187500.00, 187500.00, 187500.00, -187500.02, -187500.02, 187500.00, 0.000, 0.000, 0.000, 17:25:23.437
134, -5076.39, 13933.85, 187500.00, 187500.00, 187500.00, -187500.02, -187500.02, 187500.00, 0.000, 0.000, 0.000, 17:25:23.437
135, -5603.63, 13438.96, 187500.00, 187500.00, 187500.00, -187500.02, -187500.02, 187500.00, 0.000, 0.000, 0.000, 17:25:23.438
136, -4696.15, 14410.97, 187500.00, 187500.00, 187500.00, -187500.02, -187500.02, 187500.00, 0.000, 0.000, 0.000, 17:25:23.438
137, -4124.99, 14962.35, 187500.00, 187500.00, 187500.00, -187500.02, -187500.02, 187500.00, 0.000, 0.000, 0.000, 17:25:23.438
138, -4314.22, 14742.14, 187500.00, 187500.00, 187500.00, -187500.02, -187500.02, 187500.00, 0.000, 0.000, 0.000, 17:25:23.438
139, -5049.44, 13973.10, 187500.00, 187500.00, 187500.00, -187500.02, -187500.02, 187500.00, 0.000, 0.000, 0.000, 17:25:23.438
140, -5611.76, 13442.85, 187500.00, 187500.00, 187500.00, -187500.02, -187500.02, 187500.00, 0.000, 0.000, 0.000, 17:25:23.438
141, -4712.04, 14407.80, 187500.00, 187500.00, 187500.00, -187500.02, -187500.02, 187500.00, 0.000, 0.000, 0.000, 17:25:23.439
142, -4128.90, 14969.63, 187500.00, 187500.00, 187500.00, -187500.02, -187500.02, 187500.00, 0.004, -0.016, 1.024, 17:25:23.439
143, -4313.82, 14746.96, 187500.00, 187500.00, 187500.00, -187500.02, -187500.02, 187500.00, 0.000, 0.000, 0.000, 17:25:23.439
144, -5057.26, 13966.80, 187500.00, 187500.00, 187500.00, -187500.02, -187500.02, 187500.00, 0.000, 0.000, 0.000, 17:25:23.439
145, -5606.96, 13447.66, 187500.00, 187500.00, 187500.00, -187500.02, -187500.02, 187500.00, 0.000, 0.000, 0.000, 17:25:23.439
146, -4730.19, 14383.97, 187500.00, 187500.00, 187500.00, -187500.02, -187500.02, 187500.00, 0.000, 0.000, 0.000, 17:25:23.439
147, -4144.04, 14947.35, 187500.00, 187500.00, 187500.00, -187500.02, -187500.02, 187500.00, 0.000, 0.000, 0.000, 17:25:23.440
148, -4327.30, 14727.23, 187500.00, 187500.00, 187500.00, -187500.02, -187500.02, 187500.00, 0.000, 0.000, 0.000, 17:25:23.440
149, -5049.48, 13968.45, 187500.00, 187500.00, 187500.00, -187500.02, -187500.02, 187500.00, 0.000, 0.000, 0.000, 17:25:23.440
150, -5611.61, 13443.32, 187500.00, 187500.00, 187500.00, -187500.02, -187500.02, 187500.00, 0.000, 0.000, 0.000, 17:25:23.440
151, -4732.96, 14382.54, 187500.00, 187500.00, 187500.00, -187500.02, -187500.02, 187500.00, 0.000, 0.000, 0.000, 17:25:23.440
152, -4144.28, 14954.14, 187500.00, 187500.00, 187500.00, -187500.02, -187500.02, 187500.00, 0.004, -0.022, 1.018, 17:25:23.440
153, -4326.83, 14740.48, 187500.00, 187500.00, 187500.00, -187500.02, -187500.02, 187500.00, 0.000, 0.000, 0.000, 17:25:23.440
154, -5048.83, 13985.73, 187500.00, 187500.00, 187500.00, -187500.02, -187500.02, 187500.00, 0.000, 0.000, 0.000, 17:25:23.441
155, -5631.34, 13436.46, 187500.00, 187500.00, 187500.00, -187500.02, -187500.02, 187500.00, 0.000, 0.000, 0.000, 17:25:23.441
156, -4755.31, 14379.57, 187500.00, 187500.00, 187500.00, -187500.02, -187500.02, 187500.00, 0.000, 0.000, 0.000, 17:25:23.441
157, -4164.49, 14948.98, 187500.00, 187500.00, 187500.00, -187500.02, -187500.02, 187500.00, 0.000, 0.000, 0.000, 17:25:23.441
158, -4332.21, 14736.82, 187500.00, 187500.00, 187500.00, -187500.02, -187500.02, 187500.00, 0.000, 0.000, 0.000, 17:25:23.441
159, -5037.66, 13994.47, 187500.00, 187500.00, 187500.00, -187500.02, -187500.02, 187500.00, 0.000, 0.000, 0.000, 17:25:23.441
160, -5610.87, 13447.55, 187500.00, 187500.00, 187500.00, -187500.02, -187500.02, 187500.00, 0.000, 0.000, 0.000, 17:25:23.442
161, -4750.73, 14371.70, 187500.00, 187500.00, 187500.00, -187500.02, -187500.02, 187500.00, 0.000, 0.000, 0.000, 17:25:23.442
162, -4142.72, 14959.22, 187500.00, 187500.00, 187500.00, -187500.02, -187500.02, 187500.00, 0.006, -0.018, 1.024, 17:25:23.442
163, -4324.48, 14742.79, 187500.00, 187500.00, 187500.00, -187500.02, -187500.02, 187500.00, 0.000, 0.000, 0.000, 17:25:23.442
164, -5038.75, 13998.43, 187500.00, 187500.00, 187500.00, -187500.02, -187500.02, 187500.00, 0.000, 0.000, 0.000, 17:25:23.442
165, -5618.45, 13444.13, 187500.00, 187500.00, 187500.00, -187500.02, -187500.02, 187500.00, 0.000, 0.000, 0.000, 17:25:23.442
166, -4759.67, 14373.87, 187500.00, 187500.00, 187500.00, -187500.02, -187500.02, 187500.00, 0.000, 0.000, 0.000, 17:25:23.443
167, -4151.08, 14959.93, 187500.00, 187500.00, 187500.00, -187500.02, -187500.02, 187500.00, 0.000, 0.000, 0.000, 17:25:23.443
168, -4336.95, 14733.89, 187500.00, 187500.00, 187500.00, -187500.02, -187500.02, 187500.00, 0.000, 0.000, 0.000, 17:25:23.443
169, -5064.21, 13970.96, 187500.00, 187500.00, 187500.00, -187500.02, -187500.02, 187500.00, 0.000, 0.000, 0.000, 17:25:23.443
170, -5652.55, 13405.68, 187500.00, 187500.00, 187500.00, -187500.02, -187500.02, 187500.00, 0.000, 0.000, 0.000, 17:25:23.443
171, -4786.74, 14341.13, 187500.00, 187500.00, 187500.00, -187500.02, -187500.02, 187500.00, 0.000, 0.000, 0.000, 17:25:23.443
172, -4179.17, 14929.65, 187500.00, 187500.00, 187500.00, -187500.02, -187500.02, 187500.00, 0.008, -0.018, 1.028, 17:25:23.444
173, -4357.72, 14721.82, 187500.00, 187500.00, 187500.00, -187500.02, -187500.02, 187500.00, 0.000, 0.000, 0.000, 17:25:23.444
174, -5077.69, 13969.84, 187500.00, 187500.00, 187500.00, -187500.02, -187500.02, 187500.00, 0.000, 0.000, 0.000, 17:25:23.444
175, -5670.17, 13403.27, 187500.00, 187500.00, 187500.00, -187500.02, -187500.02, 187500.00, 0.000, 0.000, 0.000, 17:25:23.444
176, -4810.99, 14330.17, 187500.00, 187500.00, 187500.00, -187500.02, -187500.02, 187500.00, 0.000, 0.000, 0.000, 17:25:23.444
