%OpenBCI Raw EEG Data
%
%Sample Rate = 250.0 Hz
%First Column = SampleIndex
%Last Column = Timestamp 
%Other Columns = EEG data in microvolts followed by Accel Data (in G) interleaved with Aux Data
0, -9261.47, 37457.95, 187500.00, 187500.00, 187500.00, -187500.02, -187500.02, 187500.00, -0.008, -0.142, 1.012, 15:29:53.103
1, -9244.10, 37446.61, 187500.00, 187500.00, 187500.00, -187500.02, -187500.02, 187500.00, 0.000, 0.000, 0.000, 15:29:53.103
2, -9267.39, 37368.94, 187500.00, 187500.00, 187500.00, -187500.02, -187500.02, 187500.00, 0.000, 0.000, 0.000, 15:29:53.103
3, -9300.69, 37238.41, 187500.00, 187500.00, 187500.00, -187500.02, -187500.02, 187500.00, 0.000, 0.000, 0.000, 15:29:53.103
4, -9295.22, 37304.97, 187500.00, 187500.00, 187500.00, -187500.02, -187500.02, 187500.00, 0.000, 0.000, 0.000, 15:29:53.103
5, -9251.50, 37453.14, 187500.00, 187500.00, 187500.00, -187500.02, -187500.02, 187500.00, 0.000, 0.000, 0.000, 15:29:53.103
6, -9232.30, 37440.80, 187500.00, 187500.00, 187500.00, -187500.02, -187500.02, 187500.00, 0.000, 0.000, 0.000, 15:29:53.104
7, -9257.73, 37363.53, 187500.00, 187500.00, 187500.00, -187500.02, -187500.02, 187500.00, -0.012, -0.172, 0.980, 15:29:53.104
8, -9294.62, 37230.61, 187500.00, 187500.00, 187500.00, -187500.02, -187500.02, 187500.00, 0.000, 0.000, 0.000, 15:29:53.104
9, -9278.46, 37309.33, 187500.00, 187500.00, 187500.00, -187500.02, -187500.02, 187500.00, 0.000, 0.000, 0.000, 15:29:53.104
10, -9239.76, 37448.91, 187500.00, 187500.00, 187500.00, -187500.02, -187500.02, 187500.00, 0.000, 0.000, 0.000, 15:29:53.104
11, -9227.38, 37429.54, 187500.00, 187500.00, 187500.00, -187500.02, -187500.02, 187500.00, 0.000, 0.000, 0.000, 15:29:53.104
12, -9254.56, 37353.59, 187500.00, 187500.00, 187500.00, -187500.02, -187500.02, 187500.00, 0.000, 0.000, 0.000, 15:29:53.104
13, -9285.65, 37229.76, 187500.00, 187500.00, 187500.00, -187500.02, -187500.02, 187500.00, 0.000, 0.000, 0.000, 15:29:53.104
14, -9291.60, 37290.33, 187500.00, 187500.00, 187500.00, -187500.02, -187500.02, 187500.00, 0.000, 0.000, 0.000, 15:29:53.105
15, -9259.72, 37428.87, 187500.00, 187500.00, 187500.00, -187500.02, -187500.02, 187500.00, 0.000, 0.000, 0.000, 15:29:53.105
16, -9238.20, 37422.16, 187500.00, 187500.00, 187500.00, -187500.02, -187500.02, 187500.00, 0.000, 0.000, 0.000, 15:29:53.105
17, -9263.12, 37349.43, 187500.00, 187500.00, 187500.00, -187500.02, -187500.02, 187500.00, -0.006, -0.174, 1.010, 15:29:53.105
18, -9306.89, 37209.53, 187500.00, 187500.00, 187500.00, -187500.02, -187500.02, 187500.00, 0.000, 0.000, 0.000, 15:29:53.105
19, -9296.83, 37281.08, 187500.00, 187500.00, 187500.00, -187500.02, -187500.02, 187500.00, 0.000, 0.000, 0.000, 15:29:53.105
20, -9255.61, 37430.30, 187500.00, 187500.00, 187500.00, -187500.02, -187500.02, 187500.00, 0.000, 0.000, 0.000, 15:29:53.105
21, -9241.51, 37417.91, 187500.00, 187500.00, 187500.00, -187500.02, -187500.02, 187500.00, 0.000, 0.000, 0.000, 15:29:53.105
22, -9270.25, 37338.52, 187500.00, 187500.00, 187500.00, -187500.02, -187500.02, 187500.00, 0.000, 0.000, 0.000, 15:29:53.106
23, -9306.48, 37201.82, 187500.00, 187500.00, 187500.00, -187500.02, -187500.02, 187500.00, 0.000, 0.000, 0.000, 15:29:53.106
24, -9292.54, 37277.93, 187500.00, 187500.00, 187500.00, -187500.02, -187500.02, 187500.00, 0.000, 0.000, 0.000, 15:29:53.106
25, -9263.97, 37415.81, 187500.00, 187500.00, 187500.00, -187500.02, -187500.02, 187500.00, 0.000, 0.000, 0.000, 15:29:53.106
26, -9245.15, 37399.23, 187500.00, 187500.00, 187500.00, -187500.02, -187500.02, 187500.00, 0.000, 0.000, 0.000, 15:29:53.106
27, -9262.52, 37326.77, 187500.00, 187500.00, 187500.00, -187500.02, -187500.02, 187500.00, -0.004, -0.182, 1.004, 15:29:53.106
28, -9302.64, 37196.34, 187500.00, 187500.00, 187500.00, -187500.02, -187500.02, 187500.00, 0.000, 0.000, 0.000, 15:29:53.106
29, -9322.38, 37236.29, 187500.00, 187500.00, 187500.00, -187500.02, -187500.02, 187500.00, 0.000, 0.000, 0.000, 15:29:53.106
30, -9286.21, 37395.07, 187500.00, 187500.00, 187500.00, -187500.02, -187500.02, 187500.00, 0.000, 0.000, 0.000, 15:29:53.107
31, -9268.35, 37390.67, 187500.00, 187500.00, 187500.00, -187500.02, -187500.02, 187500.00, 0.000, 0.000, 0.000, 15:29:53.107
32, -9292.47, 37315.83, 187500.00, 187500.00, 187500.00, -187500.02, -187500.02, 187500.00, 0.000, 0.000, 0.000, 15:29:53.107
33, -9328.52, 37180.70, 187500.00, 187500.00, 187500.00, -187500.02, -187500.02, 187500.00, 0.000, 0.000, 0.000, 15:29:53.107
34, -9318.64, 37241.00, 187500.00, 187500.00, 187500.00, -187500.02, -187500.02, 187500.00, 0.000, 0.000, 0.000, 15:29:53.107
35, -9290.64, 37376.88, 187500.00, 187500.00, 187500.00, -187500.02, -187500.02, 187500.00, 0.000, 0.000, 0.000, 15:29:53.107
36, -9262.21, 37377.79, 187500.00, 187500.00, 187500.00, -187500.02, -187500.02, 187500.00, -0.004, -0.178, 1.020, 15:29:53.107
37, -9278.32, 37312.55, 187500.00, 187500.00, 187500.00, -187500.02, -187500.02, 187500.00, 0.000, 0.000, 0.000, 15:29:53.107
38, -9306.51, 37185.90, 187500.00, 187500.00, 187500.00, -187500.02, -187500.02, 187500.00, 0.000, 0.000, 0.000, 15:29:53.107
39, -9302.84, 37247.55, 187500.00, 187500.00, 187500.00, -187500.02, -187500.02, 187500.00, 0.000, 0.000, 0.000, 15:29:53.108
40, -9276.17, 37388.93, 187500.00, 187500.00, 187500.00, -187500.02, -187500.02, 187500.00, 0.000, 0.000, 0.000, 15:29:53.108
41, -9257.47, 37386.89, 187500.00, 187500.00, 187500.00, -187500.02, -187500.02, 187500.00, 0.000, 0.000, 0.000, 15:29:53.108
42, -9281.27, 37310.78, 187500.00, 187500.00, 187500.00, -187500.02, -187500.02, 187500.00, 0.000, 0.000, 0.000, 15:29:53.108
43, -9312.21, 37182.75, 187500.00, 187500.00, 187500.00, -187500.02, -187500.02, 187500.00, 0.000, 0.000, 0.000, 15:29:53.108
44, -9312.43, 37235.57, 187500.00, 187500.00, 187500.00, -187500.02, -187500.02, 187500.00, 0.000, 0.000, 0.000, 15:29:53.108
45, -9282.66, 37373.43, 187500.00, 187500.00, 187500.00, -187500.02, -187500.02, 187500.00, 0.000, 0.000, 0.000, 15:29:53.108
46, -9255.39, 37378.13, 187500.00, 187500.00, 187500.00, -187500.02, -187500.02, 187500.00, -0.006, -0.184, 1.008, 15:29:53.108
47, -9271.97, 37315.66, 187500.00, 187500.00, 187500.00, -187500.02, -187500.02, 187500.00, 0.000, 0.000, 0.000, 15:29:53.109
48, -9305.79, 37183.11, 187500.00, 187500.00, 187500.00, -187500.02, -187500.02, 187500.00, 0.000, 0.000, 0.000, 15:29:53.109
49, -9314.96, 37217.91, 187500.00, 187500.00, 187500.00, -187500.02, -187500.02, 187500.00, 0.000, 0.000, 0.000, 15:29:53.109
50, -9284.62, 37358.39, 187500.00, 187500.00, 187500.00, -187500.02, -187500.02, 187500.00, 0.000, 0.000, 0.000, 15:29:53.109
51, -9257.56, 37359.55, 187500.00, 187500.00, 187500.00, -187500.02, -187500.02, 187500.00, 0.000, 0.000, 0.000, 15:29:53.109
52, -9280.49, 37291.27, 187500.00, 187500.00, 187500.00, -187500.02, -187500.02, 187500.00, 0.000, 0.000, 0.000, 15:29:53.109
53, -9317.62, 37164.63, 187500.00, 187500.00, 187500.00, -187500.02, -187500.02, 187500.00, 0.000, 0.000, 0.000, 15:29:53.109
54, -9316.63, 37214.29, 187500.00, 187500.00, 187500.00, -187500.02, -187500.02, 187500.00, 0.000, 0.000, 0.000, 15:29:53.109
55, -9285.32, 37361.75, 187500.00, 187500.00, 187500.00, -187500.02, -187500.02, 187500.00, 0.000, 0.000, 0.000, 15:29:53.110
56, -9265.18, 37353.25, 187500.00, 187500.00, 187500.00, -187500.02, -187500.02, 187500.00, -0.006, -0.178, 1.010, 15:29:53.110
57, -9296.63, 37266.14, 187500.00, 187500.00, 187500.00, -187500.02, -187500.02, 187500.00, 0.000, 0.000, 0.000, 15:29:53.110
58, -9325.73, 37137.33, 187500.00, 187500.00, 187500.00, -187500.02, -187500.02, 187500.00, 0.000, 0.000, 0.000, 15:29:53.110
59, -9321.24, 37188.18, 187500.00, 187500.00, 187500.00, -187500.02, -187500.02, 187500.00, 0.000, 0.000, 0.000, 15:29:53.110
60, -9287.46, 37337.34, 187500.00, 187500.00, 187500.00, -187500.02, -187500.02, 187500.00, 0.000, 0.000, 0.000, 15:29:53.110
61, -9271.06, 37331.35, 187500.00, 187500.00, 187500.00, -187500.02, -187500.02, 187500.00, 0.000, 0.000, 0.000, 15:29:53.110
62, -9296.94, 37261.43, 187500.00, 187500.00, 187500.00, -187500.02, -187500.02, 187500.00, 0.000, 0.000, 0.000, 15:29:53.110
63, -9325.19, 37137.36, 187500.00, 187500.00, 187500.00, -187500.02, -187500.02, 187500.00, 0.000, 0.000, 0.000, 15:29:53.110
64, -9318.96, 37187.51, 187500.00, 187500.00, 187500.00, -187500.02, -187500.02, 187500.00, 0.000, 0.000, 0.000, 15:29:53.111
65, -9292.94, 37328.98, 187500.00, 187500.00, 187500.00, -187500.02, -187500.02, 187500.00, 0.000, 0.000, 0.000, 15:29:53.111
66, -9267.93, 37333.13, 187500.00, 187500.00, 187500.00, -187500.02, -187500.02, 187500.00, -0.008, -0.174, 1.010, 15:29:53.111
67, -9279.19, 37273.23, 187500.00, 187500.00, 187500.00, -187500.02, -187500.02, 187500.00, 0.000, 0.000, 0.000, 15:29:53.112
68, -9303.85, 37145.49, 187500.00, 187500.00, 187500.00, -187500.02, -187500.02, 187500.00, 0.000, 0.000, 0.000, 15:29:53.112
69, -9307.40, 37182.53, 187500.00, 187500.00, 187500.00, -187500.02, -187500.02, 187500.00, 0.000, 0.000, 0.000, 15:29:53.112
70, -9285.52, 37324.06, 187500.00, 187500.00, 187500.00, -187500.02, -187500.02, 187500.00, 0.000, 0.000, 0.000, 15:29:53.112
71, -9260.33, 37334.32, 187500.00, 187500.00, 187500.00, -187500.02, -187500.02, 187500.00, 0.000, 0.000, 0.000, 15:29:53.112
72, -9269.60, 37282.48, 187500.00, 187500.00, 187500.00, -187500.02, -187500.02, 187500.00, 0.000, 0.000, 0.000, 15:29:53.112
73, -9296.92, 37154.70, 187500.00, 187500.00, 187500.00, -187500.02, -187500.02, 187500.00, 0.000, 0.000, 0.000, 15:29:53.112
74, -9306.48, 37186.46, 187500.00, 187500.00, 187500.00, -187500.02, -187500.02, 187500.00, 0.000, 0.000, 0.000, 15:29:53.112
75, -9284.51, 37329.51, 187500.00, 187500.00, 187500.00, -187500.02, -187500.02, 187500.00, 0.000, 0.000, 0.000, 15:29:53.113
76, -9257.40, 37338.27, 187500.00, 187500.00, 187500.00, -187500.02, -187500.02, 187500.00, -0.002, -0.168, 1.012, 15:29:53.113
77, -9271.97, 37280.12, 187500.00, 187500.00, 187500.00, -187500.02, -187500.02, 187500.00, 0.000, 0.000, 0.000, 15:29:53.113
78, -9305.08, 37144.15, 187500.00, 187500.00, 187500.00, -187500.02, -187500.02, 187500.00, 0.000, 0.000, 0.000, 15:29:53.113
79, -9301.41, 37183.73, 187500.00, 187500.00, 187500.00, -187500.02, -187500.02, 187500.00, 0.000, 0.000, 0.000, 15:29:53.113
80, -9261.76, 37347.17, 187500.00, 187500.00, 187500.00, -187500.02, -187500.02, 187500.00, 0.000, 0.000, 0.000, 15:29:53.113
81, -9238.58, 37355.04, 187500.00, 187500.00, 187500.00, -187500.02, -187500.02, 187500.00, 0.000, 0.000, 0.000, 15:29:53.113
82, -9266.29, 37284.63, 187500.00, 187500.00, 187500.00, -187500.02, -187500.02, 187500.00, 0.000, 0.000, 0.000, 15:29:53.113
83, -9291.69, 37160.58, 187500.00, 187500.00, 187500.00, -187500.02, -187500.02, 187500.00, 0.000, 0.000, 0.000, 15:29:53.113
84, -9301.03, 37186.02, 187500.00, 187500.00, 187500.00, -187500.02, -187500.02, 187500.00, 0.000, 0.000, 0.000, 15:29:53.114
85, -9272.06, 37335.57, 187500.00, 187500.00, 187500.00, -187500.02, -187500.02, 187500.00, 0.000, 0.000, 0.000, 15:29:53.114
86, -9240.68, 37351.02, 187500.00, 187500.00, 187500.00, -187500.02, -187500.02, 187500.00, 0.002, -0.164, 1.010, 15:29:53.114
87, -9273.67, 37277.66, 187500.00, 187500.00, 187500.00, -187500.02, -187500.02, 187500.00, 0.000, 0.000, 0.000, 15:29:53.114
88, -9308.21, 37141.13, 187500.00, 187500.00, 187500.00, -187500.02, -187500.02, 187500.00, 0.000, 0.000, 0.000, 15:29:53.114
89, -9317.59, 37171.15, 187500.00, 187500.00, 187500.00, -187500.02, -187500.02, 187500.00, 0.000, 0.000, 0.000, 15:29:53.114
90, -9283.37, 37332.84, 187500.00, 187500.00, 187500.00, -187500.02, -187500.02, 187500.00, 0.000, 0.000, 0.000, 15:29:53.114
91, -9274.66, 37325.38, 187500.00, 187500.00, 187500.00, -187500.02, -187500.02, 187500.00, 0.000, 0.000, 0.000, 15:29:53.114
92, -9303.56, 37256.87, 187500.00, 187500.00, 187500.00, -187500.02, -187500.02, 187500.00, 0.000, 0.000, 0.000, 15:29:53.115
93, -9334.58, 37132.15, 187500.00, 187500.00, 187500.00, -187500.02, -187500.02, 187500.00, 0.000, 0.000, 0.000, 15:29:53.115
94, -9321.68, 37173.70, 187500.00, 187500.00, 187500.00, -187500.02, -187500.02, 187500.00, 0.000, 0.000, 0.000, 15:29:53.115
95, -9300.65, 37319.12, 187500.00, 187500.00, 187500.00, -187500.02, -187500.02, 187500.00, 0.000, 0.000, 0.000, 15:29:53.115
96, -9295.04, 37310.94, 187500.00, 187500.00, 187500.00, -187500.02, -187500.02, 187500.00, 0.002, -0.170, 1.006, 15:29:53.115
97, -9317.48, 37249.52, 187500.00, 187500.00, 187500.00, -187500.02, -187500.02, 187500.00, 0.000, 0.000, 0.000, 15:29:53.115
98, -9343.27, 37123.47, 187500.00, 187500.00, 187500.00, -187500.02, -187500.02, 187500.00, 0.000, 0.000, 0.000, 15:29:53.115
99, -9346.52, 37154.92, 187500.00, 187500.00, 187500.00, -187500.02, -187500.02, 187500.00, 0.000, 0.000, 0.000, 15:29:53.115
100, -9327.92, 37312.41, 187500.00, 187500.00, 187500.00, -187500.02, -187500.02, 187500.00, 0.000, 0.000, 0.000, 15:29:53.115
101, -9303.29, 37325.47, 187500.00, 187500.00, 187500.00, -187500.02, -187500.02, 187500.00, 0.000, 0.000, 0.000, 15:29:53.116
102, -9321.55, 37258.75, 187500.00, 187500.00, 187500.00, -187500.02, -187500.02, 187500.00, 0.000, 0.000, 0.000, 15:29:53.116
103, -9356.95, 37110.73, 187500.00, 187500.00, 187500.00, -187500.02, -187500.02, 187500.00, 0.000, 0.000, 0.000, 15:29:53.116
104, -9367.75, 37143.32, 187500.00, 187500.00, 187500.00, -187500.02, -187500.02, 187500.00, 0.000, 0.000, 0.000, 15:29:53.116
105, -9342.83, 37313.09, 187500.00, 187500.00, 187500.00, -187500.02, -187500.02, 187500.00, 0.000, 0.000, 0.000, 15:29:53.116
106, -9310.66, 37327.84, 187500.00, 187500.00, 187500.00, -187500.02, -187500.02, 187500.00, 0.000, -0.166, 1.014, 15:29:53.116
107, -9327.52, 37262.39, 187500.00, 187500.00, 187500.00, -187500.02, -187500.02, 187500.00, 0.000, 0.000, 0.000, 15:29:53.116
108, -9357.71, 37125.38, 187500.00, 187500.00, 187500.00, -187500.02, -187500.02, 187500.00, 0.000, 0.000, 0.000, 15:29:53.116
109, -9381.45, 37140.86, 187500.00, 187500.00, 187500.00, -187500.02, -187500.02, 187500.00, 0.000, 0.000, 0.000, 15:29:53.116
110, -9367.10, 37303.59, 187500.00, 187500.00, 187500.00, -187500.02, -187500.02, 187500.00, 0.000, 0.000, 0.000, 15:29:53.117
111, -9336.50, 37323.88, 187500.00, 187500.00, 187500.00, -187500.02, -187500.02, 187500.00, 0.000, 0.000, 0.000, 15:29:53.117
112, -9357.38, 37253.41, 187500.00, 187500.00, 187500.00, -187500.02, -187500.02, 187500.00, 0.000, 0.000, 0.000, 15:29:53.117
113, -9375.75, 37126.16, 187500.00, 187500.00, 187500.00, -187500.02, -187500.02, 187500.00, 0.000, 0.000, 0.000, 15:29:53.117
114, -9398.86, 37140.86, 187500.00, 187500.00, 187500.00, -187500.02, -187500.02, 187500.00, 0.000, 0.000, 0.000, 15:29:53.117
115, -9386.35, 37304.79, 187500.00, 187500.00, 187500.00, -187500.02, -187500.02, 187500.00, 0.000, 0.000, 0.000, 15:29:53.117
116, -9345.20, 37336.11, 187500.00, 187500.00, 187500.00, -187500.02, -187500.02, 187500.00, 0.002, -0.168, 1.004, 15:29:53.117
117, -9361.11, 37270.73, 187500.00, 187500.00, 187500.00, -187500.02, -187500.02, 187500.00, 0.000, 0.000, 0.000, 15:29:53.118
118, -9379.71, 37129.91, 187500.00, 187500.00, 187500.00, -187500.02, -187500.02, 187500.00, 0.000, 0.000, 0.000, 15:29:53.118
119, -9399.15, 37145.27, 187500.00, 187500.00, 187500.00, -187500.02, -187500.02, 187500.00, 0.000, 0.000, 0.000, 15:29:53.118
120, -9392.76, 37310.40, 187500.00, 187500.00, 187500.00, -187500.02, -187500.02, 187500.00, 0.000, 0.000, 0.000, 15:29:53.118
121, -9350.47, 37340.73, 187500.00, 187500.00, 187500.00, -187500.02, -187500.02, 187500.00, 0.000, 0.000, 0.000, 15:29:53.582
122, -9360.22, 37279.07, 187500.00, 187500.00, 187500.00, -187500.02, -187500.02, 187500.00, 0.000, 0.000, 0.000, 15:29:53.583
123, -9382.41, 37135.97, 187500.00, 187500.00, 187500.00, -187500.02, -187500.02, 187500.00, 0.000, 0.000, 0.000, 15:29:53.583
124, -9397.39, 37154.01, 187500.00, 187500.00, 187500.00, -187500.02, -187500.02, 187500.00, 0.000, 0.000, 0.000, 15:29:53.583
125, -9399.49, 37316.41, 187500.00, 187500.00, 187500.00, -187500.02, -187500.02, 187500.00, 0.000, 0.000, 0.000, 15:29:53.583
126, -9361.31, 37344.54, 187500.00, 187500.00, 187500.00, -187500.02, -187500.02, 187500.00, 0.002, -0.170, 1.010, 15:29:53.583
127, -9361.54, 37291.05, 187500.00, 187500.00, 187500.00, -187500.02, -187500.02, 187500.00, 0.000, 0.000, 0.000, 15:29:53.584
128, -9374.81, 37157.23, 187500.00, 187500.00, 187500.00, -187500.02, -187500.02, 187500.00, 0.000, 0.000, 0.000, 15:29:53.584
129, -9391.62, 37168.51, 187500.00, 187500.00, 187500.00, -187500.02, -187500.02, 187500.00, 0.000, 0.000, 0.000, 15:29:53.584
130, -9389.41, 37338.68, 187500.00, 187500.00, 187500.00, -187500.02, -187500.02, 187500.00, 0.000, 0.000, 0.000, 15:29:53.584
131, -9366.77, 37346.43, 187500.00, 187500.00, 187500.00, -187500.02, -187500.02, 187500.00, 0.000, 0.000, 0.000, 15:29:53.584
132, -9363.68, 37292.83, 187500.00, 187500.00, 187500.00, -187500.02, -187500.02, 187500.00, 0.000, 0.000, 0.000, 15:29:53.584
133, -9382.66, 37153.43, 187500.00, 187500.00, 187500.00, -187500.02, -187500.02, 187500.00, 0.000, 0.000, 0.000, 15:29:53.585
134, -9395.24, 37165.12, 187500.00, 187500.00, 187500.00, -187500.02, -187500.02, 187500.00, 0.000, 0.000, 0.000, 15:29:53.585
135, -9381.38, 37346.32, 187500.00, 187500.00, 187500.00, -187500.02, -187500.02, 187500.00, 0.000, 0.000, 0.000, 15:29:53.585
136, -9351.28, 37367.22, 187500.00, 187500.00, 187500.00, -187500.02, -187500.02, 187500.00, 0.002, -0.172, 1.006, 15:29:53.585
137, -9360.46, 37304.19, 187500.00, 187500.00, 187500.00, -187500.02, -187500.02, 187500.00, 0.000, 0.000, 0.000, 15:29:53.585
138, -9368.55, 37168.78, 187500.00, 187500.00, 187500.00, -187500.02, -187500.02, 187500.00, 0.000, 0.000, 0.000, 15:29:53.586
139, -9390.77, 37178.59, 187500.00, 187500.00, 187500.00, -187500.02, -187500.02, 187500.00, 0.000, 0.000, 0.000, 15:29:53.586
140, -9385.43, 37353.14, 187500.00, 187500.00, 187500.00, -187500.02, -187500.02, 187500.00, 0.000, 0.000, 0.000, 15:29:53.586
141, -9359.77, 37364.16, 187500.00, 187500.00, 187500.00, -187500.02, -187500.02, 187500.00, 0.000, 0.000, 0.000, 15:29:53.586
142, -9355.50, 37313.73, 187500.00, 187500.00, 187500.00, -187500.02, -187500.02, 187500.00, 0.000, 0.000, 0.000, 15:29:53.586
143, -9369.25, 37175.33, 187500.00, 187500.00, 187500.00, -187500.02, -187500.02, 187500.00, 0.000, 0.000, 0.000, 15:29:53.586
144, -9379.69, 37189.82, 187500.00, 187500.00, 187500.00, -187500.02, -187500.02, 187500.00, 0.000, 0.000, 0.000, 15:29:53.586
145, -9371.39, 37367.49, 187500.00, 187500.00, 187500.00, -187500.02, -187500.02, 187500.00, 0.004, -0.170, 1.010, 15:29:53.587
146, -9340.21, 37385.23, 187500.00, 187500.00, 187500.00, -187500.02, -187500.02, 187500.00, 0.000, 0.000, 0.000, 15:29:53.587
147, -9342.69, 37325.09, 187500.00, 187500.00, 187500.00, -187500.02, -187500.02, 187500.00, 0.000, 0.000, 0.000, 15:29:53.587
148, -9362.94, 37179.29, 187500.00, 187500.00, 187500.00, -187500.02, -187500.02, 187500.00, 0.000, 0.000, 0.000, 15:29:53.587
149, -9378.14, 37186.44, 187500.00, 187500.00, 187500.00, -187500.02, -187500.02, 187500.00, 0.000, 0.000, 0.000, 15:29:53.587
150, -9377.85, 37353.81, 187500.00, 187500.00, 187500.00, -187500.02, -187500.02, 187500.00, 0.000, 0.000, 0.000, 15:29:53.587
151, -9343.92, 37374.66, 187500.00, 187500.00, 187500.00, -187500.02, -187500.02, 187500.00, 0.000, 0.000, 0.000, 15:29:53.587
152, -9327.92, 37330.86, 187500.00, 187500.00, 187500.00, -187500.02, -187500.02, 187500.00, 0.000, 0.000, 0.000, 15:29:53.587
153, -9334.22, 37194.80, 187500.00, 187500.00, 187500.00, -187500.02, -187500.02, 187500.00, 0.000, 0.000, 0.000, 15:29:53.588
154, -9344.64, 37201.66, 187500.00, 187500.00, 187500.00, -187500.02, -187500.02, 187500.00, 0.000, 0.000, 0.000, 15:29:53.588
155, -9349.44, 37362.64, 187500.00, 187500.00, 187500.00, -187500.02, -187500.02, 187500.00, -0.006, -0.170, 1.018, 15:29:53.588
156, -9320.99, 37387.85, 187500.00, 187500.00, 187500.00, -187500.02, -187500.02, 187500.00, 0.000, 0.000, 0.000, 15:29:53.588
157, -9324.01, 37332.73, 187500.00, 187500.00, 187500.00, -187500.02, -187500.02, 187500.00, 0.000, 0.000, 0.000, 15:29:53.588
158, -9334.13, 37192.36, 187500.00, 187500.00, 187500.00, -187500.02, -187500.02, 187500.00, 0.000, 0.000, 0.000, 15:29:53.588
159, -9347.28, 37194.82, 187500.00, 187500.00, 187500.00, -187500.02, -187500.02, 187500.00, 0.000, 0.000, 0.000, 15:29:53.588
160, -9336.70, 37373.23, 187500.00, 187500.00, 187500.00, -187500.02, -187500.02, 187500.00, 0.000, 0.000, 0.000, 15:29:53.588
161, -9307.36, 37398.11, 187500.00, 187500.00, 187500.00, -187500.02, -187500.02, 187500.00, 0.000, 0.000, 0.000, 15:29:53.589
162, -9309.19, 37348.87, 187500.00, 187500.00, 187500.00, -187500.02, -187500.02, 187500.00, 0.000, 0.000, 0.000, 15:29:53.589
163, -9314.13, 37217.13, 187500.00, 187500.00, 187500.00, -187500.02, -187500.02, 187500.00, 0.000, 0.000, 0.000, 15:29:53.589
164, -9328.63, 37207.03, 187500.00, 187500.00, 187500.00, -187500.02, -187500.02, 187500.00, 0.000, 0.000, 0.000, 15:29:53.589
165, -9330.33, 37375.80, 187500.00, 187500.00, 187500.00, -187500.02, -187500.02, 187500.00, -0.006, -0.168, 1.010, 15:29:53.589
166, -9292.16, 37406.98, 187500.00, 187500.00, 187500.00, -187500.02, -187500.02, 187500.00, 0.000, 0.000, 0.000, 15:29:53.589
167, -9298.37, 37346.95, 187500.00, 187500.00, 187500.00, -187500.02, -187500.02, 187500.00, 0.000, 0.000, 0.000, 15:29:53.589
168, -9304.81, 37218.80, 187500.00, 187500.00, 187500.00, -187500.02, -187500.02, 187500.00, 0.000, 0.000, 0.000, 15:29:53.589
169, -9316.14, 37216.79, 187500.00, 187500.00, 187500.00, -187500.02, -187500.02, 187500.00, 0.000, 0.000, 0.000, 15:29:53.589
170, -9311.54, 37394.13, 187500.00, 187500.00, 187500.00, -187500.02, -187500.02, 187500.00, 0.000, 0.000, 0.000, 15:29:53.590
171, -9279.48, 37420.64, 187500.00, 187500.00, 187500.00, -187500.02, -187500.02, 187500.00, 0.000, 0.000, 0.000, 15:29:53.590
172, -9284.76, 37360.92, 187500.00, 187500.00, 187500.00, -187500.02, -187500.02, 187500.00, 0.000, 0.000, 0.000, 15:29:53.590
173, -9292.54, 37232.15, 187500.00, 187500.00, 187500.00, -187500.02, -187500.02, 187500.00, 0.000, 0.000, 0.000, 15:29:53.590
174, -9312.21, 37224.71, 187500.00, 187500.00, 187500.00, -187500.02, -187500.02, 187500.00, 0.000, 0.000, 0.000, 15:29:53.590
175, -9311.04, 37394.49, 187500.00, 187500.00, 187500.00, -187500.02, -187500.02, 187500.00, -0.006, -0.170, 1.010, 15:29:53.590
176, -9278.92, 37425.29, 187500.00, 187500.00, 187500.00, -187500.02, -187500.02, 187500.00, 0.000, 0.000, 0.000, 15:29:53.590
177, -9286.30, 37363.93, 187500.00, 187500.00, 187500.00, -187500.02, -187500.02, 187500.00, 0.000, 0.000, 0.000, 15:29:53.590
178, -9304.94, 37222.45, 187500.00, 187500.00, 187500.00, -187500.02, -187500.02, 187500.00, 0.000, 0.000, 0.000, 15:29:53.591
179, -9324.16, 37218.85, 187500.00, 187500.00, 187500.00, -187500.02, -187500.02, 187500.00, 0.000, 0.000, 0.000, 15:29:53.591
180, -9327.32, 37390.46, 187500.00, 187500.00, 187500.00, -187500.02, -187500.02, 187500.00, 0.000, 0.000, 0.000, 15:29:53.591
181, -9288.47, 37428.64, 187500.00, 187500.00, 187500.00, -187500.02, -187500.02, 187500.00, 0.000, 0.000, 0.000, 15:29:53.591
182, -9291.78, 37368.85, 187500.00, 187500.00, 187500.00, -187500.02, -187500.02, 187500.00, 0.000, 0.000, 0.000, 15:29:53.591
183, -9311.54, 37224.30, 187500.00, 187500.00, 187500.00, -187500.02, -187500.02, 187500.00, 0.000, 0.000, 0.000, 15:29:53.591
184, -9318.08, 37217.06, 187500.00, 187500.00, 187500.00, -187500.02, -187500.02, 187500.00, 0.000, 0.000, 0.000, 15:29:53.591
185, -9311.45, 37402.65, 187500.00, 187500.00, 187500.00, -187500.02, -187500.02, 187500.00, 0.000, -0.174, 1.004, 15:29:53.591
186, -9278.25, 37435.32, 187500.00, 187500.00, 187500.00, -187500.02, -187500.02, 187500.00, 0.000, 0.000, 0.000, 15:29:53.592
187, -9276.33, 37375.42, 187500.00, 187500.00, 187500.00, -187500.02, -187500.02, 187500.00, 0.000, 0.000, 0.000, 15:29:53.592
188, -9288.69, 37232.39, 187500.00, 187500.00, 187500.00, -187500.02, -187500.02, 187500.00, 0.000, 0.000, 0.000, 15:29:53.592
189, -9291.11, 37241.80, 187500.00, 187500.00, 187500.00, -187500.02, -187500.02, 187500.00, 0.000, 0.000, 0.000, 15:29:53.592
190, -9306.42, 37403.96, 187500.00, 187500.00, 187500.00, -187500.02, -187500.02, 187500.00, 0.000, 0.000, 0.000, 15:29:53.592
191, -9277.05, 37439.28, 187500.00, 187500.00, 187500.00, -187500.02, -187500.02, 187500.00, 0.000, 0.000, 0.000, 15:29:53.592
192, -9272.89, 37386.93, 187500.00, 187500.00, 187500.00, -187500.02, -187500.02, 187500.00, 0.000, 0.000, 0.000, 15:29:53.592
193, -9281.14, 37248.49, 187500.00, 187500.00, 187500.00, -187500.02, -187500.02, 187500.00, 0.000, 0.000, 0.000, 15:29:53.592
194, -9287.95, 37245.58, 187500.00, 187500.00, 187500.00, -187500.02, -187500.02, 187500.00, 0.000, 0.000, 0.000, 15:29:53.593
195, -9288.29, 37434.23, 187500.00, 187500.00, 187500.00, -187500.02, -187500.02, 187500.00, 0.002, -0.174, 1.004, 15:29:53.593
196, -9254.69, 37465.99, 187500.00, 187500.00, 187500.00, -187500.02, -187500.02, 187500.00, 0.000, 0.000, 0.000, 15:29:53.593
197, -9259.03, 37399.45, 187500.00, 187500.00, 187500.00, -187500.02, -187500.02, 187500.00, 0.000, 0.000, 0.000, 15:29:53.593
198, -9259.46, 37272.54, 187500.00, 187500.00, 187500.00, -187500.02, -187500.02, 187500.00, 0.000, 0.000, 0.000, 15:29:53.593
199, -9277.20, 37252.06, 187500.00, 187500.00, 187500.00, -187500.02, -187500.02, 187500.00, 0.000, 0.000, 0.000, 15:29:53.593
200, -9273.89, 37447.24, 187500.00, 187500.00, 187500.00, -187500.02, -187500.02, 187500.00, 0.000, 0.000, 0.000, 15:29:53.593
201, -9232.25, 37487.61, 187500.00, 187500.00, 187500.00, -187500.02, -187500.02, 187500.00, 0.000, 0.000, 0.000, 15:29:53.593
202, -9226.15, 37424.33, 187500.00, 187500.00, 187500.00, -187500.02, -187500.02, 187500.00, 0.000, 0.000, 0.000, 15:29:53.594
203, -9246.96, 37273.21, 187500.00, 187500.00, 187500.00, -187500.02, -187500.02, 187500.00, 0.000, 0.000, 0.000, 15:29:53.594
204, -9263.77, 37266.17, 187500.00, 187500.00, 187500.00, -187500.02, -187500.02, 187500.00, 0.000, 0.000, 0.000, 15:29:53.594
205, -9275.48, 37448.71, 187500.00, 187500.00, 187500.00, -187500.02, -187500.02, 187500.00, 0.004, -0.176, 1.002, 15:29:53.594
206, -9253.62, 37469.79, 187500.00, 187500.00, 187500.00, -187500.02, -187500.02, 187500.00, 0.000, 0.000, 0.000, 15:29:53.594
207, -9233.08, 37436.71, 187500.00, 187500.00, 187500.00, -187500.02, -187500.02, 187500.00, 0.000, 0.000, 0.000, 15:29:53.594
208, -9236.66, 37304.37, 187500.00, 187500.00, 187500.00, -187500.02, -187500.02, 187500.00, 0.000, 0.000, 0.000, 15:29:53.594
209, -9254.65, 37276.96, 187500.00, 187500.00, 187500.00, -187500.02, -187500.02, 187500.00, 0.000, 0.000, 0.000, 15:29:53.594
210, -9270.65, 37450.37, 187500.00, 187500.00, 187500.00, -187500.02, -187500.02, 187500.00, 0.000, 0.000, 0.000, 15:29:53.594
211, -9236.39, 37494.67, 187500.00, 187500.00, 187500.00, -187500.02, -187500.02, 187500.00, 0.000, 0.000, 0.000, 15:29:53.595
212, -9250.25, 37425.40, 187500.00, 187500.00, 187500.00, -187500.02, -187500.02, 187500.00, 0.000, 0.000, 0.000, 15:29:53.595
213, -9254.99, 37290.55, 187500.00, 187500.00, 187500.00, -187500.02, -187500.02, 187500.00, 0.000, 0.000, 0.000, 15:29:53.595
214, -9262.03, 37277.99, 187500.00, 187500.00, 187500.00, -187500.02, -187500.02, 187500.00, 0.000, 0.000, 0.000, 15:29:53.595
215, -9279.19, 37450.82, 187500.00, 187500.00, 187500.00, -187500.02, -187500.02, 187500.00, 0.000, -0.174, 1.004, 15:29:53.595
216, -9238.07, 37504.57, 187500.00, 187500.00, 187500.00, -187500.02, -187500.02, 187500.00, 0.000, 0.000, 0.000, 15:29:53.595
217, -9241.75, 37437.43, 187500.00, 187500.00, 187500.00, -187500.02, -187500.02, 187500.00, 0.000, 0.000, 0.000, 15:29:53.595
218, -9260.60, 37282.84, 187500.00, 187500.00, 187500.00, -187500.02, -187500.02, 187500.00, 0.000, 0.000, 0.000, 15:29:53.595
219, -9261.85, 37278.66, 187500.00, 187500.00, 187500.00, -187500.02, -187500.02, 187500.00, 0.000, 0.000, 0.000, 15:29:53.596
220, -9284.74, 37455.89, 187500.00, 187500.00, 187500.00, -187500.02, -187500.02, 187500.00, 0.000, 0.000, 0.000, 15:29:53.596
221, -9241.35, 37497.35, 187500.00, 187500.00, 187500.00, -187500.02, -187500.02, 187500.00, 0.000, 0.000, 0.000, 15:29:53.596
222, -9237.46, 37438.39, 187500.00, 187500.00, 187500.00, -187500.02, -187500.02, 187500.00, 0.000, 0.000, 0.000, 15:29:53.596
223, -9262.14, 37284.86, 187500.00, 187500.00, 187500.00, -187500.02, -187500.02, 187500.00, 0.000, 0.000, 0.000, 15:29:53.596
224, -9276.26, 37261.70, 187500.00, 187500.00, 187500.00, -187500.02, -187500.02, 187500.00, 0.000, 0.000, 0.000, 15:29:53.596
225, -9294.53, 37440.73, 187500.00, 187500.00, 187500.00, -187500.02, -187500.02, 187500.00, 0.002, -0.176, 1.000, 15:29:53.596
226, -9267.08, 37471.83, 187500.00, 187500.00, 187500.00, -187500.02, -187500.02, 187500.00, 0.000, 0.000, 0.000, 15:29:53.596
227, -9258.63, 37422.32, 187500.00, 187500.00, 187500.00, -187500.02, -187500.02, 187500.00, 0.000, 0.000, 0.000, 15:29:53.597
228, -9259.79, 37285.41, 187500.00, 187500.00, 187500.00, -187500.02, -187500.02, 187500.00, 0.000, 0.000, 0.000, 15:29:53.597
229, -9277.52, 37247.48, 187500.00, 187500.00, 187500.00, -187500.02, -187500.02, 187500.00, 0.000, 0.000, 0.000, 15:29:53.597
230, -9306.64, 37424.44, 187500.00, 187500.00, 187500.00, -187500.02, -187500.02, 187500.00, 0.000, 0.000, 0.000, 15:29:53.597
231, -9268.71, 37472.56, 187500.00, 187500.00, 187500.00, -187500.02, -187500.02, 187500.00, 0.000, 0.000, 0.000, 15:29:53.597
232, -9253.87, 37425.96, 187500.00, 187500.00, 187500.00, -187500.02, -187500.02, 187500.00, 0.000, 0.000, 0.000, 15:29:53.597
233, -9263.32, 37273.59, 187500.00, 187500.00, 187500.00, -187500.02, -187500.02, 187500.00, 0.000, 0.000, 0.000, 15:29:53.597
234, -9287.19, 37235.28, 187500.00, 187500.00, 187500.00, -187500.02, -187500.02, 187500.00, 0.000, 0.000, 0.000, 15:29:53.597
235, -9305.25, 37420.02, 187500.00, 187500.00, 187500.00, -187500.02, -187500.02, 187500.00, 0.006, -0.174, 1.008, 15:29:53.597
236, -9267.84, 37458.86, 187500.00, 187500.00, 187500.00, -187500.02, -187500.02, 187500.00, 0.000, 0.000, 0.000, 15:29:53.598
237, -9267.46, 37391.09, 187500.00, 187500.00, 187500.00, -187500.02, -187500.02, 187500.00, 0.000, 0.000, 0.000, 15:29:53.598
238, -9272.53, 37254.01, 187500.00, 187500.00, 187500.00, -187500.02, -187500.02, 187500.00, 0.000, 0.000, 0.000, 15:29:53.598
239, -9284.29, 37217.93, 187500.00, 187500.00, 187500.00, -187500.02, -187500.02, 187500.00, 0.000, 0.000, 0.000, 15:29:53.598
240, -9320.54, 37386.80, 187500.00, 187500.00, 187500.00, -187500.02, -187500.02, 187500.00, 0.000, 0.000, 0.000, 15:29:53.598
241, -9281.09, 37429.05, 187500.00, 187500.00, 187500.00, -187500.02, -187500.02, 187500.00, 0.000, 0.000, 0.000, 15:29:54.063
242, -9270.14, 37371.76, 187500.00, 187500.00, 187500.00, -187500.02, -187500.02, 187500.00, 0.000, 0.000, 0.000, 15:29:54.063
243, -9270.12, 37233.96, 187500.00, 187500.00, 187500.00, -187500.02, -187500.02, 187500.00, 0.000, 0.000, 0.000, 15:29:54.063
244, -9292.89, 37188.23, 187500.00, 187500.00, 187500.00, -187500.02, -187500.02, 187500.00, 0.000, 0.000, 0.000, 15:29:54.063
245, -9321.77, 37365.41, 187500.00, 187500.00, 187500.00, -187500.02, -187500.02, 187500.00, 0.008, -0.176, 1.010, 15:29:54.064
246, -9298.24, 37401.91, 187500.00, 187500.00, 187500.00, -187500.02, -187500.02, 187500.00, 0.000, 0.000, 0.000, 15:29:54.064
247, -9283.30, 37361.79, 187500.00, 187500.00, 187500.00, -187500.02, -187500.02, 187500.00, 0.000, 0.000, 0.000, 15:29:54.064
248, -9280.73, 37224.15, 187500.00, 187500.00, 187500.00, -187500.02, -187500.02, 187500.00, 0.000, 0.000, 0.000, 15:29:54.064
249, -9290.01, 37185.61, 187500.00, 187500.00, 187500.00, -187500.02, -187500.02, 187500.00, 0.000, 0.000, 0.000, 15:29:54.064
250, -9313.93, 37375.78, 187500.00, 187500.00, 187500.00, -187500.02, -187500.02, 187500.00, 0.000, 0.000, 0.000, 15:29:54.064
251, -9278.41, 37417.78, 187500.00, 187500.00, 187500.00, -187500.02, -187500.02, 187500.00, 0.000, 0.000, 0.000, 15:29:54.064
252, -9264.57, 37361.01, 187500.00, 187500.00, 187500.00, -187500.02, -187500.02, 187500.00, 0.000, 0.000, 0.000, 15:29:54.065
253, -9254.90, 37231.43, 187500.00, 187500.00, 187500.00, -187500.02, -187500.02, 187500.00, 0.000, 0.000, 0.000, 15:29:54.065
254, -9263.46, 37194.51, 187500.00, 187500.00, 187500.00, -187500.02, -187500.02, 187500.00, 0.006, -0.176, 1.008, 15:29:54.065
255, -9284.65, 37378.64, 187500.00, 187500.00, 187500.00, -187500.02, -187500.02, 187500.00, 0.000, 0.000, 0.000, 15:29:54.065
0, -9243.83, 37431.19, 187500.00, 187500.00, 187500.00, -187500.02, -187500.02, 187500.00, 0.000, 0.000, 0.000, 15:29:54.066
1, -9229.97, 37373.41, 187500.00, 187500.00, 187500.00, -187500.02, -187500.02, 187500.00, 0.000, 0.000, 0.000, 15:29:54.066
2, -9221.03, 37254.93, 187500.00, 187500.00, 187500.00, -187500.02, -187500.02, 187500.00, 0.000, 0.000, 0.000, 15:29:54.066
3, -9230.71, 37225.98, 187500.00, 187500.00, 187500.00, -187500.02, -187500.02, 187500.00, 0.000, 0.000, 0.000, 15:29:54.066
4, -9259.57, 37392.88, 187500.00, 187500.00, 187500.00, -187500.02, -187500.02, 187500.00, 0.000, 0.000, 0.000, 15:29:54.066
5, -9209.86, 37438.70, 187500.00, 187500.00, 187500.00, -187500.02, -187500.02, 187500.00, 0.000, 0.000, 0.000, 15:29:54.066
6, -9194.14, 37386.62, 187500.00, 187500.00, 187500.00, -187500.02, -187500.02, 187500.00, 0.000, 0.000, 0.000, 15:29:54.066
7, -9188.06, 37277.77, 187500.00, 187500.00, 187500.00, -187500.02, -187500.02, 187500.00, 0.000, 0.000, 0.000, 15:29:54.066
8, -9204.20, 37247.66, 187500.00, 187500.00, 187500.00, -187500.02, -187500.02, 187500.00, 0.000, -0.176, 1.010, 15:29:54.067
9, -9220.41, 37422.09, 187500.00, 187500.00, 187500.00, -187500.02, -187500.02, 187500.00, 0.000, 0.000, 0.000, 15:29:54.067
10, -9169.71, 37478.24, 187500.00, 187500.00, 187500.00, -187500.02, -187500.02, 187500.00, 0.000, 0.000, 0.000, 15:29:54.067
11, -9160.64, 37427.41, 187500.00, 187500.00, 187500.00, -187500.02, -187500.02, 187500.00, 0.000, 0.000, 0.000, 15:29:54.067
12, -9156.44, 37308.66, 187500.00, 187500.00, 187500.00, -187500.02, -187500.02, 187500.00, 0.000, 0.000, 0.000, 15:29:54.067
13, -9158.63, 37273.52, 187500.00, 187500.00, 187500.00, -187500.02, -187500.02, 187500.00, 0.000, 0.000, 0.000, 15:29:54.067
14, -9194.61, 37444.45, 187500.00, 187500.00, 187500.00, -187500.02, -187500.02, 187500.00, 0.000, 0.000, 0.000, 15:29:54.067
15, -9160.26, 37504.44, 187500.00, 187500.00, 187500.00, -187500.02, -187500.02, 187500.00, 0.000, 0.000, 0.000, 15:29:54.067
16, -9146.40, 37448.36, 187500.00, 187500.00, 187500.00, -187500.02, -187500.02, 187500.00, 0.000, 0.000, 0.000, 15:29:54.068
17, -9129.73, 37335.44, 187500.00, 187500.00, 187500.00, -187500.02, -187500.02, 187500.00, 0.000, 0.000, 0.000, 15:29:54.068
18, -9131.38, 37290.29, 187500.00, 187500.00, 187500.00, -187500.02, -187500.02, 187500.00, -0.008, -0.178, 1.012, 15:29:54.068
19, -9163.23, 37461.99, 187500.00, 187500.00, 187500.00, -187500.02, -187500.02, 187500.00, 0.000, 0.000, 0.000, 15:29:54.068
20, -9127.04, 37514.90, 187500.00, 187500.00, 187500.00, -187500.02, -187500.02, 187500.00, 0.000, 0.000, 0.000, 15:29:54.068
21, -9098.55, 37468.52, 187500.00, 187500.00, 187500.00, -187500.02, -187500.02, 187500.00, 0.000, 0.000, 0.000, 15:29:54.068
22, -9082.79, 37351.29, 187500.00, 187500.00, 187500.00, -187500.02, -187500.02, 187500.00, 0.000, 0.000, 0.000, 15:29:54.068
23, -9093.85, 37295.98, 187500.00, 187500.00, 187500.00, -187500.02, -187500.02, 187500.00, 0.000, 0.000, 0.000, 15:29:54.068
24, -9117.66, 37468.74, 187500.00, 187500.00, 187500.00, -187500.02, -187500.02, 187500.00, 0.000, 0.000, 0.000, 15:29:54.068
25, -9067.54, 37540.04, 187500.00, 187500.00, 187500.00, -187500.02, -187500.02, 187500.00, 0.000, 0.000, 0.000, 15:29:54.069
26, -9054.27, 37490.31, 187500.00, 187500.00, 187500.00, -187500.02, -187500.02, 187500.00, 0.000, 0.000, 0.000, 15:29:54.069
27, -9045.55, 37368.92, 187500.00, 187500.00, 187500.00, -187500.02, -187500.02, 187500.00, 0.000, 0.000, 0.000, 15:29:54.069
28, -9061.98, 37316.13, 187500.00, 187500.00, 187500.00, -187500.02, -187500.02, 187500.00, 0.000, -0.172, 1.010, 15:29:54.069
29, -9098.59, 37485.48, 187500.00, 187500.00, 187500.00, -187500.02, -187500.02, 187500.00, 0.000, 0.000, 0.000, 15:29:54.069
30, -9069.11, 37556.38, 187500.00, 187500.00, 187500.00, -187500.02, -187500.02, 187500.00, 0.000, 0.000, 0.000, 15:29:54.069
31, -9055.23, 37509.20, 187500.00, 187500.00, 187500.00, -187500.02, -187500.02, 187500.00, 0.000, 0.000, 0.000, 15:29:54.070
32, -9059.05, 37369.88, 187500.00, 187500.00, 187500.00, -187500.02, -187500.02, 187500.00, 0.000, 0.000, 0.000, 15:29:54.070
33, -9078.88, 37305.42, 187500.00, 187500.00, 187500.00, -187500.02, -187500.02, 187500.00, 0.000, 0.000, 0.000, 15:29:54.070
34, -9130.22, 37471.51, 187500.00, 187500.00, 187500.00, -187500.02, -187500.02, 187500.00, 0.000, 0.000, 0.000, 15:29:54.070
35, -9111.64, 37531.28, 187500.00, 187500.00, 187500.00, -187500.02, -187500.02, 187500.00, 0.000, 0.000, 0.000, 15:29:54.070
36, -9109.61, 37471.49, 187500.00, 187500.00, 187500.00, -187500.02, -187500.02, 187500.00, 0.000, 0.000, 0.000, 15:29:54.070
37, -9110.01, 37351.77, 187500.00, 187500.00, 187500.00, -187500.02, -187500.02, 187500.00, 0.000, 0.000, 0.000, 15:29:54.070
38, -9128.70, 37288.43, 187500.00, 187500.00, 187500.00, -187500.02, -187500.02, 187500.00, 0.002, -0.172, 1.008, 15:29:54.070
39, -9192.53, 37429.87, 187500.00, 187500.00, 187500.00, -187500.02, -187500.02, 187500.00, 0.000, 0.000, 0.000, 15:29:54.070
40, -9167.54, 37514.18, 187500.00, 187500.00, 187500.00, -187500.02, -187500.02, 187500.00, 0.000, 0.000, 0.000, 15:29:54.071
41, -9167.32, 37439.53, 187500.00, 187500.00, 187500.00, -187500.02, -187500.02, 187500.00, 0.000, 0.000, 0.000, 15:29:54.071
42, -9176.98, 37312.88, 187500.00, 187500.00, 187500.00, -187500.02, -187500.02, 187500.00, 0.000, 0.000, 0.000, 15:29:54.071
43, -9198.35, 37245.00, 187500.00, 187500.00, 187500.00, -187500.02, -187500.02, 187500.00, 0.000, 0.000, 0.000, 15:29:54.071
44, -9242.83, 37421.36, 187500.00, 187500.00, 187500.00, -187500.02, -187500.02, 187500.00, 0.000, 0.000, 0.000, 15:29:54.071
45, -9225.62, 37478.27, 187500.00, 187500.00, 187500.00, -187500.02, -187500.02, 187500.00, 0.000, 0.000, 0.000, 15:29:54.071
46, -9226.17, 37407.63, 187500.00, 187500.00, 187500.00, -187500.02, -187500.02, 187500.00, 0.000, 0.000, 0.000, 15:29:54.071
47, -9215.42, 37282.55, 187500.00, 187500.00, 187500.00, -187500.02, -187500.02, 187500.00, 0.000, 0.000, 0.000, 15:29:54.071
48, -9233.64, 37219.74, 187500.00, 187500.00, 187500.00, -187500.02, -187500.02, 187500.00, -0.004, -0.176, 1.010, 15:29:54.072
49, -9293.88, 37387.20, 187500.00, 187500.00, 187500.00, -187500.02, -187500.02, 187500.00, 0.000, 0.000, 0.000, 15:29:54.072
50, -9242.92, 37484.97, 187500.00, 187500.00, 187500.00, -187500.02, -187500.02, 187500.00, 0.000, 0.000, 0.000, 15:29:54.072
51, -9241.15, 37405.38, 187500.00, 187500.00, 187500.00, -187500.02, -187500.02, 187500.00, 0.000, 0.000, 0.000, 15:29:54.072
52, -9242.87, 37269.10, 187500.00, 187500.00, 187500.00, -187500.02, -187500.02, 187500.00, 0.000, 0.000, 0.000, 15:29:54.072
53, -9236.72, 37235.77, 187500.00, 187500.00, 187500.00, -187500.02, -187500.02, 187500.00, 0.000, 0.000, 0.000, 15:29:54.072
54, -9295.58, 37383.85, 187500.00, 187500.00, 187500.00, -187500.02, -187500.02, 187500.00, 0.000, 0.000, 0.000, 15:29:54.072
55, -9262.63, 37474.35, 187500.00, 187500.00, 187500.00, -187500.02, -187500.02, 187500.00, 0.000, 0.000, 0.000, 15:29:54.072
56, -9232.68, 37448.20, 187500.00, 187500.00, 187500.00, -187500.02, -187500.02, 187500.00, 0.000, 0.000, 0.000, 15:29:54.073
57, -9244.03, 37299.52, 187500.00, 187500.00, 187500.00, -187500.02, -187500.02, 187500.00, 0.000, 0.000, 0.000, 15:29:54.073
58, -9267.66, 37196.41, 187500.00, 187500.00, 187500.00, -187500.02, -187500.02, 187500.00, -0.004, -0.178, 1.010, 15:29:54.073
59, -9326.85, 37383.02, 187500.00, 187500.00, 187500.00, -187500.02, -187500.02, 187500.00, 0.000, 0.000, 0.000, 15:29:54.073
60, -9306.08, 37431.84, 187500.00, 187500.00, 187500.00, -187500.02, -187500.02, 187500.00, 0.000, 0.000, 0.000, 15:29:54.073
61, -9274.97, 37376.99, 187500.00, 187500.00, 187500.00, -187500.02, -187500.02, 187500.00, 0.000, 0.000, 0.000, 15:29:54.073
62, -9259.90, 37264.34, 187500.00, 187500.00, 187500.00, -187500.02, -187500.02, 187500.00, 0.000, 0.000, 0.000, 15:29:54.073
63, -9278.48, 37154.07, 187500.00, 187500.00, 187500.00, -187500.02, -187500.02, 187500.00, 0.000, 0.000, 0.000, 15:29:54.073
64, -9356.78, 37307.38, 187500.00, 187500.00, 187500.00, -187500.02, -187500.02, 187500.00, 0.000, 0.000, 0.000, 15:29:54.073
65, -9320.95, 37414.14, 187500.00, 187500.00, 187500.00, -187500.02, -187500.02, 187500.00, 0.000, 0.000, 0.000, 15:29:54.074
66, -9262.58, 37422.27, 187500.00, 187500.00, 187500.00, -187500.02, -187500.02, 187500.00, 0.000, 0.000, 0.000, 15:29:54.074
67, -9276.49, 37243.21, 187500.00, 187500.00, 187500.00, -187500.02, -187500.02, 187500.00, 0.000, 0.000, 0.000, 15:29:54.074
68, -9282.39, 37197.91, 187500.00, 187500.00, 187500.00, -187500.02, -187500.02, 187500.00, -0.006, -0.174, 1.008, 15:29:54.074
69, -9343.68, 37347.84, 187500.00, 187500.00, 187500.00, -187500.02, -187500.02, 187500.00, 0.000, 0.000, 0.000, 15:29:54.074
70, -9311.42, 37419.39, 187500.00, 187500.00, 187500.00, -187500.02, -187500.02, 187500.00, 0.000, 0.000, 0.000, 15:29:54.074
71, -9297.01, 37348.80, 187500.00, 187500.00, 187500.00, -187500.02, -187500.02, 187500.00, 0.000, 0.000, 0.000, 15:29:54.074
72, -9310.33, 37203.43, 187500.00, 187500.00, 187500.00, -187500.02, -187500.02, 187500.00, 0.000, 0.000, 0.000, 15:29:54.074
73, -9346.61, 37090.77, 187500.00, 187500.00, 187500.00, -187500.02, -187500.02, 187500.00, 0.000, 0.000, 0.000, 15:29:54.075
74, -9393.28, 37281.52, 187500.00, 187500.00, 187500.00, -187500.02, -187500.02, 187500.00, 0.000, 0.000, 0.000, 15:29:54.075
75, -9362.47, 37355.38, 187500.00, 187500.00, 187500.00, -187500.02, -187500.02, 187500.00, 0.000, 0.000, 0.000, 15:29:54.075
76, -9354.23, 37286.84, 187500.00, 187500.00, 187500.00, -187500.02, -187500.02, 187500.00, 0.000, 0.000, 0.000, 15:29:54.075
77, -9348.64, 37157.47, 187500.00, 187500.00, 187500.00, -187500.02, -187500.02, 187500.00, 0.000, 0.000, 0.000, 15:29:54.075
78, -9386.97, 37055.05, 187500.00, 187500.00, 187500.00, -187500.02, -187500.02, 187500.00, -0.004, -0.180, 1.012, 15:29:54.075
79, -9440.19, 37237.78, 187500.00, 187500.00, 187500.00, -187500.02, -187500.02, 187500.00, 0.000, 0.000, 0.000, 15:29:54.075
80, -9397.79, 37330.81, 187500.00, 187500.00, 187500.00, -187500.02, -187500.02, 187500.00, 0.000, 0.000, 0.000, 15:29:54.075
81, -9394.59, 37250.86, 187500.00, 187500.00, 187500.00, -187500.02, -187500.02, 187500.00, 0.000, 0.000, 0.000, 15:29:54.076
82, -9402.91, 37082.79, 187500.00, 187500.00, 187500.00, -187500.02, -187500.02, 187500.00, 0.000, 0.000, 0.000, 15:29:54.076
83, -9410.60, 37010.93, 187500.00, 187500.00, 187500.00, -187500.02, -187500.02, 187500.00, 0.000, 0.000, 0.000, 15:29:54.076
84, -9458.72, 37176.87, 187500.00, 187500.00, 187500.00, -187500.02, -187500.02, 187500.00, 0.000, 0.000, 0.000, 15:29:54.076
85, -9441.98, 37252.76, 187500.00, 187500.00, 187500.00, -187500.02, -187500.02, 187500.00, 0.000, 0.000, 0.000, 15:29:54.076
86, -9441.47, 37166.88, 187500.00, 187500.00, 187500.00, -187500.02, -187500.02, 187500.00, 0.000, 0.000, 0.000, 15:29:54.076
87, -9435.92, 37038.54, 187500.00, 187500.00, 187500.00, -187500.02, -187500.02, 187500.00, 0.000, 0.000, 0.000, 15:29:54.076
88, -9427.94, 36979.91, 187500.00, 187500.00, 187500.00, -187500.02, -187500.02, 187500.00, -0.002, -0.174, 1.012, 15:29:54.076
89, -9487.85, 37126.36, 187500.00, 187500.00, 187500.00, -187500.02, -187500.02, 187500.00, 0.000, 0.000, 0.000, 15:29:54.077
90, -9457.16, 37219.48, 187500.00, 187500.00, 187500.00, -187500.02, -187500.02, 187500.00, 0.000, 0.000, 0.000, 15:29:54.077
91, -9417.88, 37187.71, 187500.00, 187500.00, 187500.00, -187500.02, -187500.02, 187500.00, 0.000, 0.000, 0.000, 15:29:54.077
92, -9441.40, 37035.50, 187500.00, 187500.00, 187500.00, -187500.02, -187500.02, 187500.00, 0.000, 0.000, 0.000, 15:29:54.077
93, -9468.91, 36949.73, 187500.00, 187500.00, 187500.00, -187500.02, -187500.02, 187500.00, 0.000, 0.000, 0.000, 15:29:54.077
94, -9494.71, 37133.20, 187500.00, 187500.00, 187500.00, -187500.02, -187500.02, 187500.00, 0.000, 0.000, 0.000, 15:29:54.077
95, -9448.26, 37222.76, 187500.00, 187500.00, 187500.00, -187500.02, -187500.02, 187500.00, 0.000, 0.000, 0.000, 15:29:54.077
96, -9429.13, 37163.13, 187500.00, 187500.00, 187500.00, -187500.02, -187500.02, 187500.00, 0.000, 0.000, 0.000, 15:29:54.077
97, -9446.90, 37018.20, 187500.00, 187500.00, 187500.00, -187500.02, -187500.02, 187500.00, 0.000, 0.000, 0.000, 15:29:54.078
98, -9466.48, 36918.44, 187500.00, 187500.00, 187500.00, -187500.02, -187500.02, 187500.00, 0.012, -0.174, 0.996, 15:29:54.078
99, -9530.16, 37073.34, 187500.00, 187500.00, 187500.00, -187500.02, -187500.02, 187500.00, 0.000, 0.000, 0.000, 15:29:54.078
100, -9473.50, 37223.23, 187500.00, 187500.00, 187500.00, -187500.02, -187500.02, 187500.00, 0.000, 0.000, 0.000, 15:29:54.078
101, -9435.34, 37174.70, 187500.00, 187500.00, 187500.00, -187500.02, -187500.02, 187500.00, 0.000, 0.000, 0.000, 15:29:54.078
102, -9437.00, 37032.35, 187500.00, 187500.00, 187500.00, -187500.02, -187500.02, 187500.00, 0.000, 0.000, 0.000, 15:29:54.078
103, -9463.82, 36923.05, 187500.00, 187500.00, 187500.00, -187500.02, -187500.02, 187500.00, 0.000, 0.000, 0.000, 15:29:54.078
104, -9504.34, 37114.85, 187500.00, 187500.00, 187500.00, -187500.02, -187500.02, 187500.00, 0.000, 0.000, 0.000, 15:29:54.078
105, -9469.00, 37224.73, 187500.00, 187500.00, 187500.00, -187500.02, -187500.02, 187500.00, 0.000, 0.000, 0.000, 15:29:54.543
106, -9447.99, 37167.44, 187500.00, 187500.00, 187500.00, -187500.02, -187500.02, 187500.00, 0.000, 0.000, 0.000, 15:29:54.543
107, -9435.05, 37035.81, 187500.00, 187500.00, 187500.00, -187500.02, -187500.02, 187500.00, 0.000, 0.000, 0.000, 15:29:54.544
108, -9435.99, 36945.84, 187500.00, 187500.00, 187500.00, -187500.02, -187500.02, 187500.00, 0.002, -0.172, 1.018, 15:29:54.544
109, -9510.53, 37099.65, 187500.00, 187500.00, 187500.00, -187500.02, -187500.02, 187500.00, 0.000, 0.000, 0.000, 15:29:54.544
110, -9480.38, 37195.61, 187500.00, 187500.00, 187500.00, -187500.02, -187500.02, 187500.00, 0.000, 0.000, 0.000, 15:29:54.544
111, -9443.75, 37161.29, 187500.00, 187500.00, 187500.00, -187500.02, -187500.02, 187500.00, 0.000, 0.000, 0.000, 15:29:54.544
112, -9448.13, 37008.52, 187500.00, 187500.00, 187500.00, -187500.02, -187500.02, 187500.00, 0.000, 0.000, 0.000, 15:29:54.544
113, -9440.68, 36950.36, 187500.00, 187500.00, 187500.00, -187500.02, -187500.02, 187500.00, 0.000, 0.000, 0.000, 15:29:54.544
114, -9491.49, 37131.86, 187500.00, 187500.00, 187500.00, -187500.02, -187500.02, 187500.00, 0.000, 0.000, 0.000, 15:29:54.544
115, -9465.00, 37228.93, 187500.00, 187500.00, 187500.00, -187500.02, -187500.02, 187500.00, 0.000, 0.000, 0.000, 15:29:54.544
116, -9433.08, 37171.60, 187500.00, 187500.00, 187500.00, -187500.02, -187500.02, 187500.00, 0.000, 0.000, 0.000, 15:29:54.545
117, -9443.08, 37011.65, 187500.00, 187500.00, 187500.00, -187500.02, -187500.02, 187500.00, 0.004, -0.174, 1.022, 15:29:54.545
118, -9446.34, 36902.10, 187500.00, 187500.00, 187500.00, -187500.02, -187500.02, 187500.00, 0.000, 0.000, 0.000, 15:29:54.545
119, -9491.31, 37103.29, 187500.00, 187500.00, 187500.00, -187500.02, -187500.02, 187500.00, 0.000, 0.000, 0.000, 15:29:54.545
120, -9455.55, 37220.21, 187500.00, 187500.00, 187500.00, -187500.02, -187500.02, 187500.00, 0.000, 0.000, 0.000, 15:29:54.545
121, -9415.47, 37175.20, 187500.00, 187500.00, 187500.00, -187500.02, -187500.02, 187500.00, 0.000, 0.000, 0.000, 15:29:54.545
122, -9428.55, 37005.88, 187500.00, 187500.00, 187500.00, -187500.02, -187500.02, 187500.00, 0.000, 0.000, 0.000, 15:29:54.545
123, -9439.68, 36909.41, 187500.00, 187500.00, 187500.00, -187500.02, -187500.02, 187500.00, 0.000, 0.000, 0.000, 15:29:54.545
124, -9492.99, 37093.95, 187500.00, 187500.00, 187500.00, -187500.02, -187500.02, 187500.00, 0.000, 0.000, 0.000, 15:29:54.546
125, -9462.14, 37221.40, 187500.00, 187500.00, 187500.00, -187500.02, -187500.02, 187500.00, 0.000, 0.000, 0.000, 15:29:54.546
126, -9430.80, 37167.17, 187500.00, 187500.00, 187500.00, -187500.02, -187500.02, 187500.00, 0.000, 0.000, 0.000, 15:29:54.546
127, -9434.27, 37021.04, 187500.00, 187500.00, 187500.00, -187500.02, -187500.02, 187500.00, 0.006, -0.176, 0.992, 15:29:54.546
128, -9443.81, 36906.19, 187500.00, 187500.00, 187500.00, -187500.02, -187500.02, 187500.00, 0.000, 0.000, 0.000, 15:29:54.546
129, -9493.05, 37099.00, 187500.00, 187500.00, 187500.00, -187500.02, -187500.02, 187500.00, 0.000, 0.000, 0.000, 15:29:54.546
130, -9467.39, 37208.07, 187500.00, 187500.00, 187500.00, -187500.02, -187500.02, 187500.00, 0.000, 0.000, 0.000, 15:29:54.546
131, -9425.93, 37157.70, 187500.00, 187500.00, 187500.00, -187500.02, -187500.02, 187500.00, 0.000, 0.000, 0.000, 15:29:54.546
132, -9428.84, 37008.34, 187500.00, 187500.00, 187500.00, -187500.02, -187500.02, 187500.00, 0.000, 0.000, 0.000, 15:29:54.547
133, -9457.56, 36891.42, 187500.00, 187500.00, 187500.00, -187500.02, -187500.02, 187500.00, 0.000, 0.000, 0.000, 15:29:54.547
134, -9499.67, 37088.67, 187500.00, 187500.00, 187500.00, -187500.02, -187500.02, 187500.00, 0.000, 0.000, 0.000, 15:29:54.547
135, -9464.53, 37200.59, 187500.00, 187500.00, 187500.00, -187500.02, -187500.02, 187500.00, 0.000, 0.000, 0.000, 15:29:54.547
136, -9439.57, 37140.51, 187500.00, 187500.00, 187500.00, -187500.02, -187500.02, 187500.00, 0.000, 0.000, 0.000, 15:29:54.547
137, -9450.43, 37003.33, 187500.00, 187500.00, 187500.00, -187500.02, -187500.02, 187500.00, 0.004, -0.182, 1.002, 15:29:54.547
138, -9466.34, 36892.31, 187500.00, 187500.00, 187500.00, -187500.02, -187500.02, 187500.00, 0.000, 0.000, 0.000, 15:29:54.547
139, -9494.17, 37081.39, 187500.00, 187500.00, 187500.00, -187500.02, -187500.02, 187500.00, 0.000, 0.000, 0.000, 15:29:54.547
140, -9445.18, 37207.27, 187500.00, 187500.00, 187500.00, -187500.02, -187500.02, 187500.00, 0.000, 0.000, 0.000, 15:29:54.548
141, -9415.94, 37162.32, 187500.00, 187500.00, 187500.00, -187500.02, -187500.02, 187500.00, 0.000, 0.000, 0.000, 15:29:54.548
142, -9432.10, 37022.69, 187500.00, 187500.00, 187500.00, -187500.02, -187500.02, 187500.00, 0.000, 0.000, 0.000, 15:29:54.548
143, -9456.58, 36902.21, 187500.00, 187500.00, 187500.00, -187500.02, -187500.02, 187500.00, 0.000, 0.000, 0.000, 15:29:54.548
144, -9510.09, 37057.20, 187500.00, 187500.00, 187500.00, -187500.02, -187500.02, 187500.00, 0.000, 0.000, 0.000, 15:29:54.548
145, -9489.32, 37157.47, 187500.00, 187500.00, 187500.00, -187500.02, -187500.02, 187500.00, 0.000, 0.000, 0.000, 15:29:54.548
146, -9452.40, 37127.66, 187500.00, 187500.00, 187500.00, -187500.02, -187500.02, 187500.00, 0.000, 0.000, 0.000, 15:29:54.548
147, -9453.87, 37011.89, 187500.00, 187500.00, 187500.00, -187500.02, -187500.02, 187500.00, 0.004, -0.178, 1.018, 15:29:54.548
148, -9472.78, 36899.40, 187500.00, 187500.00, 187500.00, -187500.02, -187500.02, 187500.00, 0.000, 0.000, 0.000, 15:29:54.549
149, -9510.53, 37061.16, 187500.00, 187500.00, 187500.00, -187500.02, -187500.02, 187500.00, 0.000, 0.000, 0.000, 15:29:54.549
150, -9480.63, 37168.13, 187500.00, 187500.00, 187500.00, -187500.02, -187500.02, 187500.00, 0.000, 0.000, 0.000, 15:29:54.549
151, -9455.99, 37128.97, 187500.00, 187500.00, 187500.00, -187500.02, -187500.02, 187500.00, 0.000, 0.000, 0.000, 15:29:54.549
152, -9468.78, 37000.23, 187500.00, 187500.00, 187500.00, -187500.02, -187500.02, 187500.00, 0.000, 0.000, 0.000, 15:29:54.549
153, -9482.97, 36891.71, 187500.00, 187500.00, 187500.00, -187500.02, -187500.02, 187500.00, 0.000, 0.000, 0.000, 15:29:54.549
154, -9531.28, 37041.11, 187500.00, 187500.00, 187500.00, -187500.02, -187500.02, 187500.00, 0.000, 0.000, 0.000, 15:29:54.549
155, -9522.16, 37121.60, 187500.00, 187500.00, 187500.00, -187500.02, -187500.02, 187500.00, 0.000, 0.000, 0.000, 15:29:54.549
156, -9505.39, 37079.49, 187500.00, 187500.00, 187500.00, -187500.02, -187500.02, 187500.00, 0.000, 0.000, 0.000, 15:29:54.549
157, -9522.76, 36943.21, 187500.00, 187500.00, 187500.00, -187500.02, -187500.02, 187500.00, 0.014, -0.180, 0.992, 15:29:54.550
158, -9532.01, 36828.54, 187500.00, 187500.00, 187500.00, -187500.02, -187500.02, 187500.00, 0.000, 0.000, 0.000, 15:29:54.550
159, -9568.11, 36992.98, 187500.00, 187500.00, 187500.00, -187500.02, -187500.02, 187500.00, 0.000, 0.000, 0.000, 15:29:54.550
160, -9528.53, 37114.55, 187500.00, 187500.00, 187500.00, -187500.02, -187500.02, 187500.00, 0.000, 0.000, 0.000, 15:29:54.550
161, -9486.19, 37098.48, 187500.00, 187500.00, 187500.00, -187500.02, -187500.02, 187500.00, 0.000, 0.000, 0.000, 15:29:54.550
162, -9488.65, 36985.43, 187500.00, 187500.00, 187500.00, -187500.02, -187500.02, 187500.00, 0.000, 0.000, 0.000, 15:29:54.550
163, -9477.74, 36892.02, 187500.00, 187500.00, 187500.00, -187500.02, -187500.02, 187500.00, 0.000, 0.000, 0.000, 15:29:54.550
164, -9527.92, 37035.92, 187500.00, 187500.00, 187500.00, -187500.02, -187500.02, 187500.00, 0.000, 0.000, 0.000, 15:29:54.550
165, -9498.31, 37152.53, 187500.00, 187500.00, 187500.00, -187500.02, -187500.02, 187500.00, 0.000, 0.000, 0.000, 15:29:54.551
166, -9454.52, 37124.91, 187500.00, 187500.00, 187500.00, -187500.02, -187500.02, 187500.00, 0.000, 0.000, 0.000, 15:29:54.551
167, -9442.67, 37030.07, 187500.00, 187500.00, 187500.00, -187500.02, -187500.02, 187500.00, 0.006, -0.174, 1.002, 15:29:54.551
168, -9456.75, 36911.98, 187500.00, 187500.00, 187500.00, -187500.02, -187500.02, 187500.00, 0.000, 0.000, 0.000, 15:29:54.551
169, -9513.24, 37038.25, 187500.00, 187500.00, 187500.00, -187500.02, -187500.02, 187500.00, 0.000, 0.000, 0.000, 15:29:54.551
170, -9480.47, 37161.25, 187500.00, 187500.00, 187500.00, -187500.02, -187500.02, 187500.00, 0.000, 0.000, 0.000, 15:29:54.551
171, -9447.21, 37126.87, 187500.00, 187500.00, 187500.00, -187500.02, -187500.02, 187500.00, 0.000, 0.000, 0.000, 15:29:54.551
172, -9442.63, 37020.05, 187500.00, 187500.00, 187500.00, -187500.02, -187500.02, 187500.00, 0.000, 0.000, 0.000, 15:29:54.551
173, -9452.87, 36915.47, 187500.00, 187500.00, 187500.00, -187500.02, -187500.02, 187500.00, 0.000, 0.000, 0.000, 15:29:54.551
174, -9504.05, 37057.45, 187500.00, 187500.00, 187500.00, -187500.02, -187500.02, 187500.00, 0.000, 0.000, 0.000, 15:29:54.552
175, -9483.42, 37163.93, 187500.00, 187500.00, 187500.00, -187500.02, -187500.02, 187500.00, 0.000, 0.000, 0.000, 15:29:54.552
176, -9448.66, 37130.79, 187500.00, 187500.00, 187500.00, -187500.02, -187500.02, 187500.00, 0.000, 0.000, 0.000, 15:29:54.552
177, -9460.51, 37013.14, 187500.00, 187500.00, 187500.00, -187500.02, -187500.02, 187500.00, -0.002, -0.172, 1.004, 15:29:54.552
178, -9455.48, 36899.00, 187500.00, 187500.00, 187500.00, -187500.02, -187500.02, 187500.00, 0.000, 0.000, 0.000, 15:29:54.552
179, -9508.43, 37035.36, 187500.00, 187500.00, 187500.00, -187500.02, -187500.02, 187500.00, 0.000, 0.000, 0.000, 15:29:54.552
180, -9469.29, 37169.25, 187500.00, 187500.00, 187500.00, -187500.02, -187500.02, 187500.00, 0.000, 0.000, 0.000, 15:29:54.553
181, -9438.54, 37134.05, 187500.00, 187500.00, 187500.00, -187500.02, -187500.02, 187500.00, 0.000, 0.000, 0.000, 15:29:54.553
182, -9454.65, 37019.32, 187500.00, 187500.00, 187500.00, -187500.02, -187500.02, 187500.00, 0.000, 0.000, 0.000, 15:29:54.553
183, -9456.29, 36905.70, 187500.00, 187500.00, 187500.00, -187500.02, -187500.02, 187500.00, 0.000, 0.000, 0.000, 15:29:54.553
184, -9502.51, 37046.96, 187500.00, 187500.00, 187500.00, -187500.02, -187500.02, 187500.00, 0.000, 0.000, 0.000, 15:29:54.553
185, -9488.52, 37161.52, 187500.00, 187500.00, 187500.00, -187500.02, -187500.02, 187500.00, 0.000, 0.000, 0.000, 15:29:54.553
186, -9453.45, 37121.69, 187500.00, 187500.00, 187500.00, -187500.02, -187500.02, 187500.00, 0.000, 0.000, 0.000, 15:29:54.553
187, -9451.79, 37022.71, 187500.00, 187500.00, 187500.00, -187500.02, -187500.02, 187500.00, 0.002, -0.182, 0.996, 15:29:54.553
188, -9451.41, 36925.01, 187500.00, 187500.00, 187500.00, -187500.02, -187500.02, 187500.00, 0.000, 0.000, 0.000, 15:29:54.553
189, -9496.79, 37052.46, 187500.00, 187500.00, 187500.00, -187500.02, -187500.02, 187500.00, 0.000, 0.000, 0.000, 15:29:54.554
190, -9490.15, 37146.39, 187500.00, 187500.00, 187500.00, -187500.02, -187500.02, 187500.00, 0.000, 0.000, 0.000, 15:29:54.554
191, -9462.99, 37111.34, 187500.00, 187500.00, 187500.00, -187500.02, -187500.02, 187500.00, 0.000, 0.000, 0.000, 15:29:54.554
192, -9462.39, 37017.62, 187500.00, 187500.00, 187500.00, -187500.02, -187500.02, 187500.00, 0.000, 0.000, 0.000, 15:29:54.554
193, -9458.34, 36916.74, 187500.00, 187500.00, 187500.00, -187500.02, -187500.02, 187500.00, 0.000, 0.000, 0.000, 15:29:54.554
194, -9516.34, 37035.81, 187500.00, 187500.00, 187500.00, -187500.02, -187500.02, 187500.00, 0.000, 0.000, 0.000, 15:29:54.554
195, -9502.51, 37148.73, 187500.00, 187500.00, 187500.00, -187500.02, -187500.02, 187500.00, 0.000, 0.000, 0.000, 15:29:54.554
196, -9464.15, 37127.63, 187500.00, 187500.00, 187500.00, -187500.02, -187500.02, 187500.00, 0.000, 0.000, 0.000, 15:29:54.555
197, -9462.21, 37028.10, 187500.00, 187500.00, 187500.00, -187500.02, -187500.02, 187500.00, 0.004, -0.178, 1.010, 15:29:54.555
198, -9444.66, 36929.46, 187500.00, 187500.00, 187500.00, -187500.02, -187500.02, 187500.00, 0.000, 0.000, 0.000, 15:29:54.555
199, -9515.20, 37034.31, 187500.00, 187500.00, 187500.00, -187500.02, -187500.02, 187500.00, 0.000, 0.000, 0.000, 15:29:54.555
200, -9506.44, 37150.36, 187500.00, 187500.00, 187500.00, -187500.02, -187500.02, 187500.00, 0.000, 0.000, 0.000, 15:29:54.555
201, -9471.64, 37117.37, 187500.00, 187500.00, 187500.00, -187500.02, -187500.02, 187500.00, 0.000, 0.000, 0.000, 15:29:54.555
202, -9486.10, 37002.75, 187500.00, 187500.00, 187500.00, -187500.02, -187500.02, 187500.00, 0.000, 0.000, 0.000, 15:29:54.555
203, -9480.98, 36896.83, 187500.00, 187500.00, 187500.00, -187500.02, -187500.02, 187500.00, 0.000, 0.000, 0.000, 15:29:54.555
204, -9533.35, 37020.43, 187500.00, 187500.00, 187500.00, -187500.02, -187500.02, 187500.00, 0.000, 0.000, 0.000, 15:29:54.556
205, -9512.88, 37144.38, 187500.00, 187500.00, 187500.00, -187500.02, -187500.02, 187500.00, 0.000, 0.000, 0.000, 15:29:54.556
206, -9477.61, 37121.57, 187500.00, 187500.00, 187500.00, -187500.02, -187500.02, 187500.00, 0.000, 0.000, 0.000, 15:29:54.556
207, -9481.18, 37020.16, 187500.00, 187500.00, 187500.00, -187500.02, -187500.02, 187500.00, 0.002, -0.172, 1.010, 15:29:54.556
208, -9489.90, 36893.97, 187500.00, 187500.00, 187500.00, -187500.02, -187500.02, 187500.00, 0.000, 0.000, 0.000, 15:29:54.556
209, -9526.45, 37021.06, 187500.00, 187500.00, 187500.00, -187500.02, -187500.02, 187500.00, 0.000, 0.000, 0.000, 15:29:54.556
210, -9514.82, 37139.46, 187500.00, 187500.00, 187500.00, -187500.02, -187500.02, 187500.00, 0.000, 0.000, 0.000, 15:29:54.556
211, -9480.69, 37117.64, 187500.00, 187500.00, 187500.00, -187500.02, -187500.02, 187500.00, 0.000, 0.000, 0.000, 15:29:54.556
212, -9489.81, 37013.50, 187500.00, 187500.00, 187500.00, -187500.02, -187500.02, 187500.00, 0.000, 0.000, 0.000, 15:29:54.556
213, -9502.08, 36893.45, 187500.00, 187500.00, 187500.00, -187500.02, -187500.02, 187500.00, 0.000, 0.000, 0.000, 15:29:54.557
214, -9547.10, 37013.21, 187500.00, 187500.00, 187500.00, -187500.02, -187500.02, 187500.00, 0.000, 0.000, 0.000, 15:29:54.557
215, -9536.62, 37135.37, 187500.00, 187500.00, 187500.00, -187500.02, -187500.02, 187500.00, 0.000, 0.000, 0.000, 15:29:54.557
216, -9507.25, 37112.16, 187500.00, 187500.00, 187500.00, -187500.02, -187500.02, 187500.00, 0.000, 0.000, 0.000, 15:29:54.557
217, -9511.20, 37026.09, 187500.00, 187500.00, 187500.00, -187500.02, -187500.02, 187500.00, 0.004, -0.168, 1.018, 15:29:54.557
218, -9518.02, 36907.16, 187500.00, 187500.00, 187500.00, -187500.02, -187500.02, 187500.00, 0.000, 0.000, 0.000, 15:29:54.557
219, -9553.92, 37033.89, 187500.00, 187500.00, 187500.00, -187500.02, -187500.02, 187500.00, 0.000, 0.000, 0.000, 15:29:54.557
220, -9536.75, 37151.26, 187500.00, 187500.00, 187500.00, -187500.02, -187500.02, 187500.00, 0.000, 0.000, 0.000, 15:29:54.557
221, -9516.72, 37117.08, 187500.00, 187500.00, 187500.00, -187500.02, -187500.02, 187500.00, 0.000, 0.000, 0.000, 15:29:54.557
222, -9513.66, 37025.17, 187500.00, 187500.00, 187500.00, -187500.02, -187500.02, 187500.00, 0.000, 0.000, 0.000, 15:29:54.558
223, -9521.31, 36899.36, 187500.00, 187500.00, 187500.00, -187500.02, -187500.02, 187500.00, 0.000, 0.000, 0.000, 15:29:54.558
224, -9554.28, 37030.27, 187500.00, 187500.00, 187500.00, -187500.02, -187500.02, 187500.00, 0.000, 0.000, 0.000, 15:29:54.558
225, -9550.43, 37146.27, 187500.00, 187500.00, 187500.00, -187500.02, -187500.02, 187500.00, 0.000, 0.000, 0.000, 15:29:55.024
226, -9522.74, 37118.27, 187500.00, 187500.00, 187500.00, -187500.02, -187500.02, 187500.00, 0.002, -0.174, 1.016, 15:29:55.024
227, -9526.96, 37023.45, 187500.00, 187500.00, 187500.00, -187500.02, -187500.02, 187500.00, 0.000, 0.000, 0.000, 15:29:55.024
228, -9529.91, 36916.23, 187500.00, 187500.00, 187500.00, -187500.02, -187500.02, 187500.00, 0.000, 0.000, 0.000, 15:29:55.024
229, -9558.21, 37041.04, 187500.00, 187500.00, 187500.00, -187500.02, -187500.02, 187500.00, 0.000, 0.000, 0.000, 15:29:55.024
230, -9543.99, 37162.59, 187500.00, 187500.00, 187500.00, -187500.02, -187500.02, 187500.00, 0.000, 0.000, 0.000, 15:29:55.024
231, -9523.09, 37129.73, 187500.00, 187500.00, 187500.00, -187500.02, -187500.02, 187500.00, 0.000, 0.000, 0.000, 15:29:55.025
232, -9527.36, 37035.07, 187500.00, 187500.00, 187500.00, -187500.02, -187500.02, 187500.00, 0.000, 0.000, 0.000, 15:29:55.025
233, -9525.20, 36924.34, 187500.00, 187500.00, 187500.00, -187500.02, -187500.02, 187500.00, 0.000, 0.000, 0.000, 15:29:55.025
234, -9555.30, 37034.96, 187500.00, 187500.00, 187500.00, -187500.02, -187500.02, 187500.00, 0.000, 0.000, 0.000, 15:29:55.025
235, -9541.04, 37152.62, 187500.00, 187500.00, 187500.00, -187500.02, -187500.02, 187500.00, 0.000, 0.000, 0.000, 15:29:55.025
236, -9520.93, 37128.13, 187500.00, 187500.00, 187500.00, -187500.02, -187500.02, 187500.00, 0.002, -0.166, 1.008, 15:29:55.025
237, -9528.59, 37038.49, 187500.00, 187500.00, 187500.00, -187500.02, -187500.02, 187500.00, 0.000, 0.000, 0.000, 15:29:55.025
238, -9540.44, 36905.48, 187500.00, 187500.00, 187500.00, -187500.02, -187500.02, 187500.00, 0.000, 0.000, 0.000, 15:29:55.025
239, -9565.34, 37015.23, 187500.00, 187500.00, 187500.00, -187500.02, -187500.02, 187500.00, 0.000, 0.000, 0.000, 15:29:55.026
240, -9526.34, 37159.80, 187500.00, 187500.00, 187500.00, -187500.02, -187500.02, 187500.00, 0.000, 0.000, 0.000, 15:29:55.026
241, -9494.91, 37142.18, 187500.00, 187500.00, 187500.00, -187500.02, -187500.02, 187500.00, 0.000, 0.000, 0.000, 15:29:55.026
242, -9514.74, 37037.04, 187500.00, 187500.00, 187500.00, -187500.02, -187500.02, 187500.00, 0.000, 0.000, 0.000, 15:29:55.026
243, -9518.51, 36919.78, 187500.00, 187500.00, 187500.00, -187500.02, -187500.02, 187500.00, 0.000, 0.000, 0.000, 15:29:55.026
244, -9559.24, 37011.56, 187500.00, 187500.00, 187500.00, -187500.02, -187500.02, 187500.00, 0.000, 0.000, 0.000, 15:29:55.026
245, -9546.12, 37129.22, 187500.00, 187500.00, 187500.00, -187500.02, -187500.02, 187500.00, 0.000, 0.000, 0.000, 15:29:55.026
246, -9509.30, 37115.36, 187500.00, 187500.00, 187500.00, -187500.02, -187500.02, 187500.00, 0.000, -0.174, 1.008, 15:29:55.026
247, -9509.48, 37037.60, 187500.00, 187500.00, 187500.00, -187500.02, -187500.02, 187500.00, 0.000, 0.000, 0.000, 15:29:55.026
248, -9516.61, 36917.93, 187500.00, 187500.00, 187500.00, -187500.02, -187500.02, 187500.00, 0.000, 0.000, 0.000, 15:29:55.027
249, -9560.89, 37002.51, 187500.00, 187500.00, 187500.00, -187500.02, -187500.02, 187500.00, 0.000, 0.000, 0.000, 15:29:55.027
250, -9535.01, 37142.00, 187500.00, 187500.00, 187500.00, -187500.02, -187500.02, 187500.00, 0.000, 0.000, 0.000, 15:29:55.027
251, -9495.89, 37127.86, 187500.00, 187500.00, 187500.00, -187500.02, -187500.02, 187500.00, 0.000, 0.000, 0.000, 15:29:55.027
252, -9525.13, 37015.14, 187500.00, 187500.00, 187500.00, -187500.02, -187500.02, 187500.00, 0.000, 0.000, 0.000, 15:29:55.027
253, -9535.72, 36888.42, 187500.00, 187500.00, 187500.00, -187500.02, -187500.02, 187500.00, 0.000, 0.000, 0.000, 15:29:55.027
254, -9559.33, 36990.62, 187500.00, 187500.00, 187500.00, -187500.02, -187500.02, 187500.00, 0.000, 0.000, 0.000, 15:29:55.027
255, -9536.48, 37130.65, 187500.00, 187500.00, 187500.00, -187500.02, -187500.02, 187500.00, 0.000, 0.000, 0.000, 15:29:55.027
0, -9517.84, 37096.18, 187500.00, 187500.00, 187500.00, -187500.02, -187500.02, 187500.00, 0.000, -0.176, 1.016, 15:29:55.028
1, -9537.60, 37005.41, 187500.00, 187500.00, 187500.00, -187500.02, -187500.02, 187500.00, 0.000, 0.000, 0.000, 15:29:55.028
2, -9544.42, 36895.46, 187500.00, 187500.00, 187500.00, -187500.02, -187500.02, 187500.00, 0.000, 0.000, 0.000, 15:29:55.028
3, -9581.97, 36985.43, 187500.00, 187500.00, 187500.00, -187500.02, -187500.02, 187500.00, 0.000, 0.000, 0.000, 15:29:55.028
4, -9565.61, 37105.75, 187500.00, 187500.00, 187500.00, -187500.02, -187500.02, 187500.00, 0.000, 0.000, 0.000, 15:29:55.028
5, -9540.82, 37080.56, 187500.00, 187500.00, 187500.00, -187500.02, -187500.02, 187500.00, 0.000, 0.000, 0.000, 15:29:55.028
6, -9547.01, 37000.20, 187500.00, 187500.00, 187500.00, -187500.02, -187500.02, 187500.00, 0.000, 0.000, 0.000, 15:29:55.028
7, -9541.51, 36886.86, 187500.00, 187500.00, 187500.00, -187500.02, -187500.02, 187500.00, 0.000, 0.000, 0.000, 15:29:55.028
8, -9577.59, 36978.79, 187500.00, 187500.00, 187500.00, -187500.02, -187500.02, 187500.00, 0.000, 0.000, 0.000, 15:29:55.029
9, -9575.89, 37086.15, 187500.00, 187500.00, 187500.00, -187500.02, -187500.02, 187500.00, 0.000, 0.000, 0.000, 15:29:55.029
10, -9557.74, 37058.14, 187500.00, 187500.00, 187500.00, -187500.02, -187500.02, 187500.00, 0.002, -0.178, 1.018, 15:29:55.029
11, -9570.75, 36975.39, 187500.00, 187500.00, 187500.00, -187500.02, -187500.02, 187500.00, 0.000, 0.000, 0.000, 15:29:55.029
12, -9571.49, 36857.36, 187500.00, 187500.00, 187500.00, -187500.02, -187500.02, 187500.00, 0.000, 0.000, 0.000, 15:29:55.029
13, -9590.78, 36968.04, 187500.00, 187500.00, 187500.00, -187500.02, -187500.02, 187500.00, 0.000, 0.000, 0.000, 15:29:55.029
14, -9563.62, 37101.10, 187500.00, 187500.00, 187500.00, -187500.02, -187500.02, 187500.00, 0.000, 0.000, 0.000, 15:29:55.029
15, -9535.16, 37075.66, 187500.00, 187500.00, 187500.00, -187500.02, -187500.02, 187500.00, 0.000, 0.000, 0.000, 15:29:55.029
16, -9556.69, 36979.15, 187500.00, 187500.00, 187500.00, -187500.02, -187500.02, 187500.00, 0.000, 0.000, 0.000, 15:29:55.029
17, -9555.86, 36865.85, 187500.00, 187500.00, 187500.00, -187500.02, -187500.02, 187500.00, 0.000, 0.000, 0.000, 15:29:55.030
18, -9590.49, 36957.69, 187500.00, 187500.00, 187500.00, -187500.02, -187500.02, 187500.00, 0.000, 0.000, 0.000, 15:29:55.030
19, -9582.30, 37081.30, 187500.00, 187500.00, 187500.00, -187500.02, -187500.02, 187500.00, 0.000, 0.000, 0.000, 15:29:55.030
20, -9549.09, 37069.38, 187500.00, 187500.00, 187500.00, -187500.02, -187500.02, 187500.00, 0.002, -0.168, 1.016, 15:29:55.030
21, -9557.58, 36986.39, 187500.00, 187500.00, 187500.00, -187500.02, -187500.02, 187500.00, 0.000, 0.000, 0.000, 15:29:55.030
22, -9560.71, 36864.38, 187500.00, 187500.00, 187500.00, -187500.02, -187500.02, 187500.00, 0.000, 0.000, 0.000, 15:29:55.030
23, -9572.78, 36979.37, 187500.00, 187500.00, 187500.00, -187500.02, -187500.02, 187500.00, 0.000, 0.000, 0.000, 15:29:55.030
24, -9551.88, 37122.85, 187500.00, 187500.00, 187500.00, -187500.02, -187500.02, 187500.00, 0.000, 0.000, 0.000, 15:29:55.030
25, -9539.32, 37089.34, 187500.00, 187500.00, 187500.00, -187500.02, -187500.02, 187500.00, 0.000, 0.000, 0.000, 15:29:55.031
26, -9548.69, 37000.54, 187500.00, 187500.00, 187500.00, -187500.02, -187500.02, 187500.00, 0.000, 0.000, 0.000, 15:29:55.031
27, -9548.08, 36878.48, 187500.00, 187500.00, 187500.00, -187500.02, -187500.02, 187500.00, 0.000, 0.000, 0.000, 15:29:55.031
28, -9579.73, 36970.86, 187500.00, 187500.00, 187500.00, -187500.02, -187500.02, 187500.00, 0.000, 0.000, 0.000, 15:29:55.031
29, -9559.19, 37111.11, 187500.00, 187500.00, 187500.00, -187500.02, -187500.02, 187500.00, 0.000, 0.000, 0.000, 15:29:55.031
30, -9520.08, 37100.05, 187500.00, 187500.00, 187500.00, -187500.02, -187500.02, 187500.00, -0.002, -0.172, 1.014, 15:29:55.031
31, -9524.99, 37018.80, 187500.00, 187500.00, 187500.00, -187500.02, -187500.02, 187500.00, 0.000, 0.000, 0.000, 15:29:55.031
32, -9542.32, 36882.77, 187500.00, 187500.00, 187500.00, -187500.02, -187500.02, 187500.00, 0.000, 0.000, 0.000, 15:29:55.031
33, -9579.78, 36971.04, 187500.00, 187500.00, 187500.00, -187500.02, -187500.02, 187500.00, 0.000, 0.000, 0.000, 15:29:55.031
34, -9560.56, 37113.21, 187500.00, 187500.00, 187500.00, -187500.02, -187500.02, 187500.00, 0.000, 0.000, 0.000, 15:29:55.032
35, -9517.17, 37111.29, 187500.00, 187500.00, 187500.00, -187500.02, -187500.02, 187500.00, 0.000, 0.000, 0.000, 15:29:55.032
36, -9522.45, 37022.78, 187500.00, 187500.00, 187500.00, -187500.02, -187500.02, 187500.00, 0.000, 0.000, 0.000, 15:29:55.032
37, -9529.51, 36896.54, 187500.00, 187500.00, 187500.00, -187500.02, -187500.02, 187500.00, 0.000, 0.000, 0.000, 15:29:55.032
38, -9557.40, 36986.39, 187500.00, 187500.00, 187500.00, -187500.02, -187500.02, 187500.00, 0.000, 0.000, 0.000, 15:29:55.032
39, -9532.26, 37139.93, 187500.00, 187500.00, 187500.00, -187500.02, -187500.02, 187500.00, 0.000, 0.000, 0.000, 15:29:55.032
40, -9499.38, 37126.87, 187500.00, 187500.00, 187500.00, -187500.02, -187500.02, 187500.00, -0.006, -0.178, 1.012, 15:29:55.032
41, -9518.94, 37027.05, 187500.00, 187500.00, 187500.00, -187500.02, -187500.02, 187500.00, 0.000, 0.000, 0.000, 15:29:55.032
42, -9540.19, 36882.23, 187500.00, 187500.00, 187500.00, -187500.02, -187500.02, 187500.00, 0.000, 0.000, 0.000, 15:29:55.032
43, -9554.68, 36985.00, 187500.00, 187500.00, 187500.00, -187500.02, -187500.02, 187500.00, 0.000, 0.000, 0.000, 15:29:55.033
44, -9528.35, 37138.54, 187500.00, 187500.00, 187500.00, -187500.02, -187500.02, 187500.00, 0.000, 0.000, 0.000, 15:29:55.033
45, -9499.85, 37115.45, 187500.00, 187500.00, 187500.00, -187500.02, -187500.02, 187500.00, 0.000, 0.000, 0.000, 15:29:55.033
46, -9525.46, 37015.52, 187500.00, 187500.00, 187500.00, -187500.02, -187500.02, 187500.00, 0.000, 0.000, 0.000, 15:29:55.033
47, -9532.93, 36888.56, 187500.00, 187500.00, 187500.00, -187500.02, -187500.02, 187500.00, 0.000, 0.000, 0.000, 15:29:55.033
48, -9543.88, 36992.96, 187500.00, 187500.00, 187500.00, -187500.02, -187500.02, 187500.00, 0.000, 0.000, 0.000, 15:29:55.033
49, -9518.65, 37142.07, 187500.00, 187500.00, 187500.00, -187500.02, -187500.02, 187500.00, 0.000, 0.000, 0.000, 15:29:55.033
50, -9506.13, 37105.21, 187500.00, 187500.00, 187500.00, -187500.02, -187500.02, 187500.00, -0.004, -0.178, 1.016, 15:29:55.033
51, -9532.66, 37009.93, 187500.00, 187500.00, 187500.00, -187500.02, -187500.02, 187500.00, 0.000, 0.000, 0.000, 15:29:55.034
52, -9535.28, 36881.85, 187500.00, 187500.00, 187500.00, -187500.02, -187500.02, 187500.00, 0.000, 0.000, 0.000, 15:29:55.034
53, -9548.60, 36981.54, 187500.00, 187500.00, 187500.00, -187500.02, -187500.02, 187500.00, 0.000, 0.000, 0.000, 15:29:55.034
54, -9534.76, 37123.63, 187500.00, 187500.00, 187500.00, -187500.02, -187500.02, 187500.00, 0.000, 0.000, 0.000, 15:29:55.034
55, -9511.16, 37102.80, 187500.00, 187500.00, 187500.00, -187500.02, -187500.02, 187500.00, 0.000, 0.000, 0.000, 15:29:55.034
56, -9527.52, 37015.36, 187500.00, 187500.00, 187500.00, -187500.02, -187500.02, 187500.00, 0.000, 0.000, 0.000, 15:29:55.034
57, -9531.81, 36886.28, 187500.00, 187500.00, 187500.00, -187500.02, -187500.02, 187500.00, 0.000, 0.000, 0.000, 15:29:55.034
58, -9541.89, 36989.86, 187500.00, 187500.00, 187500.00, -187500.02, -187500.02, 187500.00, 0.000, 0.000, 0.000, 15:29:55.035
59, -9549.54, 37105.13, 187500.00, 187500.00, 187500.00, -187500.02, -187500.02, 187500.00, 0.000, 0.000, 0.000, 15:29:55.035
60, -9530.09, 37088.70, 187500.00, 187500.00, 187500.00, -187500.02, -187500.02, 187500.00, 0.006, -0.182, 1.014, 15:29:55.035
61, -9531.16, 37011.34, 187500.00, 187500.00, 187500.00, -187500.02, -187500.02, 187500.00, 0.000, 0.000, 0.000, 15:29:55.035
62, -9501.66, 36914.55, 187500.00, 187500.00, 187500.00, -187500.02, -187500.02, 187500.00, 0.000, 0.000, 0.000, 15:29:55.035
63, -9496.85, 37030.74, 187500.00, 187500.00, 187500.00, -187500.02, -187500.02, 187500.00, 0.000, 0.000, 0.000, 15:29:55.035
64, -9496.27, 37166.68, 187500.00, 187500.00, 187500.00, -187500.02, -187500.02, 187500.00, 0.000, 0.000, 0.000, 15:29:55.035
65, -9496.67, 37131.52, 187500.00, 187500.00, 187500.00, -187500.02, -187500.02, 187500.00, 0.000, 0.000, 0.000, 15:29:55.035
66, -9527.30, 37034.67, 187500.00, 187500.00, 187500.00, -187500.02, -187500.02, 187500.00, 0.000, 0.000, 0.000, 15:29:55.035
67, -9526.96, 36908.59, 187500.00, 187500.00, 187500.00, -187500.02, -187500.02, 187500.00, 0.000, 0.000, 0.000, 15:29:55.036
68, -9528.30, 37020.05, 187500.00, 187500.00, 187500.00, -187500.02, -187500.02, 187500.00, 0.000, 0.000, 0.000, 15:29:55.036
69, -9497.10, 37196.32, 187500.00, 187500.00, 187500.00, -187500.02, -187500.02, 187500.00, 0.000, 0.000, 0.000, 15:29:55.036
70, -9484.76, 37159.19, 187500.00, 187500.00, 187500.00, -187500.02, -187500.02, 187500.00, 0.008, -0.176, 1.012, 15:29:55.036
71, -9495.87, 37071.69, 187500.00, 187500.00, 187500.00, -187500.02, -187500.02, 187500.00, 0.000, 0.000, 0.000, 15:29:55.036
72, -9499.98, 36938.04, 187500.00, 187500.00, 187500.00, -187500.02, -187500.02, 187500.00, 0.000, 0.000, 0.000, 15:29:55.036
73, -9536.86, 37015.38, 187500.00, 187500.00, 187500.00, -187500.02, -187500.02, 187500.00, 0.000, 0.000, 0.000, 15:29:55.036
74, -9525.67, 37165.77, 187500.00, 187500.00, 187500.00, -187500.02, -187500.02, 187500.00, 0.000, 0.000, 0.000, 15:29:55.037
75, -9475.89, 37170.41, 187500.00, 187500.00, 187500.00, -187500.02, -187500.02, 187500.00, 0.000, 0.000, 0.000, 15:29:55.037
76, -9481.14, 37096.43, 187500.00, 187500.00, 187500.00, -187500.02, -187500.02, 187500.00, 0.000, 0.000, 0.000, 15:29:55.037
77, -9500.50, 36952.28, 187500.00, 187500.00, 187500.00, -187500.02, -187500.02, 187500.00, 0.000, 0.000, 0.000, 15:29:55.037
78, -9524.93, 37025.51, 187500.00, 187500.00, 187500.00, -187500.02, -187500.02, 187500.00, 0.000, 0.000, 0.000, 15:29:55.037
79, -9513.55, 37178.50, 187500.00, 187500.00, 187500.00, -187500.02, -187500.02, 187500.00, 0.000, 0.000, 0.000, 15:29:55.037
80, -9483.89, 37169.41, 187500.00, 187500.00, 187500.00, -187500.02, -187500.02, 187500.00, 0.002, -0.176, 1.012, 15:29:55.037
81, -9491.24, 37094.75, 187500.00, 187500.00, 187500.00, -187500.02, -187500.02, 187500.00, 0.000, 0.000, 0.000, 15:29:55.037
82, -9490.53, 36964.55, 187500.00, 187500.00, 187500.00, -187500.02, -187500.02, 187500.00, 0.000, 0.000, 0.000, 15:29:55.038
83, -9526.94, 37031.09, 187500.00, 187500.00, 187500.00, -187500.02, -187500.02, 187500.00, 0.000, 0.000, 0.000, 15:29:55.038
84, -9519.25, 37179.42, 187500.00, 187500.00, 187500.00, -187500.02, -187500.02, 187500.00, 0.000, 0.000, 0.000, 15:29:55.038
85, -9478.15, 37181.86, 187500.00, 187500.00, 187500.00, -187500.02, -187500.02, 187500.00, 0.000, 0.000, 0.000, 15:29:55.038
86, -9487.62, 37098.44, 187500.00, 187500.00, 187500.00, -187500.02, -187500.02, 187500.00, 0.000, 0.000, 0.000, 15:29:55.038
87, -9492.83, 36958.12, 187500.00, 187500.00, 187500.00, -187500.02, -187500.02, 187500.00, 0.000, 0.000, 0.000, 15:29:55.038
88, -9523.09, 37034.20, 187500.00, 187500.00, 187500.00, -187500.02, -187500.02, 187500.00, 0.000, 0.000, 0.000, 15:29:55.038
89, -9492.25, 37217.13, 187500.00, 187500.00, 187500.00, -187500.02, -187500.02, 187500.00, 0.002, -0.180, 1.012, 15:29:55.038
90, -9457.94, 37200.83, 187500.00, 187500.00, 187500.00, -187500.02, -187500.02, 187500.00, 0.000, 0.000, 0.000, 15:29:55.504
91, -9481.01, 37103.25, 187500.00, 187500.00, 187500.00, -187500.02, -187500.02, 187500.00, 0.000, 0.000, 0.000, 15:29:55.504
92, -9492.38, 36955.70, 187500.00, 187500.00, 187500.00, -187500.02, -187500.02, 187500.00, 0.000, 0.000, 0.000, 15:29:55.505
93, -9515.65, 37032.79, 187500.00, 187500.00, 187500.00, -187500.02, -187500.02, 187500.00, 0.000, 0.000, 0.000, 15:29:55.505
94, -9496.07, 37202.22, 187500.00, 187500.00, 187500.00, -187500.02, -187500.02, 187500.00, 0.000, 0.000, 0.000, 15:29:55.505
95, -9455.37, 37197.70, 187500.00, 187500.00, 187500.00, -187500.02, -187500.02, 187500.00, 0.000, 0.000, 0.000, 15:29:55.505
96, -9478.70, 37095.47, 187500.00, 187500.00, 187500.00, -187500.02, -187500.02, 187500.00, 0.000, 0.000, 0.000, 15:29:55.505
97, -9493.55, 36937.75, 187500.00, 187500.00, 187500.00, -187500.02, -187500.02, 187500.00, 0.000, 0.000, 0.000, 15:29:55.505
98, -9522.76, 37006.66, 187500.00, 187500.00, 187500.00, -187500.02, -187500.02, 187500.00, 0.000, 0.000, 0.000, 15:29:55.506
99, -9503.49, 37178.55, 187500.00, 187500.00, 187500.00, -187500.02, -187500.02, 187500.00, -0.004, -0.180, 1.010, 15:29:55.506
100, -9460.53, 37180.52, 187500.00, 187500.00, 187500.00, -187500.02, -187500.02, 187500.00, 0.000, 0.000, 0.000, 15:29:55.506
101, -9491.98, 37058.48, 187500.00, 187500.00, 187500.00, -187500.02, -187500.02, 187500.00, 0.000, 0.000, 0.000, 15:29:55.506
102, -9493.05, 36901.84, 187500.00, 187500.00, 187500.00, -187500.02, -187500.02, 187500.00, 0.000, 0.000, 0.000, 15:29:55.506
103, -9512.54, 36982.43, 187500.00, 187500.00, 187500.00, -187500.02, -187500.02, 187500.00, 0.000, 0.000, 0.000, 15:29:55.507
104, -9513.48, 37140.46, 187500.00, 187500.00, 187500.00, -187500.02, -187500.02, 187500.00, 0.000, 0.000, 0.000, 15:29:55.507
105, -9484.31, 37116.72, 187500.00, 187500.00, 187500.00, -187500.02, -187500.02, 187500.00, 0.000, 0.000, 0.000, 15:29:55.507
106, -9487.00, 37015.58, 187500.00, 187500.00, 187500.00, -187500.02, -187500.02, 187500.00, 0.000, 0.000, 0.000, 15:29:55.507
107, -9456.40, 36870.23, 187500.00, 187500.00, 187500.00, -187500.02, -187500.02, 187500.00, 0.000, 0.000, 0.000, 15:29:55.507
108, -9490.64, 36935.77, 187500.00, 187500.00, 187500.00, -187500.02, -187500.02, 187500.00, 0.000, 0.000, 0.000, 15:29:55.507
109, -9503.98, 37108.90, 187500.00, 187500.00, 187500.00, -187500.02, -187500.02, 187500.00, -0.010, -0.176, 1.012, 15:29:55.507
110, -9460.69, 37106.04, 187500.00, 187500.00, 187500.00, -187500.02, -187500.02, 187500.00, 0.000, 0.000, 0.000, 15:29:55.507
111, -9454.16, 37018.02, 187500.00, 187500.00, 187500.00, -187500.02, -187500.02, 187500.00, 0.000, 0.000, 0.000, 15:29:55.507
112, -9430.31, 36869.89, 187500.00, 187500.00, 187500.00, -187500.02, -187500.02, 187500.00, 0.000, 0.000, 0.000, 15:29:55.508
113, -9482.82, 36950.14, 187500.00, 187500.00, 187500.00, -187500.02, -187500.02, 187500.00, 0.000, 0.000, 0.000, 15:29:55.508
114, -9518.83, 37127.23, 187500.00, 187500.00, 187500.00, -187500.02, -187500.02, 187500.00, 0.000, 0.000, 0.000, 15:29:55.508
115, -9483.60, 37112.23, 187500.00, 187500.00, 187500.00, -187500.02, -187500.02, 187500.00, 0.000, 0.000, 0.000, 15:29:55.508
116, -9472.98, 37025.53, 187500.00, 187500.00, 187500.00, -187500.02, -187500.02, 187500.00, 0.000, 0.000, 0.000, 15:29:55.508
117, -9430.40, 36884.42, 187500.00, 187500.00, 187500.00, -187500.02, -187500.02, 187500.00, 0.000, 0.000, 0.000, 15:29:55.508
118, -9485.07, 36967.50, 187500.00, 187500.00, 187500.00, -187500.02, -187500.02, 187500.00, 0.000, 0.000, 0.000, 15:29:55.508
119, -9537.42, 37135.01, 187500.00, 187500.00, 187500.00, -187500.02, -187500.02, 187500.00, -0.004, -0.178, 1.010, 15:29:55.508
120, -9476.85, 37131.19, 187500.00, 187500.00, 187500.00, -187500.02, -187500.02, 187500.00, 0.000, 0.000, 0.000, 15:29:55.508
121, -9430.36, 37045.60, 187500.00, 187500.00, 187500.00, -187500.02, -187500.02, 187500.00, 0.000, 0.000, 0.000, 15:29:55.509
122, -9391.29, 36858.23, 187500.00, 187500.00, 187500.00, -187500.02, -187500.02, 187500.00, 0.000, 0.000, 0.000, 15:29:55.509
123, -9465.54, 36911.11, 187500.00, 187500.00, 187500.00, -187500.02, -187500.02, 187500.00, 0.000, 0.000, 0.000, 15:29:55.509
124, -9501.30, 37116.55, 187500.00, 187500.00, 187500.00, -187500.02, -187500.02, 187500.00, 0.000, 0.000, 0.000, 15:29:55.509
125, -9440.15, 37122.91, 187500.00, 187500.00, 187500.00, -187500.02, -187500.02, 187500.00, 0.000, 0.000, 0.000, 15:29:55.509
126, -9432.59, 36999.54, 187500.00, 187500.00, 187500.00, -187500.02, -187500.02, 187500.00, 0.000, 0.000, 0.000, 15:29:55.509
127, -9392.58, 36797.41, 187500.00, 187500.00, 187500.00, -187500.02, -187500.02, 187500.00, 0.000, 0.000, 0.000, 15:29:55.509
128, -9470.61, 36891.08, 187500.00, 187500.00, 187500.00, -187500.02, -187500.02, 187500.00, 0.000, 0.000, 0.000, 15:29:55.509
129, -9527.74, 37125.40, 187500.00, 187500.00, 187500.00, -187500.02, -187500.02, 187500.00, -0.004, -0.176, 1.012, 15:29:55.510
130, -9454.94, 37104.18, 187500.00, 187500.00, 187500.00, -187500.02, -187500.02, 187500.00, 0.000, 0.000, 0.000, 15:29:55.510
131, -9407.54, 36978.90, 187500.00, 187500.00, 187500.00, -187500.02, -187500.02, 187500.00, 0.000, 0.000, 0.000, 15:29:55.510
132, -9351.43, 36758.96, 187500.00, 187500.00, 187500.00, -187500.02, -187500.02, 187500.00, 0.000, 0.000, 0.000, 15:29:55.510
133, -9476.71, 36840.05, 187500.00, 187500.00, 187500.00, -187500.02, -187500.02, 187500.00, 0.000, 0.000, 0.000, 15:29:55.510
134, -9549.87, 37122.85, 187500.00, 187500.00, 187500.00, -187500.02, -187500.02, 187500.00, 0.000, 0.000, 0.000, 15:29:55.510
135, -9505.10, 37131.86, 187500.00, 187500.00, 187500.00, -187500.02, -187500.02, 187500.00, 0.000, 0.000, 0.000, 15:29:55.510
136, -9512.63, 37057.83, 187500.00, 187500.00, 187500.00, -187500.02, -187500.02, 187500.00, 0.000, 0.000, 0.000, 15:29:55.510
137, -9413.41, 36872.51, 187500.00, 187500.00, 187500.00, -187500.02, -187500.02, 187500.00, 0.000, 0.000, 0.000, 15:29:55.510
138, -9511.49, 36945.11, 187500.00, 187500.00, 187500.00, -187500.02, -187500.02, 187500.00, 0.000, 0.000, 0.000, 15:29:55.511
139, -9603.20, 37190.26, 187500.00, 187500.00, 187500.00, -187500.02, -187500.02, 187500.00, 0.002, -0.182, 1.014, 15:29:55.511
140, -9492.36, 37200.30, 187500.00, 187500.00, 187500.00, -187500.02, -187500.02, 187500.00, 0.000, 0.000, 0.000, 15:29:55.511
141, -9426.67, 37077.65, 187500.00, 187500.00, 187500.00, -187500.02, -187500.02, 187500.00, 0.000, 0.000, 0.000, 15:29:55.511
142, -9346.34, 36847.83, 187500.00, 187500.00, 187500.00, -187500.02, -187500.02, 187500.00, 0.000, 0.000, 0.000, 15:29:55.511
143, -9477.47, 36908.88, 187500.00, 187500.00, 187500.00, -187500.02, -187500.02, 187500.00, 0.000, 0.000, 0.000, 15:29:55.511
144, -9578.33, 37187.36, 187500.00, 187500.00, 187500.00, -187500.02, -187500.02, 187500.00, 0.000, 0.000, 0.000, 15:29:55.511
145, -9495.36, 37203.49, 187500.00, 187500.00, 187500.00, -187500.02, -187500.02, 187500.00, 0.000, 0.000, 0.000, 15:29:55.511
146, -9441.98, 37075.46, 187500.00, 187500.00, 187500.00, -187500.02, -187500.02, 187500.00, 0.000, 0.000, 0.000, 15:29:55.512
147, -9350.45, 36856.30, 187500.00, 187500.00, 187500.00, -187500.02, -187500.02, 187500.00, 0.000, 0.000, 0.000, 15:29:55.512
148, -9486.46, 36918.06, 187500.00, 187500.00, 187500.00, -187500.02, -187500.02, 187500.00, 0.000, 0.000, 0.000, 15:29:55.512
149, -9607.50, 37174.93, 187500.00, 187500.00, 187500.00, -187500.02, -187500.02, 187500.00, 0.002, -0.176, 1.012, 15:29:55.512
150, -9506.51, 37204.59, 187500.00, 187500.00, 187500.00, -187500.02, -187500.02, 187500.00, 0.000, 0.000, 0.000, 15:29:55.512
151, -9425.78, 37093.28, 187500.00, 187500.00, 187500.00, -187500.02, -187500.02, 187500.00, 0.000, 0.000, 0.000, 15:29:55.512
152, -9331.27, 36864.57, 187500.00, 187500.00, 187500.00, -187500.02, -187500.02, 187500.00, 0.000, 0.000, 0.000, 15:29:55.512
153, -9464.02, 36932.32, 187500.00, 187500.00, 187500.00, -187500.02, -187500.02, 187500.00, 0.000, 0.000, 0.000, 15:29:55.512
154, -9591.11, 37199.67, 187500.00, 187500.00, 187500.00, -187500.02, -187500.02, 187500.00, 0.000, 0.000, 0.000, 15:29:55.513
155, -9523.68, 37231.77, 187500.00, 187500.00, 187500.00, -187500.02, -187500.02, 187500.00, 0.000, 0.000, 0.000, 15:29:55.513
156, -9498.26, 37183.40, 187500.00, 187500.00, 187500.00, -187500.02, -187500.02, 187500.00, 0.000, 0.000, 0.000, 15:29:55.513
157, -9470.37, 37036.88, 187500.00, 187500.00, 187500.00, -187500.02, -187500.02, 187500.00, 0.000, 0.000, 0.000, 15:29:55.513
158, -9576.09, 37080.83, 187500.00, 187500.00, 187500.00, -187500.02, -187500.02, 187500.00, 0.000, 0.000, 0.000, 15:29:55.513
159, -9559.93, 37283.13, 187500.00, 187500.00, 187500.00, -187500.02, -187500.02, 187500.00, -0.002, -0.174, 1.010, 15:29:55.513
160, -9444.68, 37258.30, 187500.00, 187500.00, 187500.00, -187500.02, -187500.02, 187500.00, 0.000, 0.000, 0.000, 15:29:55.513
161, -9430.00, 37105.50, 187500.00, 187500.00, 187500.00, -187500.02, -187500.02, 187500.00, 0.000, 0.000, 0.000, 15:29:55.513
162, -9380.40, 36888.96, 187500.00, 187500.00, 187500.00, -187500.02, -187500.02, 187500.00, 0.000, 0.000, 0.000, 15:29:55.514
163, -9507.56, 36952.75, 187500.00, 187500.00, 187500.00, -187500.02, -187500.02, 187500.00, 0.000, 0.000, 0.000, 15:29:55.514
164, -9594.60, 37242.25, 187500.00, 187500.00, 187500.00, -187500.02, -187500.02, 187500.00, 0.000, 0.000, 0.000, 15:29:55.514
165, -9484.43, 37243.28, 187500.00, 187500.00, 187500.00, -187500.02, -187500.02, 187500.00, 0.000, 0.000, 0.000, 15:29:55.514
166, -9419.58, 37103.54, 187500.00, 187500.00, 187500.00, -187500.02, -187500.02, 187500.00, 0.000, 0.000, 0.000, 15:29:55.514
167, -9330.31, 36849.46, 187500.00, 187500.00, 187500.00, -187500.02, -187500.02, 187500.00, 0.000, 0.000, 0.000, 15:29:55.514
168, -9480.18, 36896.49, 187500.00, 187500.00, 187500.00, -187500.02, -187500.02, 187500.00, 0.000, 0.000, 0.000, 15:29:55.514
169, -9631.46, 37170.44, 187500.00, 187500.00, 187500.00, -187500.02, -187500.02, 187500.00, 0.000, -0.174, 1.004, 15:29:55.514
170, -9506.80, 37215.12, 187500.00, 187500.00, 187500.00, -187500.02, -187500.02, 187500.00, 0.000, 0.000, 0.000, 15:29:55.514
171, -9425.24, 37100.86, 187500.00, 187500.00, 187500.00, -187500.02, -187500.02, 187500.00, 0.000, 0.000, 0.000, 15:29:55.515
172, -9327.43, 36856.33, 187500.00, 187500.00, 187500.00, -187500.02, -187500.02, 187500.00, 0.000, 0.000, 0.000, 15:29:55.515
173, -9453.65, 36918.62, 187500.00, 187500.00, 187500.00, -187500.02, -187500.02, 187500.00, 0.000, 0.000, 0.000, 15:29:55.515
174, -9601.28, 37198.02, 187500.00, 187500.00, 187500.00, -187500.02, -187500.02, 187500.00, 0.000, 0.000, 0.000, 15:29:55.515
175, -9501.08, 37221.87, 187500.00, 187500.00, 187500.00, -187500.02, -187500.02, 187500.00, 0.000, 0.000, 0.000, 15:29:55.515
176, -9429.17, 37095.54, 187500.00, 187500.00, 187500.00, -187500.02, -187500.02, 187500.00, 0.000, 0.000, 0.000, 15:29:55.515
177, -9332.46, 36849.13, 187500.00, 187500.00, 187500.00, -187500.02, -187500.02, 187500.00, 0.000, 0.000, 0.000, 15:29:55.515
178, -9485.70, 36880.09, 187500.00, 187500.00, 187500.00, -187500.02, -187500.02, 187500.00, 0.000, 0.000, 0.000, 15:29:55.515
179, -9618.92, 37201.93, 187500.00, 187500.00, 187500.00, -187500.02, -187500.02, 187500.00, 0.004, -0.178, 1.010, 15:29:55.516
180, -9511.54, 37238.86, 187500.00, 187500.00, 187500.00, -187500.02, -187500.02, 187500.00, 0.000, 0.000, 0.000, 15:29:55.516
181, -9441.47, 37110.67, 187500.00, 187500.00, 187500.00, -187500.02, -187500.02, 187500.00, 0.000, 0.000, 0.000, 15:29:55.516
182, -9340.66, 36859.66, 187500.00, 187500.00, 187500.00, -187500.02, -187500.02, 187500.00, 0.000, 0.000, 0.000, 15:29:55.516
183, -9491.09, 36886.17, 187500.00, 187500.00, 187500.00, -187500.02, -187500.02, 187500.00, 0.000, 0.000, 0.000, 15:29:55.516
184, -9641.54, 37191.85, 187500.00, 187500.00, 187500.00, -187500.02, -187500.02, 187500.00, 0.000, 0.000, 0.000, 15:29:55.516
185, -9517.80, 37235.05, 187500.00, 187500.00, 187500.00, -187500.02, -187500.02, 187500.00, 0.000, 0.000, 0.000, 15:29:55.516
186, -9422.36, 37126.80, 187500.00, 187500.00, 187500.00, -187500.02, -187500.02, 187500.00, 0.000, 0.000, 0.000, 15:29:55.516
187, -9312.23, 36874.92, 187500.00, 187500.00, 187500.00, -187500.02, -187500.02, 187500.00, 0.000, 0.000, 0.000, 15:29:55.517
188, -9477.74, 36888.18, 187500.00, 187500.00, 187500.00, -187500.02, -187500.02, 187500.00, 0.000, 0.000, 0.000, 15:29:55.517
189, -9661.12, 37163.26, 187500.00, 187500.00, 187500.00, -187500.02, -187500.02, 187500.00, 0.002, -0.178, 1.010, 15:29:55.517
190, -9530.67, 37226.76, 187500.00, 187500.00, 187500.00, -187500.02, -187500.02, 187500.00, 0.000, 0.000, 0.000, 15:29:55.517
191, -9439.19, 37119.41, 187500.00, 187500.00, 187500.00, -187500.02, -187500.02, 187500.00, 0.000, 0.000, 0.000, 15:29:55.517
192, -9319.20, 36870.61, 187500.00, 187500.00, 187500.00, -187500.02, -187500.02, 187500.00, 0.000, 0.000, 0.000, 15:29:55.517
193, -9475.06, 36873.47, 187500.00, 187500.00, 187500.00, -187500.02, -187500.02, 187500.00, 0.000, 0.000, 0.000, 15:29:55.517
194, -9647.21, 37174.64, 187500.00, 187500.00, 187500.00, -187500.02, -187500.02, 187500.00, 0.000, 0.000, 0.000, 15:29:55.517
195, -9524.61, 37225.00, 187500.00, 187500.00, 187500.00, -187500.02, -187500.02, 187500.00, 0.000, 0.000, 0.000, 15:29:55.518
196, -9449.36, 37094.60, 187500.00, 187500.00, 187500.00, -187500.02, -187500.02, 187500.00, 0.000, 0.000, 0.000, 15:29:55.518
197, -9317.41, 36865.45, 187500.00, 187500.00, 187500.00, -187500.02, -187500.02, 187500.00, 0.000, 0.000, 0.000, 15:29:55.518
198, -9484.22, 36890.59, 187500.00, 187500.00, 187500.00, -187500.02, -187500.02, 187500.00, 0.000, 0.000, 0.000, 15:29:55.518
199, -9657.83, 37195.27, 187500.00, 187500.00, 187500.00, -187500.02, -187500.02, 187500.00, 0.006, -0.172, 1.014, 15:29:55.518
200, -9523.14, 37229.09, 187500.00, 187500.00, 187500.00, -187500.02, -187500.02, 187500.00, 0.000, 0.000, 0.000, 15:29:55.518
201, -9451.61, 37092.56, 187500.00, 187500.00, 187500.00, -187500.02, -187500.02, 187500.00, 0.000, 0.000, 0.000, 15:29:55.518
202, -9316.07, 36855.10, 187500.00, 187500.00, 187500.00, -187500.02, -187500.02, 187500.00, 0.000, 0.000, 0.000, 15:29:55.518
203, -9457.13, 36881.47, 187500.00, 187500.00, 187500.00, -187500.02, -187500.02, 187500.00, 0.000, 0.000, 0.000, 15:29:55.519
204, -9645.02, 37194.55, 187500.00, 187500.00, 187500.00, -187500.02, -187500.02, 187500.00, 0.000, 0.000, 0.000, 15:29:55.519
205, -9520.14, 37258.52, 187500.00, 187500.00, 187500.00, -187500.02, -187500.02, 187500.00, 0.000, 0.000, 0.000, 15:29:55.519
206, -9422.89, 37134.96, 187500.00, 187500.00, 187500.00, -187500.02, -187500.02, 187500.00, 0.000, 0.000, 0.000, 15:29:55.519
207, -9300.69, 36872.26, 187500.00, 187500.00, 187500.00, -187500.02, -187500.02, 187500.00, 0.000, 0.000, 0.000, 15:29:55.519
208, -9469.36, 36863.19, 187500.00, 187500.00, 187500.00, -187500.02, -187500.02, 187500.00, 0.006, -0.172, 1.012, 15:29:55.519
209, -9668.60, 37163.60, 187500.00, 187500.00, 187500.00, -187500.02, -187500.02, 187500.00, 0.000, 0.000, 0.000, 15:29:55.519
210, -9534.61, 37237.89, 187500.00, 187500.00, 187500.00, -187500.02, -187500.02, 187500.00, 0.000, 0.000, 0.000, 15:29:55.985
211, -9414.58, 37139.86, 187500.00, 187500.00, 187500.00, -187500.02, -187500.02, 187500.00, 0.000, 0.000, 0.000, 15:29:55.985
212, -9278.66, 36887.02, 187500.00, 187500.00, 187500.00, -187500.02, -187500.02, 187500.00, 0.000, 0.000, 0.000, 15:29:55.986
213, -9442.90, 36865.76, 187500.00, 187500.00, 187500.00, -187500.02, -187500.02, 187500.00, 0.000, 0.000, 0.000, 15:29:55.986
214, -9655.46, 37162.77, 187500.00, 187500.00, 187500.00, -187500.02, -187500.02, 187500.00, 0.000, 0.000, 0.000, 15:29:55.986
215, -9525.93, 37233.87, 187500.00, 187500.00, 187500.00, -187500.02, -187500.02, 187500.00, 0.000, 0.000, 0.000, 15:29:55.986
216, -9425.82, 37117.60, 187500.00, 187500.00, 187500.00, -187500.02, -187500.02, 187500.00, 0.000, 0.000, 0.000, 15:29:55.986
217, -9277.27, 36873.09, 187500.00, 187500.00, 187500.00, -187500.02, -187500.02, 187500.00, 0.000, 0.000, 0.000, 15:29:55.986
218, -9430.76, 36854.32, 187500.00, 187500.00, 187500.00, -187500.02, -187500.02, 187500.00, 0.006, -0.178, 1.010, 15:29:55.987
219, -9643.48, 37162.75, 187500.00, 187500.00, 187500.00, -187500.02, -187500.02, 187500.00, 0.000, 0.000, 0.000, 15:29:55.987
220, -9520.46, 37229.87, 187500.00, 187500.00, 187500.00, -187500.02, -187500.02, 187500.00, 0.000, 0.000, 0.000, 15:29:55.987
221, -9425.31, 37109.37, 187500.00, 187500.00, 187500.00, -187500.02, -187500.02, 187500.00, 0.000, 0.000, 0.000, 15:29:55.987
222, -9279.01, 36866.05, 187500.00, 187500.00, 187500.00, -187500.02, -187500.02, 187500.00, 0.000, 0.000, 0.000, 15:29:55.987
223, -9418.33, 36869.38, 187500.00, 187500.00, 187500.00, -187500.02, -187500.02, 187500.00, 0.000, 0.000, 0.000, 15:29:55.987
224, -9620.24, 37194.26, 187500.00, 187500.00, 187500.00, -187500.02, -187500.02, 187500.00, 0.000, 0.000, 0.000, 15:29:55.987
225, -9514.58, 37243.84, 187500.00, 187500.00, 187500.00, -187500.02, -187500.02, 187500.00, 0.000, 0.000, 0.000, 15:29:55.987
226, -9423.00, 37126.87, 187500.00, 187500.00, 187500.00, -187500.02, -187500.02, 187500.00, 0.000, 0.000, 0.000, 15:29:55.988
227, -9276.96, 36869.96, 187500.00, 187500.00, 187500.00, -187500.02, -187500.02, 187500.00, 0.000, 0.000, 0.000, 15:29:55.988
228, -9410.35, 36862.27, 187500.00, 187500.00, 187500.00, -187500.02, -187500.02, 187500.00, 0.002, -0.182, 1.014, 15:29:55.988
229, -9627.50, 37175.73, 187500.00, 187500.00, 187500.00, -187500.02, -187500.02, 187500.00, 0.000, 0.000, 0.000, 15:29:55.988
230, -9512.75, 37242.23, 187500.00, 187500.00, 187500.00, -187500.02, -187500.02, 187500.00, 0.000, 0.000, 0.000, 15:29:55.988
231, -9414.82, 37124.93, 187500.00, 187500.00, 187500.00, -187500.02, -187500.02, 187500.00, 0.000, 0.000, 0.000, 15:29:55.988
232, -9264.93, 36891.39, 187500.00, 187500.00, 187500.00, -187500.02, -187500.02, 187500.00, 0.000, 0.000, 0.000, 15:29:55.988
233, -9413.86, 36862.12, 187500.00, 187500.00, 187500.00, -187500.02, -187500.02, 187500.00, 0.000, 0.000, 0.000, 15:29:55.988
234, -9657.16, 37145.58, 187500.00, 187500.00, 187500.00, -187500.02, -187500.02, 187500.00, 0.000, 0.000, 0.000, 15:29:55.989
235, -9533.55, 37228.44, 187500.00, 187500.00, 187500.00, -187500.02, -187500.02, 187500.00, 0.000, 0.000, 0.000, 15:29:55.989
236, -9408.45, 37140.13, 187500.00, 187500.00, 187500.00, -187500.02, -187500.02, 187500.00, 0.000, 0.000, 0.000, 15:29:55.989
237, -9281.47, 36867.37, 187500.00, 187500.00, 187500.00, -187500.02, -187500.02, 187500.00, 0.000, 0.000, 0.000, 15:29:55.989
238, -9437.78, 36831.54, 187500.00, 187500.00, 187500.00, -187500.02, -187500.02, 187500.00, 0.000, -0.168, 1.014, 15:29:55.989
239, -9644.60, 37156.80, 187500.00, 187500.00, 187500.00, -187500.02, -187500.02, 187500.00, 0.000, 0.000, 0.000, 15:29:55.989
240, -9510.53, 37242.79, 187500.00, 187500.00, 187500.00, -187500.02, -187500.02, 187500.00, 0.000, 0.000, 0.000, 15:29:55.989
241, -9396.99, 37142.70, 187500.00, 187500.00, 187500.00, -187500.02, -187500.02, 187500.00, 0.000, 0.000, 0.000, 15:29:55.989
242, -9264.28, 36877.16, 187500.00, 187500.00, 187500.00, -187500.02, -187500.02, 187500.00, 0.000, 0.000, 0.000, 15:29:55.990
243, -9415.49, 36843.39, 187500.00, 187500.00, 187500.00, -187500.02, -187500.02, 187500.00, 0.000, 0.000, 0.000, 15:29:55.990
244, -9648.08, 37141.00, 187500.00, 187500.00, 187500.00, -187500.02, -187500.02, 187500.00, 0.000, 0.000, 0.000, 15:29:55.990
245, -9537.18, 37212.77, 187500.00, 187500.00, 187500.00, -187500.02, -187500.02, 187500.00, 0.000, 0.000, 0.000, 15:29:55.990
246, -9424.17, 37112.12, 187500.00, 187500.00, 187500.00, -187500.02, -187500.02, 187500.00, 0.000, 0.000, 0.000, 15:29:55.990
247, -9262.21, 36874.07, 187500.00, 187500.00, 187500.00, -187500.02, -187500.02, 187500.00, 0.000, 0.000, 0.000, 15:29:55.990
248, -9385.34, 36858.56, 187500.00, 187500.00, 187500.00, -187500.02, -187500.02, 187500.00, 0.004, -0.178, 1.012, 15:29:55.990
249, -9629.73, 37160.80, 187500.00, 187500.00, 187500.00, -187500.02, -187500.02, 187500.00, 0.000, 0.000, 0.000, 15:29:55.990
250, -9534.36, 37220.53, 187500.00, 187500.00, 187500.00, -187500.02, -187500.02, 187500.00, 0.000, 0.000, 0.000, 15:29:55.991
251, -9413.26, 37130.14, 187500.00, 187500.00, 187500.00, -187500.02, -187500.02, 187500.00, 0.000, 0.000, 0.000, 15:29:55.991
252, -9257.56, 36888.85, 187500.00, 187500.00, 187500.00, -187500.02, -187500.02, 187500.00, 0.000, 0.000, 0.000, 15:29:55.991
253, -9385.90, 36865.07, 187500.00, 187500.00, 187500.00, -187500.02, -187500.02, 187500.00, 0.000, 0.000, 0.000, 15:29:55.991
254, -9621.78, 37174.05, 187500.00, 187500.00, 187500.00, -187500.02, -187500.02, 187500.00, 0.000, 0.000, 0.000, 15:29:55.991
255, -9522.16, 37242.14, 187500.00, 187500.00, 187500.00, -187500.02, -187500.02, 187500.00, 0.000, 0.000, 0.000, 15:29:55.991
0, -9432.75, 37116.41, 187500.00, 187500.00, 187500.00, -187500.02, -187500.02, 187500.00, 0.000, 0.000, 0.000, 15:29:55.991
1, -9281.20, 36866.90, 187500.00, 187500.00, 187500.00, -187500.02, -187500.02, 187500.00, 0.000, 0.000, 0.000, 15:29:55.991
2, -9396.20, 36849.33, 187500.00, 187500.00, 187500.00, -187500.02, -187500.02, 187500.00, -0.004, -0.176, 1.018, 15:29:55.992
3, -9631.84, 37167.46, 187500.00, 187500.00, 187500.00, -187500.02, -187500.02, 187500.00, 0.000, 0.000, 0.000, 15:29:55.992
4, -9538.18, 37236.57, 187500.00, 187500.00, 187500.00, -187500.02, -187500.02, 187500.00, 0.000, 0.000, 0.000, 15:29:55.992
5, -9439.97, 37120.73, 187500.00, 187500.00, 187500.00, -187500.02, -187500.02, 187500.00, 0.000, 0.000, 0.000, 15:29:55.992
6, -9303.06, 36866.14, 187500.00, 187500.00, 187500.00, -187500.02, -187500.02, 187500.00, 0.000, 0.000, 0.000, 15:29:55.992
7, -9417.04, 36833.82, 187500.00, 187500.00, 187500.00, -187500.02, -187500.02, 187500.00, 0.000, 0.000, 0.000, 15:29:55.992
8, -9634.38, 37163.77, 187500.00, 187500.00, 187500.00, -187500.02, -187500.02, 187500.00, 0.000, 0.000, 0.000, 15:29:55.992
9, -9536.06, 37238.09, 187500.00, 187500.00, 187500.00, -187500.02, -187500.02, 187500.00, 0.000, 0.000, 0.000, 15:29:55.992
10, -9427.12, 37141.89, 187500.00, 187500.00, 187500.00, -187500.02, -187500.02, 187500.00, 0.000, 0.000, 0.000, 15:29:55.993
11, -9309.57, 36862.12, 187500.00, 187500.00, 187500.00, -187500.02, -187500.02, 187500.00, 0.000, 0.000, 0.000, 15:29:55.993
12, -9409.73, 36835.02, 187500.00, 187500.00, 187500.00, -187500.02, -187500.02, 187500.00, -0.006, -0.178, 1.010, 15:29:55.993
13, -9640.82, 37159.15, 187500.00, 187500.00, 187500.00, -187500.02, -187500.02, 187500.00, 0.000, 0.000, 0.000, 15:29:55.993
14, -9526.34, 37252.71, 187500.00, 187500.00, 187500.00, -187500.02, -187500.02, 187500.00, 0.000, 0.000, 0.000, 15:29:55.993
15, -9420.95, 37144.64, 187500.00, 187500.00, 187500.00, -187500.02, -187500.02, 187500.00, 0.000, 0.000, 0.000, 15:29:55.993
16, -9284.45, 36873.74, 187500.00, 187500.00, 187500.00, -187500.02, -187500.02, 187500.00, 0.000, 0.000, 0.000, 15:29:55.993
17, -9398.64, 36837.15, 187500.00, 187500.00, 187500.00, -187500.02, -187500.02, 187500.00, 0.000, 0.000, 0.000, 15:29:55.993
18, -9630.38, 37172.94, 187500.00, 187500.00, 187500.00, -187500.02, -187500.02, 187500.00, 0.000, 0.000, 0.000, 15:29:55.994
19, -9528.01, 37258.61, 187500.00, 187500.00, 187500.00, -187500.02, -187500.02, 187500.00, 0.000, 0.000, 0.000, 15:29:55.994
20, -9410.73, 37161.81, 187500.00, 187500.00, 187500.00, -187500.02, -187500.02, 187500.00, 0.000, 0.000, 0.000, 15:29:55.994
21, -9288.31, 36873.74, 187500.00, 187500.00, 187500.00, -187500.02, -187500.02, 187500.00, 0.000, 0.000, 0.000, 15:29:55.994
22, -9405.86, 36826.24, 187500.00, 187500.00, 187500.00, -187500.02, -187500.02, 187500.00, 0.002, -0.174, 1.010, 15:29:55.994
23, -9616.21, 37178.44, 187500.00, 187500.00, 187500.00, -187500.02, -187500.02, 187500.00, 0.000, 0.000, 0.000, 15:29:55.994
24, -9509.93, 37268.45, 187500.00, 187500.00, 187500.00, -187500.02, -187500.02, 187500.00, 0.000, 0.000, 0.000, 15:29:55.994
25, -9408.54, 37159.42, 187500.00, 187500.00, 187500.00, -187500.02, -187500.02, 187500.00, 0.000, 0.000, 0.000, 15:29:55.994
26, -9285.07, 36887.51, 187500.00, 187500.00, 187500.00, -187500.02, -187500.02, 187500.00, 0.000, 0.000, 0.000, 15:29:55.994
27, -9401.81, 36832.34, 187500.00, 187500.00, 187500.00, -187500.02, -187500.02, 187500.00, 0.000, 0.000, 0.000, 15:29:55.995
28, -9609.89, 37186.89, 187500.00, 187500.00, 187500.00, -187500.02, -187500.02, 187500.00, 0.000, 0.000, 0.000, 15:29:55.995
29, -9504.18, 37278.84, 187500.00, 187500.00, 187500.00, -187500.02, -187500.02, 187500.00, 0.000, 0.000, 0.000, 15:29:55.995
30, -9410.42, 37166.50, 187500.00, 187500.00, 187500.00, -187500.02, -187500.02, 187500.00, 0.000, 0.000, 0.000, 15:29:55.995
31, -9287.13, 36894.26, 187500.00, 187500.00, 187500.00, -187500.02, -187500.02, 187500.00, 0.000, 0.000, 0.000, 15:29:55.995
32, -9389.41, 36847.65, 187500.00, 187500.00, 187500.00, -187500.02, -187500.02, 187500.00, 0.000, -0.174, 1.012, 15:29:55.995
33, -9614.87, 37185.07, 187500.00, 187500.00, 187500.00, -187500.02, -187500.02, 187500.00, 0.000, 0.000, 0.000, 15:29:55.995
34, -9509.13, 37282.71, 187500.00, 187500.00, 187500.00, -187500.02, -187500.02, 187500.00, 0.000, 0.000, 0.000, 15:29:55.995
35, -9393.54, 37184.07, 187500.00, 187500.00, 187500.00, -187500.02, -187500.02, 187500.00, 0.000, 0.000, 0.000, 15:29:55.996
36, -9273.83, 36908.88, 187500.00, 187500.00, 187500.00, -187500.02, -187500.02, 187500.00, 0.000, 0.000, 0.000, 15:29:55.996
37, -9382.79, 36852.55, 187500.00, 187500.00, 187500.00, -187500.02, -187500.02, 187500.00, 0.000, 0.000, 0.000, 15:29:55.996
38, -9601.39, 37195.80, 187500.00, 187500.00, 187500.00, -187500.02, -187500.02, 187500.00, 0.000, 0.000, 0.000, 15:29:55.996
39, -9501.28, 37293.64, 187500.00, 187500.00, 187500.00, -187500.02, -187500.02, 187500.00, 0.000, 0.000, 0.000, 15:29:55.996
40, -9398.37, 37181.66, 187500.00, 187500.00, 187500.00, -187500.02, -187500.02, 187500.00, 0.000, 0.000, 0.000, 15:29:55.996
41, -9277.56, 36904.36, 187500.00, 187500.00, 187500.00, -187500.02, -187500.02, 187500.00, 0.000, 0.000, 0.000, 15:29:55.996
42, -9378.93, 36843.14, 187500.00, 187500.00, 187500.00, -187500.02, -187500.02, 187500.00, -0.004, -0.172, 1.006, 15:29:55.996
43, -9589.66, 37196.12, 187500.00, 187500.00, 187500.00, -187500.02, -187500.02, 187500.00, 0.000, 0.000, 0.000, 15:29:55.996
44, -9491.20, 37288.81, 187500.00, 187500.00, 187500.00, -187500.02, -187500.02, 187500.00, 0.000, 0.000, 0.000, 15:29:55.997
45, -9407.42, 37163.98, 187500.00, 187500.00, 187500.00, -187500.02, -187500.02, 187500.00, 0.000, 0.000, 0.000, 15:29:55.997
46, -9279.75, 36897.36, 187500.00, 187500.00, 187500.00, -187500.02, -187500.02, 187500.00, 0.000, 0.000, 0.000, 15:29:55.997
47, -9374.01, 36844.77, 187500.00, 187500.00, 187500.00, -187500.02, -187500.02, 187500.00, 0.000, 0.000, 0.000, 15:29:55.997
48, -9599.27, 37181.99, 187500.00, 187500.00, 187500.00, -187500.02, -187500.02, 187500.00, 0.000, 0.000, 0.000, 15:29:55.997
49, -9499.83, 37284.34, 187500.00, 187500.00, 187500.00, -187500.02, -187500.02, 187500.00, 0.000, 0.000, 0.000, 15:29:55.997
50, -9392.67, 37182.89, 187500.00, 187500.00, 187500.00, -187500.02, -187500.02, 187500.00, 0.000, 0.000, 0.000, 15:29:55.997
51, -9279.82, 36894.88, 187500.00, 187500.00, 187500.00, -187500.02, -187500.02, 187500.00, 0.000, 0.000, 0.000, 15:29:55.997
52, -9364.55, 36846.27, 187500.00, 187500.00, 187500.00, -187500.02, -187500.02, 187500.00, -0.002, -0.176, 1.004, 15:29:55.998
53, -9590.66, 37187.33, 187500.00, 187500.00, 187500.00, -187500.02, -187500.02, 187500.00, 0.000, 0.000, 0.000, 15:29:55.998
54, -9500.14, 37283.45, 187500.00, 187500.00, 187500.00, -187500.02, -187500.02, 187500.00, 0.000, 0.000, 0.000, 15:29:55.998
55, -9388.83, 37183.22, 187500.00, 187500.00, 187500.00, -187500.02, -187500.02, 187500.00, 0.000, 0.000, 0.000, 15:29:55.998
56, -9267.61, 36913.08, 187500.00, 187500.00, 187500.00, -187500.02, -187500.02, 187500.00, 0.000, 0.000, 0.000, 15:29:55.998
57, -9357.58, 36849.89, 187500.00, 187500.00, 187500.00, -187500.02, -187500.02, 187500.00, 0.000, 0.000, 0.000, 15:29:55.998
58, -9570.55, 37198.87, 187500.00, 187500.00, 187500.00, -187500.02, -187500.02, 187500.00, 0.000, 0.000, 0.000, 15:29:55.998
59, -9485.41, 37289.46, 187500.00, 187500.00, 187500.00, -187500.02, -187500.02, 187500.00, 0.000, 0.000, 0.000, 15:29:55.998
60, -9394.77, 37166.03, 187500.00, 187500.00, 187500.00, -187500.02, -187500.02, 187500.00, 0.000, 0.000, 0.000, 15:29:55.998
61, -9270.54, 36896.20, 187500.00, 187500.00, 187500.00, -187500.02, -187500.02, 187500.00, -0.004, -0.180, 1.004, 15:29:55.999
62, -9354.90, 36824.86, 187500.00, 187500.00, 187500.00, -187500.02, -187500.02, 187500.00, 0.000, 0.000, 0.000, 15:29:55.999
63, -9577.88, 37175.73, 187500.00, 187500.00, 187500.00, -187500.02, -187500.02, 187500.00, 0.000, 0.000, 0.000, 15:29:55.999
64, -9490.55, 37286.42, 187500.00, 187500.00, 187500.00, -187500.02, -187500.02, 187500.00, 0.000, 0.000, 0.000, 15:29:55.999
65, -9386.23, 37178.62, 187500.00, 187500.00, 187500.00, -187500.02, -187500.02, 187500.00, 0.000, 0.000, 0.000, 15:29:55.999
66, -9267.39, 36905.03, 187500.00, 187500.00, 187500.00, -187500.02, -187500.02, 187500.00, 0.000, 0.000, 0.000, 15:29:55.999
67, -9347.10, 36837.62, 187500.00, 187500.00, 187500.00, -187500.02, -187500.02, 187500.00, 0.000, 0.000, 0.000, 15:29:55.999
68, -9573.18, 37188.56, 187500.00, 187500.00, 187500.00, -187500.02, -187500.02, 187500.00, 0.000, 0.000, 0.000, 15:29:55.999
69, -9492.58, 37295.18, 187500.00, 187500.00, 187500.00, -187500.02, -187500.02, 187500.00, 0.000, 0.000, 0.000, 15:29:56.000
70, -9391.55, 37183.29, 187500.00, 187500.00, 187500.00, -187500.02, -187500.02, 187500.00, 0.000, 0.000, 0.000, 15:29:56.000
71, -9277.25, 36912.07, 187500.00, 187500.00, 187500.00, -187500.02, -187500.02, 187500.00, 0.000, -0.178, 1.012, 15:29:56.000
72, -9355.37, 36838.33, 187500.00, 187500.00, 187500.00, -187500.02, -187500.02, 187500.00, 0.000, 0.000, 0.000, 15:29:56.000
73, -9575.89, 37195.80, 187500.00, 187500.00, 187500.00, -187500.02, -187500.02, 187500.00, 0.000, 0.000, 0.000, 15:29:56.000
74, -9489.01, 37305.06, 187500.00, 187500.00, 187500.00, -187500.02, -187500.02, 187500.00, 0.000, 0.000, 0.000, 15:29:56.465
75, -9375.13, 37208.81, 187500.00, 187500.00, 187500.00, -187500.02, -187500.02, 187500.00, 0.000, 0.000, 0.000, 15:29:56.465
76, -9256.71, 36940.50, 187500.00, 187500.00, 187500.00, -187500.02, -187500.02, 187500.00, 0.000, 0.000, 0.000, 15:29:56.465
77, -9338.25, 36856.13, 187500.00, 187500.00, 187500.00, -187500.02, -187500.02, 187500.00, 0.000, 0.000, 0.000, 15:29:56.465
78, -9564.51, 37203.74, 187500.00, 187500.00, 187500.00, -187500.02, -187500.02, 187500.00, 0.000, 0.000, 0.000, 15:29:56.466
79, -9481.30, 37315.75, 187500.00, 187500.00, 187500.00, -187500.02, -187500.02, 187500.00, 0.000, 0.000, 0.000, 15:29:56.466
80, -9379.33, 37207.92, 187500.00, 187500.00, 187500.00, -187500.02, -187500.02, 187500.00, 0.000, 0.000, 0.000, 15:29:56.466
81, -9268.96, 36935.95, 187500.00, 187500.00, 187500.00, -187500.02, -187500.02, 187500.00, 0.004, -0.180, 1.010, 15:29:56.466
82, -9339.74, 36854.67, 187500.00, 187500.00, 187500.00, -187500.02, -187500.02, 187500.00, 0.000, 0.000, 0.000, 15:29:56.466
83, -9564.62, 37203.81, 187500.00, 187500.00, 187500.00, -187500.02, -187500.02, 187500.00, 0.000, 0.000, 0.000, 15:29:56.466
84, -9481.63, 37320.08, 187500.00, 187500.00, 187500.00, -187500.02, -187500.02, 187500.00, 0.000, 0.000, 0.000, 15:29:56.467
85, -9384.33, 37212.43, 187500.00, 187500.00, 187500.00, -187500.02, -187500.02, 187500.00, 0.000, 0.000, 0.000, 15:29:56.467
86, -9267.84, 36944.23, 187500.00, 187500.00, 187500.00, -187500.02, -187500.02, 187500.00, 0.000, 0.000, 0.000, 15:29:56.467
87, -9348.97, 36844.35, 187500.00, 187500.00, 187500.00, -187500.02, -187500.02, 187500.00, 0.000, 0.000, 0.000, 15:29:56.467
88, -9568.40, 37198.62, 187500.00, 187500.00, 187500.00, -187500.02, -187500.02, 187500.00, 0.000, 0.000, 0.000, 15:29:56.467
89, -9489.03, 37317.18, 187500.00, 187500.00, 187500.00, -187500.02, -187500.02, 187500.00, 0.000, 0.000, 0.000, 15:29:56.468
90, -9387.13, 37220.62, 187500.00, 187500.00, 187500.00, -187500.02, -187500.02, 187500.00, 0.000, 0.000, 0.000, 15:29:56.468
91, -9274.21, 36945.91, 187500.00, 187500.00, 187500.00, -187500.02, -187500.02, 187500.00, 0.000, -0.180, 1.014, 15:29:56.468
92, -9349.42, 36847.03, 187500.00, 187500.00, 187500.00, -187500.02, -187500.02, 187500.00, 0.000, 0.000, 0.000, 15:29:56.468
93, -9573.79, 37201.10, 187500.00, 187500.00, 187500.00, -187500.02, -187500.02, 187500.00, 0.000, 0.000, 0.000, 15:29:56.468
94, -9479.17, 37334.68, 187500.00, 187500.00, 187500.00, -187500.02, -187500.02, 187500.00, 0.000, 0.000, 0.000, 15:29:56.468
95, -9382.77, 37220.41, 187500.00, 187500.00, 187500.00, -187500.02, -187500.02, 187500.00, 0.000, 0.000, 0.000, 15:29:56.469
96, -9264.57, 36955.73, 187500.00, 187500.00, 187500.00, -187500.02, -187500.02, 187500.00, 0.000, 0.000, 0.000, 15:29:56.469
97, -9327.03, 36857.80, 187500.00, 187500.00, 187500.00, -187500.02, -187500.02, 187500.00, 0.000, 0.000, 0.000, 15:29:56.469
98, -9552.02, 37212.59, 187500.00, 187500.00, 187500.00, -187500.02, -187500.02, 187500.00, 0.000, 0.000, 0.000, 15:29:56.469
99, -9480.00, 37340.91, 187500.00, 187500.00, 187500.00, -187500.02, -187500.02, 187500.00, 0.000, 0.000, 0.000, 15:29:56.469
100, -9385.21, 37220.14, 187500.00, 187500.00, 187500.00, -187500.02, -187500.02, 187500.00, 0.000, 0.000, 0.000, 15:29:56.470
101, -9261.98, 36961.22, 187500.00, 187500.00, 187500.00, -187500.02, -187500.02, 187500.00, -0.004, -0.178, 1.012, 15:29:56.470
102, -9325.39, 36861.85, 187500.00, 187500.00, 187500.00, -187500.02, -187500.02, 187500.00, 0.000, 0.000, 0.000, 15:29:56.470
103, -9556.40, 37203.88, 187500.00, 187500.00, 187500.00, -187500.02, -187500.02, 187500.00, 0.000, 0.000, 0.000, 15:29:56.470
104, -9476.09, 37346.99, 187500.00, 187500.00, 187500.00, -187500.02, -187500.02, 187500.00, 0.000, 0.000, 0.000, 15:29:56.470
105, -9382.57, 37238.16, 187500.00, 187500.00, 187500.00, -187500.02, -187500.02, 187500.00, 0.000, 0.000, 0.000, 15:29:56.470
106, -9259.61, 36978.73, 187500.00, 187500.00, 187500.00, -187500.02, -187500.02, 187500.00, 0.000, 0.000, 0.000, 15:29:56.471
107, -9322.44, 36874.43, 187500.00, 187500.00, 187500.00, -187500.02, -187500.02, 187500.00, 0.000, 0.000, 0.000, 15:29:56.471
108, -9559.24, 37219.59, 187500.00, 187500.00, 187500.00, -187500.02, -187500.02, 187500.00, 0.000, 0.000, 0.000, 15:29:56.471
109, -9486.59, 37345.96, 187500.00, 187500.00, 187500.00, -187500.02, -187500.02, 187500.00, 0.000, 0.000, 0.000, 15:29:56.471
110, -9384.47, 37239.97, 187500.00, 187500.00, 187500.00, -187500.02, -187500.02, 187500.00, 0.000, 0.000, 0.000, 15:29:56.471
111, -9266.81, 36987.55, 187500.00, 187500.00, 187500.00, -187500.02, -187500.02, 187500.00, -0.008, -0.182, 1.010, 15:29:56.472
112, -9323.99, 36884.91, 187500.00, 187500.00, 187500.00, -187500.02, -187500.02, 187500.00, 0.000, 0.000, 0.000, 15:29:56.472
113, -9562.17, 37224.91, 187500.00, 187500.00, 187500.00, -187500.02, -187500.02, 187500.00, 0.000, 0.000, 0.000, 15:29:56.472
114, -9486.53, 37361.36, 187500.00, 187500.00, 187500.00, -187500.02, -187500.02, 187500.00, 0.000, 0.000, 0.000, 15:29:56.472
115, -9377.14, 37267.42, 187500.00, 187500.00, 187500.00, -187500.02, -187500.02, 187500.00, 0.000, 0.000, 0.000, 15:29:56.472
116, -9268.28, 37005.19, 187500.00, 187500.00, 187500.00, -187500.02, -187500.02, 187500.00, 0.000, 0.000, 0.000, 15:29:56.473
117, -9327.00, 36890.91, 187500.00, 187500.00, 187500.00, -187500.02, -187500.02, 187500.00, 0.000, 0.000, 0.000, 15:29:56.473
118, -9566.66, 37229.49, 187500.00, 187500.00, 187500.00, -187500.02, -187500.02, 187500.00, 0.000, 0.000, 0.000, 15:29:56.473
119, -9513.04, 37354.93, 187500.00, 187500.00, 187500.00, -187500.02, -187500.02, 187500.00, 0.000, 0.000, 0.000, 15:29:56.473
120, -9410.53, 37257.54, 187500.00, 187500.00, 187500.00, -187500.02, -187500.02, 187500.00, 0.000, 0.000, 0.000, 15:29:56.473
121, -9288.92, 37009.21, 187500.00, 187500.00, 187500.00, -187500.02, -187500.02, 187500.00, -0.010, -0.174, 1.010, 15:29:56.473
122, -9327.65, 36901.86, 187500.00, 187500.00, 187500.00, -187500.02, -187500.02, 187500.00, 0.000, 0.000, 0.000, 15:29:56.474
123, -9573.21, 37223.05, 187500.00, 187500.00, 187500.00, -187500.02, -187500.02, 187500.00, 0.000, 0.000, 0.000, 15:29:56.474
124, -9505.66, 37361.18, 187500.00, 187500.00, 187500.00, -187500.02, -187500.02, 187500.00, 0.000, 0.000, 0.000, 15:29:56.474
125, -9401.28, 37265.99, 187500.00, 187500.00, 187500.00, -187500.02, -187500.02, 187500.00, 0.000, 0.000, 0.000, 15:29:56.474
126, -9291.31, 37013.44, 187500.00, 187500.00, 187500.00, -187500.02, -187500.02, 187500.00, 0.000, 0.000, 0.000, 15:29:56.474
127, -9327.38, 36913.86, 187500.00, 187500.00, 187500.00, -187500.02, -187500.02, 187500.00, 0.000, 0.000, 0.000, 15:29:56.474
128, -9565.47, 37234.43, 187500.00, 187500.00, 187500.00, -187500.02, -187500.02, 187500.00, 0.000, 0.000, 0.000, 15:29:56.475
129, -9498.11, 37379.13, 187500.00, 187500.00, 187500.00, -187500.02, -187500.02, 187500.00, 0.000, 0.000, 0.000, 15:29:56.475
130, -9402.28, 37275.20, 187500.00, 187500.00, 187500.00, -187500.02, -187500.02, 187500.00, 0.000, 0.000, 0.000, 15:29:56.475
131, -9294.66, 37026.29, 187500.00, 187500.00, 187500.00, -187500.02, -187500.02, 187500.00, -0.002, -0.174, 1.012, 15:29:56.475
132, -9333.31, 36919.92, 187500.00, 187500.00, 187500.00, -187500.02, -187500.02, 187500.00, 0.000, 0.000, 0.000, 15:29:56.475
133, -9564.27, 37234.45, 187500.00, 187500.00, 187500.00, -187500.02, -187500.02, 187500.00, 0.000, 0.000, 0.000, 15:29:56.476
134, -9504.32, 37368.38, 187500.00, 187500.00, 187500.00, -187500.02, -187500.02, 187500.00, 0.000, 0.000, 0.000, 15:29:56.476
135, -9394.04, 37287.09, 187500.00, 187500.00, 187500.00, -187500.02, -187500.02, 187500.00, 0.000, 0.000, 0.000, 15:29:56.476
136, -9289.61, 37048.66, 187500.00, 187500.00, 187500.00, -187500.02, -187500.02, 187500.00, 0.000, 0.000, 0.000, 15:29:56.476
137, -9340.17, 36919.85, 187500.00, 187500.00, 187500.00, -187500.02, -187500.02, 187500.00, 0.000, 0.000, 0.000, 15:29:56.476
138, -9575.98, 37222.11, 187500.00, 187500.00, 187500.00, -187500.02, -187500.02, 187500.00, 0.000, 0.000, 0.000, 15:29:56.476
139, -9505.62, 37380.52, 187500.00, 187500.00, 187500.00, -187500.02, -187500.02, 187500.00, 0.000, 0.000, 0.000, 15:29:56.476
140, -9404.41, 37283.42, 187500.00, 187500.00, 187500.00, -187500.02, -187500.02, 187500.00, 0.000, 0.000, 0.000, 15:29:56.477
141, -9297.57, 37043.57, 187500.00, 187500.00, 187500.00, -187500.02, -187500.02, 187500.00, 0.000, -0.178, 1.012, 15:29:56.477
142, -9342.34, 36915.04, 187500.00, 187500.00, 187500.00, -187500.02, -187500.02, 187500.00, 0.000, 0.000, 0.000, 15:29:56.477
143, -9572.60, 37215.99, 187500.00, 187500.00, 187500.00, -187500.02, -187500.02, 187500.00, 0.000, 0.000, 0.000, 15:29:56.477
144, -9526.18, 37354.43, 187500.00, 187500.00, 187500.00, -187500.02, -187500.02, 187500.00, 0.000, 0.000, 0.000, 15:29:56.477
145, -9414.31, 37281.90, 187500.00, 187500.00, 187500.00, -187500.02, -187500.02, 187500.00, 0.000, 0.000, 0.000, 15:29:56.477
146, -9316.45, 37042.29, 187500.00, 187500.00, 187500.00, -187500.02, -187500.02, 187500.00, 0.000, 0.000, 0.000, 15:29:56.477
147, -9361.78, 36910.13, 187500.00, 187500.00, 187500.00, -187500.02, -187500.02, 187500.00, 0.000, 0.000, 0.000, 15:29:56.477
148, -9597.06, 37206.09, 187500.00, 187500.00, 187500.00, -187500.02, -187500.02, 187500.00, 0.000, 0.000, 0.000, 15:29:56.478
149, -9539.99, 37353.14, 187500.00, 187500.00, 187500.00, -187500.02, -187500.02, 187500.00, 0.000, 0.000, 0.000, 15:29:56.478
150, -9424.21, 37279.80, 187500.00, 187500.00, 187500.00, -187500.02, -187500.02, 187500.00, 0.000, 0.000, 0.000, 15:29:56.478
151, -9319.00, 37057.09, 187500.00, 187500.00, 187500.00, -187500.02, -187500.02, 187500.00, 0.002, -0.180, 1.010, 15:29:56.478
152, -9339.07, 36944.97, 187500.00, 187500.00, 187500.00, -187500.02, -187500.02, 187500.00, 0.000, 0.000, 0.000, 15:29:56.478
153, -9572.11, 37228.28, 187500.00, 187500.00, 187500.00, -187500.02, -187500.02, 187500.00, 0.000, 0.000, 0.000, 15:29:56.478
154, -9521.26, 37358.75, 187500.00, 187500.00, 187500.00, -187500.02, -187500.02, 187500.00, 0.000, 0.000, 0.000, 15:29:56.478
155, -9403.40, 37306.94, 187500.00, 187500.00, 187500.00, -187500.02, -187500.02, 187500.00, 0.000, 0.000, 0.000, 15:29:56.478
156, -9296.92, 37091.76, 187500.00, 187500.00, 187500.00, -187500.02, -187500.02, 187500.00, 0.000, 0.000, 0.000, 15:29:56.479
157, -9334.02, 36951.59, 187500.00, 187500.00, 187500.00, -187500.02, -187500.02, 187500.00, 0.000, 0.000, 0.000, 15:29:56.479
158, -9553.52, 37248.53, 187500.00, 187500.00, 187500.00, -187500.02, -187500.02, 187500.00, 0.000, 0.000, 0.000, 15:29:56.479
159, -9506.04, 37384.34, 187500.00, 187500.00, 187500.00, -187500.02, -187500.02, 187500.00, 0.000, 0.000, 0.000, 15:29:56.479
160, -9389.27, 37317.51, 187500.00, 187500.00, 187500.00, -187500.02, -187500.02, 187500.00, 0.000, 0.000, 0.000, 15:29:56.479
161, -9283.48, 37100.25, 187500.00, 187500.00, 187500.00, -187500.02, -187500.02, 187500.00, -0.002, -0.182, 1.016, 15:29:56.479
162, -9313.14, 36961.11, 187500.00, 187500.00, 187500.00, -187500.02, -187500.02, 187500.00, 0.000, 0.000, 0.000, 15:29:56.479
163, -9556.67, 37235.73, 187500.00, 187500.00, 187500.00, -187500.02, -187500.02, 187500.00, 0.000, 0.000, 0.000, 15:29:56.479
164, -9509.77, 37390.38, 187500.00, 187500.00, 187500.00, -187500.02, -187500.02, 187500.00, 0.000, 0.000, 0.000, 15:29:56.479
165, -9397.59, 37320.97, 187500.00, 187500.00, 187500.00, -187500.02, -187500.02, 187500.00, 0.000, 0.000, 0.000, 15:29:56.480
166, -9283.51, 37096.05, 187500.00, 187500.00, 187500.00, -187500.02, -187500.02, 187500.00, 0.000, 0.000, 0.000, 15:29:56.480
167, -9311.22, 36951.14, 187500.00, 187500.00, 187500.00, -187500.02, -187500.02, 187500.00, 0.000, 0.000, 0.000, 15:29:56.480
168, -9563.26, 37232.42, 187500.00, 187500.00, 187500.00, -187500.02, -187500.02, 187500.00, 0.000, 0.000, 0.000, 15:29:56.480
169, -9529.73, 37377.97, 187500.00, 187500.00, 187500.00, -187500.02, -187500.02, 187500.00, 0.000, 0.000, 0.000, 15:29:56.480
170, -9416.03, 37311.03, 187500.00, 187500.00, 187500.00, -187500.02, -187500.02, 187500.00, 0.000, 0.000, 0.000, 15:29:56.480
171, -9299.31, 37084.49, 187500.00, 187500.00, 187500.00, -187500.02, -187500.02, 187500.00, -0.002, -0.178, 1.012, 15:29:56.480
172, -9315.80, 36932.59, 187500.00, 187500.00, 187500.00, -187500.02, -187500.02, 187500.00, 0.000, 0.000, 0.000, 15:29:56.480
173, -9578.62, 37218.80, 187500.00, 187500.00, 187500.00, -187500.02, -187500.02, 187500.00, 0.000, 0.000, 0.000, 15:29:56.481
174, -9556.62, 37366.04, 187500.00, 187500.00, 187500.00, -187500.02, -187500.02, 187500.00, 0.000, 0.000, 0.000, 15:29:56.481
175, -9442.74, 37283.89, 187500.00, 187500.00, 187500.00, -187500.02, -187500.02, 187500.00, 0.000, 0.000, 0.000, 15:29:56.481
176, -9309.03, 37067.77, 187500.00, 187500.00, 187500.00, -187500.02, -187500.02, 187500.00, 0.000, 0.000, 0.000, 15:29:56.481
