%OpenBCI Raw EEG Data
%
%Sample Rate = 250.0 Hz
%First Column = SampleIndex
%Last Column = Timestamp 
%Other Columns = EEG data in microvolts followed by Accel Data (in G) interleaved with Aux Data
0, 24299.45, 50719.37, 187500.00, -187500.02, -156031.80, -187500.02, -187500.02, -187500.02, 0.012, -0.008, 1.016, 18:12:35.724
1, 25106.78, 51520.95, 187500.00, -187500.02, -156206.08, -187500.02, -187500.02, -187500.02, 0.000, 0.000, 0.000, 18:12:36.204
2, 25026.93, 51280.22, 187500.00, -187500.02, -156338.52, -187500.02, -187500.02, -187500.02, 0.000, 0.000, 0.000, 18:12:36.204
3, 24491.43, 50687.68, 187500.00, -187500.02, -156297.45, -187500.02, -187500.02, -187500.02, 0.000, 0.000, 0.000, 18:12:36.204
4, 23857.80, 50101.95, 187500.00, -187500.02, -156023.02, -187500.02, -187500.02, -187500.02, 0.000, 0.000, 0.000, 18:12:36.204
5, 24324.87, 50745.03, 187500.00, -187500.02, -156056.14, -187500.02, -187500.02, -187500.02, 0.000, 0.000, 0.000, 18:12:36.204
6, 25137.46, 51544.84, 187500.00, -187500.02, -156287.55, -187500.02, -187500.02, -187500.02, 0.000, 0.000, 0.000, 18:12:36.204
7, 25048.17, 51294.37, 187500.00, -187500.02, -156420.50, -187500.02, -187500.02, -187500.02, 0.008, -0.024, 0.980, 18:12:36.205
8, 24504.39, 50698.16, 187500.00, -187500.02, -156343.00, -187500.02, -187500.02, -187500.02, 0.000, 0.000, 0.000, 18:12:36.205
9, 23860.22, 50103.13, 187500.00, -187500.02, -156031.59, -187500.02, -187500.02, -187500.02, 0.000, 0.000, 0.000, 18:12:36.205
10, 24317.18, 50736.56, 187500.00, -187500.02, -156044.08, -187500.02, -187500.02, -187500.02, 0.000, 0.000, 0.000, 18:12:36.205
11, 25142.20, 51555.32, 187500.00, -187500.02, -156254.95, -187500.02, -187500.02, -187500.02, 0.000, 0.000, 0.000, 18:12:36.205
12, 25054.18, 51308.96, 187500.00, -187500.02, -156361.28, -187500.02, -187500.02, -187500.02, 0.000, 0.000, 0.000, 18:12:36.205
13, 24502.50, 50703.12, 187500.00, -187500.02, -156292.06, -187500.02, -187500.02, -187500.02, 0.000, 0.000, 0.000, 18:12:36.206
14, 23862.41, 50113.17, 187500.00, -187500.02, -156008.95, -187500.02, -187500.02, -187500.02, 0.000, 0.000, 0.000, 18:12:36.206
15, 24312.80, 50739.29, 187500.00, -187500.02, -156013.72, -187500.02, -187500.02, -187500.02, 0.000, 0.000, 0.000, 18:12:36.206
16, 25142.67, 51561.32, 187500.00, -187500.02, -156238.33, -187500.02, -187500.02, -187500.02, 0.000, 0.000, 0.000, 18:12:36.206
17, 25070.63, 51330.18, 187500.00, -187500.02, -156393.56, -187500.02, -187500.02, -187500.02, 0.010, -0.022, 0.996, 18:12:36.206
18, 24522.54, 50722.07, 187500.00, -187500.02, -156321.34, -187500.02, -187500.02, -187500.02, 0.000, 0.000, 0.000, 18:12:36.206
19, 23860.15, 50106.60, 187500.00, -187500.02, -156033.44, -187500.02, -187500.02, -187500.02, 0.000, 0.000, 0.000, 18:12:36.207
20, 24299.03, 50723.50, 187500.00, -187500.02, -156038.22, -187500.02, -187500.02, -187500.02, 0.000, 0.000, 0.000, 18:12:36.207
21, 25141.44, 51563.48, 187500.00, -187500.02, -156244.98, -187500.02, -187500.02, -187500.02, 0.000, 0.000, 0.000, 18:12:36.207
22, 25062.96, 51324.34, 187500.00, -187500.02, -156347.56, -187500.02, -187500.02, -187500.02, 0.000, 0.000, 0.000, 18:12:36.207
23, 24529.92, 50730.23, 187500.00, -187500.02, -156269.11, -187500.02, -187500.02, -187500.02, 0.000, 0.000, 0.000, 18:12:36.207
24, 23879.66, 50131.07, 187500.00, -187500.02, -156004.31, -187500.02, -187500.02, -187500.02, 0.000, 0.000, 0.000, 18:12:36.207
25, 24298.31, 50732.56, 187500.00, -187500.02, -156027.70, -187500.02, -187500.02, -187500.02, 0.000, 0.000, 0.000, 18:12:36.208
26, 25141.20, 51568.67, 187500.00, -187500.02, -156257.13, -187500.02, -187500.02, -187500.02, 0.014, -0.016, 1.008, 18:12:36.208
27, 25074.19, 51332.66, 187500.00, -187500.02, -156381.34, -187500.02, -187500.02, -187500.02, 0.000, 0.000, 0.000, 18:12:36.208
28, 24531.37, 50736.69, 187500.00, -187500.02, -156284.20, -187500.02, -187500.02, -187500.02, 0.000, 0.000, 0.000, 18:12:36.208
29, 23877.94, 50123.18, 187500.00, -187500.02, -155971.41, -187500.02, -187500.02, -187500.02, 0.000, 0.000, 0.000, 18:12:36.208
30, 24298.04, 50718.36, 187500.00, -187500.02, -155975.25, -187500.02, -187500.02, -187500.02, 0.000, 0.000, 0.000, 18:12:36.208
31, 25152.82, 51572.43, 187500.00, -187500.02, -156233.56, -187500.02, -187500.02, -187500.02, 0.000, 0.000, 0.000, 18:12:36.209
32, 25094.84, 51355.46, 187500.00, -187500.02, -156400.50, -187500.02, -187500.02, -187500.02, 0.000, 0.000, 0.000, 18:12:36.209
33, 24549.66, 50754.44, 187500.00, -187500.02, -156328.75, -187500.02, -187500.02, -187500.02, 0.000, 0.000, 0.000, 18:12:36.209
34, 23897.01, 50147.37, 187500.00, -187500.02, -156067.88, -187500.02, -187500.02, -187500.02, 0.000, 0.000, 0.000, 18:12:36.209
35, 24299.63, 50724.38, 187500.00, -187500.02, -156055.27, -187500.02, -187500.02, -187500.02, 0.000, 0.000, 0.000, 18:12:36.209
36, 25157.18, 51579.73, 187500.00, -187500.02, -156315.38, -187500.02, -187500.02, -187500.02, 0.018, -0.016, 1.012, 18:12:36.209
37, 25096.61, 51352.84, 187500.00, -187500.02, -156460.44, -187500.02, -187500.02, -187500.02, 0.000, 0.000, 0.000, 18:12:36.210
38, 24572.48, 50764.74, 187500.00, -187500.02, -156360.73, -187500.02, -187500.02, -187500.02, 0.000, 0.000, 0.000, 18:12:36.210
39, 23903.87, 50143.57, 187500.00, -187500.02, -156027.42, -187500.02, -187500.02, -187500.02, 0.000, 0.000, 0.000, 18:12:36.210
40, 24285.17, 50706.59, 187500.00, -187500.02, -156012.28, -187500.02, -187500.02, -187500.02, 0.000, 0.000, 0.000, 18:12:36.210
41, 25126.11, 51548.17, 187500.00, -187500.02, -156214.92, -187500.02, -187500.02, -187500.02, 0.000, 0.000, 0.000, 18:12:36.210
42, 25069.78, 51334.07, 187500.00, -187500.02, -156320.39, -187500.02, -187500.02, -187500.02, 0.000, 0.000, 0.000, 18:12:36.210
43, 24535.91, 50745.97, 187500.00, -187500.02, -156253.48, -187500.02, -187500.02, -187500.02, 0.000, 0.000, 0.000, 18:12:36.211
44, 23883.58, 50136.55, 187500.00, -187500.02, -155969.63, -187500.02, -187500.02, -187500.02, 0.000, 0.000, 0.000, 18:12:36.211
45, 24270.17, 50698.70, 187500.00, -187500.02, -155970.52, -187500.02, -187500.02, -187500.02, 0.000, 0.000, 0.000, 18:12:36.211
46, 25123.20, 51553.36, 187500.00, -187500.02, -156192.05, -187500.02, -187500.02, -187500.02, 0.020, -0.018, 1.020, 18:12:36.211
47, 25072.44, 51346.05, 187500.00, -187500.02, -156333.11, -187500.02, -187500.02, -187500.02, 0.000, 0.000, 0.000, 18:12:36.211
48, 24549.46, 50763.71, 187500.00, -187500.02, -156329.91, -187500.02, -187500.02, -187500.02, 0.000, 0.000, 0.000, 18:12:36.211
49, 23885.77, 50140.01, 187500.00, -187500.02, -156073.91, -187500.02, -187500.02, -187500.02, 0.000, 0.000, 0.000, 18:12:36.212
50, 24271.38, 50697.98, 187500.00, -187500.02, -156083.19, -187500.02, -187500.02, -187500.02, 0.000, 0.000, 0.000, 18:12:36.212
51, 25127.52, 51555.35, 187500.00, -187500.02, -156271.83, -187500.02, -187500.02, -187500.02, 0.000, 0.000, 0.000, 18:12:36.212
52, 25091.08, 51361.98, 187500.00, -187500.02, -156385.41, -187500.02, -187500.02, -187500.02, 0.000, 0.000, 0.000, 18:12:36.212
53, 24561.17, 50774.54, 187500.00, -187500.02, -156336.91, -187500.02, -187500.02, -187500.02, 0.000, 0.000, 0.000, 18:12:36.212
54, 23894.60, 50149.78, 187500.00, -187500.02, -156027.84, -187500.02, -187500.02, -187500.02, 0.000, 0.000, 0.000, 18:12:36.212
55, 24268.99, 50701.96, 187500.00, -187500.02, -155988.58, -187500.02, -187500.02, -187500.02, 0.000, 0.000, 0.000, 18:12:36.213
56, 25130.71, 51571.02, 187500.00, -187500.02, -156212.20, -187500.02, -187500.02, -187500.02, 0.016, -0.010, 1.016, 18:12:36.213
57, 25103.65, 51388.00, 187500.00, -187500.02, -156350.20, -187500.02, -187500.02, -187500.02, 0.000, 0.000, 0.000, 18:12:36.213
58, 24575.03, 50796.82, 187500.00, -187500.02, -156279.25, -187500.02, -187500.02, -187500.02, 0.000, 0.000, 0.000, 18:12:36.213
59, 23909.21, 50167.30, 187500.00, -187500.02, -155976.48, -187500.02, -187500.02, -187500.02, 0.000, 0.000, 0.000, 18:12:36.213
60, 24283.81, 50714.09, 187500.00, -187500.02, -155962.88, -187500.02, -187500.02, -187500.02, 0.000, 0.000, 0.000, 18:12:36.214
61, 25151.28, 51589.23, 187500.00, -187500.02, -156192.22, -187500.02, -187500.02, -187500.02, 0.000, 0.000, 0.000, 18:12:36.214
62, 25122.20, 51405.25, 187500.00, -187500.02, -156348.70, -187500.02, -187500.02, -187500.02, 0.000, 0.000, 0.000, 18:12:36.214
63, 24602.59, 50820.02, 187500.00, -187500.02, -156312.27, -187500.02, -187500.02, -187500.02, 0.000, 0.000, 0.000, 18:12:36.214
64, 23932.41, 50180.09, 187500.00, -187500.02, -156033.77, -187500.02, -187500.02, -187500.02, 0.000, 0.000, 0.000, 18:12:36.215
65, 24295.52, 50723.06, 187500.00, -187500.02, -156051.77, -187500.02, -187500.02, -187500.02, 0.000, 0.000, 0.000, 18:12:36.215
66, 25152.15, 51591.98, 187500.00, -187500.02, -156265.88, -187500.02, -187500.02, -187500.02, 0.014, -0.010, 1.014, 18:12:36.215
67, 25120.03, 51406.42, 187500.00, -187500.02, -156392.52, -187500.02, -187500.02, -187500.02, 0.000, 0.000, 0.000, 18:12:36.215
68, 24583.77, 50805.69, 187500.00, -187500.02, -156306.70, -187500.02, -187500.02, -187500.02, 0.000, 0.000, 0.000, 18:12:36.215
69, 23911.07, 50166.61, 187500.00, -187500.02, -156003.34, -187500.02, -187500.02, -187500.02, 0.000, 0.000, 0.000, 18:12:36.216
70, 24261.52, 50692.48, 187500.00, -187500.02, -155980.09, -187500.02, -187500.02, -187500.02, 0.000, 0.000, 0.000, 18:12:36.216
71, 25136.55, 51576.78, 187500.00, -187500.02, -156213.09, -187500.02, -187500.02, -187500.02, 0.000, 0.000, 0.000, 18:12:36.216
72, 25123.00, 51400.70, 187500.00, -187500.02, -156350.33, -187500.02, -187500.02, -187500.02, 0.000, 0.000, 0.000, 18:12:36.216
73, 24602.63, 50816.78, 187500.00, -187500.02, -156290.52, -187500.02, -187500.02, -187500.02, 0.000, 0.000, 0.000, 18:12:36.216
74, 23937.96, 50190.37, 187500.00, -187500.02, -155993.42, -187500.02, -187500.02, -187500.02, 0.000, 0.000, 0.000, 18:12:36.217
75, 24292.43, 50721.36, 187500.00, -187500.02, -155995.34, -187500.02, -187500.02, -187500.02, 0.000, 0.000, 0.000, 18:12:36.217
76, 25162.74, 51597.61, 187500.00, -187500.02, -156241.55, -187500.02, -187500.02, -187500.02, 0.016, -0.012, 1.024, 18:12:36.217
77, 25133.73, 51414.55, 187500.00, -187500.02, -156358.97, -187500.02, -187500.02, -187500.02, 0.000, 0.000, 0.000, 18:12:36.217
78, 24617.65, 50833.09, 187500.00, -187500.02, -156330.06, -187500.02, -187500.02, -187500.02, 0.000, 0.000, 0.000, 18:12:36.217
79, 23949.69, 50200.74, 187500.00, -187500.02, -156076.02, -187500.02, -187500.02, -187500.02, 0.000, 0.000, 0.000, 18:12:36.217
80, 24286.02, 50711.26, 187500.00, -187500.02, -156059.27, -187500.02, -187500.02, -187500.02, 0.000, 0.000, 0.000, 18:12:36.218
81, 25159.66, 51591.02, 187500.00, -187500.02, -156270.77, -187500.02, -187500.02, -187500.02, 0.000, 0.000, 0.000, 18:12:36.218
82, 25146.16, 51425.80, 187500.00, -187500.02, -156415.92, -187500.02, -187500.02, -187500.02, 0.000, 0.000, 0.000, 18:12:36.218
83, 24617.79, 50830.86, 187500.00, -187500.02, -156369.64, -187500.02, -187500.02, -187500.02, 0.000, 0.000, 0.000, 18:12:36.218
84, 23948.15, 50192.23, 187500.00, -187500.02, -156059.47, -187500.02, -187500.02, -187500.02, 0.000, 0.000, 0.000, 18:12:36.218
85, 24274.57, 50696.70, 187500.00, -187500.02, -156006.20, -187500.02, -187500.02, -187500.02, 0.000, 0.000, 0.000, 18:12:36.219
86, 25147.59, 51584.83, 187500.00, -187500.02, -156188.48, -187500.02, -187500.02, -187500.02, 0.016, -0.016, 1.020, 18:12:36.219
87, 25143.61, 51428.25, 187500.00, -187500.02, -156300.64, -187500.02, -187500.02, -187500.02, 0.000, 0.000, 0.000, 18:12:36.219
88, 24631.26, 50847.91, 187500.00, -187500.02, -156288.02, -187500.02, -187500.02, -187500.02, 0.000, 0.000, 0.000, 18:12:36.219
89, 23952.58, 50205.57, 187500.00, -187500.02, -155986.56, -187500.02, -187500.02, -187500.02, 0.000, 0.000, 0.000, 18:12:36.219
90, 24270.06, 50699.92, 187500.00, -187500.02, -155950.89, -187500.02, -187500.02, -187500.02, 0.000, 0.000, 0.000, 18:12:36.219
91, 25151.61, 51595.94, 187500.00, -187500.02, -156189.88, -187500.02, -187500.02, -187500.02, 0.000, 0.000, 0.000, 18:12:36.219
92, 25151.08, 51437.22, 187500.00, -187500.02, -156346.80, -187500.02, -187500.02, -187500.02, 0.000, 0.000, 0.000, 18:12:36.219
93, 24642.84, 50857.86, 187500.00, -187500.02, -156324.61, -187500.02, -187500.02, -187500.02, 0.000, 0.000, 0.000, 18:12:36.219
94, 23969.07, 50219.81, 187500.00, -187500.02, -156073.98, -187500.02, -187500.02, -187500.02, 0.000, 0.000, 0.000, 18:12:36.220
95, 24276.01, 50704.39, 187500.00, -187500.02, -156047.20, -187500.02, -187500.02, -187500.02, 0.000, 0.000, 0.000, 18:12:36.220
96, 25158.99, 51605.80, 187500.00, -187500.02, -156287.86, -187500.02, -187500.02, -187500.02, 0.014, -0.014, 1.018, 18:12:36.220
97, 25161.04, 51448.73, 187500.00, -187500.02, -156438.73, -187500.02, -187500.02, -187500.02, 0.000, 0.000, 0.000, 18:12:36.220
98, 24638.82, 50859.58, 187500.00, -187500.02, -156362.78, -187500.02, -187500.02, -187500.02, 0.000, 0.000, 0.000, 18:12:36.220
99, 23953.54, 50209.19, 187500.00, -187500.02, -156068.30, -187500.02, -187500.02, -187500.02, 0.000, 0.000, 0.000, 18:12:36.220
100, 24253.29, 50683.32, 187500.00, -187500.02, -156030.17, -187500.02, -187500.02, -187500.02, 0.000, 0.000, 0.000, 18:12:36.220
101, 25137.75, 51590.62, 187500.00, -187500.02, -156240.52, -187500.02, -187500.02, -187500.02, 0.000, 0.000, 0.000, 18:12:36.221
102, 25147.34, 51443.59, 187500.00, -187500.02, -156380.33, -187500.02, -187500.02, -187500.02, 0.000, 0.000, 0.000, 18:12:36.221
103, 24634.04, 50859.45, 187500.00, -187500.02, -156329.39, -187500.02, -187500.02, -187500.02, 0.000, 0.000, 0.000, 18:12:36.221
104, 23955.97, 50212.21, 187500.00, -187500.02, -156020.95, -187500.02, -187500.02, -187500.02, 0.000, 0.000, 0.000, 18:12:36.221
105, 24255.64, 50687.99, 187500.00, -187500.02, -155998.42, -187500.02, -187500.02, -187500.02, 0.000, 0.000, 0.000, 18:12:36.221
106, 25152.95, 51607.47, 187500.00, -187500.02, -156233.19, -187500.02, -187500.02, -187500.02, 0.014, -0.010, 1.018, 18:12:36.221
107, 25161.96, 51467.44, 187500.00, -187500.02, -156337.91, -187500.02, -187500.02, -187500.02, 0.000, 0.000, 0.000, 18:12:36.221
108, 24652.81, 50885.93, 187500.00, -187500.02, -156293.58, -187500.02, -187500.02, -187500.02, 0.000, 0.000, 0.000, 18:12:36.221
109, 23976.11, 50239.41, 187500.00, -187500.02, -156039.94, -187500.02, -187500.02, -187500.02, 0.000, 0.000, 0.000, 18:12:36.222
110, 24254.35, 50694.49, 187500.00, -187500.02, -156031.08, -187500.02, -187500.02, -187500.02, 0.000, 0.000, 0.000, 18:12:36.222
111, 25154.85, 51618.78, 187500.00, -187500.02, -156256.70, -187500.02, -187500.02, -187500.02, 0.000, 0.000, 0.000, 18:12:36.222
112, 25172.49, 51480.71, 187500.00, -187500.02, -156384.95, -187500.02, -187500.02, -187500.02, 0.000, 0.000, 0.000, 18:12:36.222
113, 24658.35, 50894.09, 187500.00, -187500.02, -156343.42, -187500.02, -187500.02, -187500.02, 0.000, 0.000, 0.000, 18:12:36.222
114, 23963.93, 50227.56, 187500.00, -187500.02, -156057.69, -187500.02, -187500.02, -187500.02, 0.000, 0.000, 0.000, 18:12:36.222
115, 24240.29, 50676.05, 187500.00, -187500.02, -156049.64, -187500.02, -187500.02, -187500.02, 0.000, 0.000, 0.000, 18:12:36.222
116, 25141.35, 51594.06, 187500.00, -187500.02, -156229.55, -187500.02, -187500.02, -187500.02, 0.016, -0.010, 1.024, 18:12:36.222
117, 25169.09, 51465.29, 187500.00, -187500.02, -156339.03, -187500.02, -187500.02, -187500.02, 0.000, 0.000, 0.000, 18:12:36.223
118, 24664.28, 50886.96, 187500.00, -187500.02, -156314.33, -187500.02, -187500.02, -187500.02, 0.000, 0.000, 0.000, 18:12:36.223
119, 23988.05, 50240.06, 187500.00, -187500.02, -156021.92, -187500.02, -187500.02, -187500.02, 0.000, 0.000, 0.000, 18:12:36.223
120, 24249.29, 50674.51, 187500.00, -187500.02, -155978.38, -187500.02, -187500.02, -187500.02, 0.000, 0.000, 0.000, 18:12:36.223
121, 25159.46, 51612.30, 187500.00, -187500.02, -156218.48, -187500.02, -187500.02, -187500.02, 0.000, 0.000, 0.000, 18:12:36.685
122, 25195.56, 51495.45, 187500.00, -187500.02, -156373.47, -187500.02, -187500.02, -187500.02, 0.000, 0.000, 0.000, 18:12:36.685
123, 24676.44, 50902.27, 187500.00, -187500.02, -156328.23, -187500.02, -187500.02, -187500.02, 0.000, 0.000, 0.000, 18:12:36.685
124, 23995.51, 50252.66, 187500.00, -187500.02, -156060.67, -187500.02, -187500.02, -187500.02, 0.000, 0.000, 0.000, 18:12:36.686
125, 24259.64, 50688.12, 187500.00, -187500.02, -156001.45, -187500.02, -187500.02, -187500.02, 0.000, 0.000, 0.000, 18:12:36.686
126, 25156.98, 51611.47, 187500.00, -187500.02, -156255.42, -187500.02, -187500.02, -187500.02, 0.012, -0.012, 1.024, 18:12:36.686
127, 25184.45, 51486.70, 187500.00, -187500.02, -156396.17, -187500.02, -187500.02, -187500.02, 0.000, 0.000, 0.000, 18:12:36.686
128, 24676.86, 50903.04, 187500.00, -187500.02, -156348.97, -187500.02, -187500.02, -187500.02, 0.000, 0.000, 0.000, 18:12:36.686
129, 23995.76, 50250.92, 187500.00, -187500.02, -156045.50, -187500.02, -187500.02, -187500.02, 0.000, 0.000, 0.000, 18:12:36.687
130, 24252.04, 50679.79, 187500.00, -187500.02, -155996.11, -187500.02, -187500.02, -187500.02, 0.000, 0.000, 0.000, 18:12:36.687
131, 25149.96, 51603.83, 187500.00, -187500.02, -156205.67, -187500.02, -187500.02, -187500.02, 0.000, 0.000, 0.000, 18:12:36.687
132, 25190.55, 51496.61, 187500.00, -187500.02, -156348.50, -187500.02, -187500.02, -187500.02, 0.000, 0.000, 0.000, 18:12:36.687
133, 24687.17, 50916.78, 187500.00, -187500.02, -156319.58, -187500.02, -187500.02, -187500.02, 0.000, 0.000, 0.000, 18:12:36.687
134, 24006.76, 50273.74, 187500.00, -187500.02, -156046.38, -187500.02, -187500.02, -187500.02, 0.000, 0.000, 0.000, 18:12:36.688
135, 24258.08, 50704.02, 187500.00, -187500.02, -156020.11, -187500.02, -187500.02, -187500.02, 0.000, 0.000, 0.000, 18:12:36.688
136, 25159.10, 51629.82, 187500.00, -187500.02, -156232.81, -187500.02, -187500.02, -187500.02, 0.010, -0.020, 1.022, 18:12:36.688
137, 25194.51, 51512.92, 187500.00, -187500.02, -156371.66, -187500.02, -187500.02, -187500.02, 0.000, 0.000, 0.000, 18:12:36.688
138, 24687.79, 50923.60, 187500.00, -187500.02, -156371.22, -187500.02, -187500.02, -187500.02, 0.000, 0.000, 0.000, 18:12:36.688
139, 24008.10, 50273.50, 187500.00, -187500.02, -156085.95, -187500.02, -187500.02, -187500.02, 0.000, 0.000, 0.000, 18:12:36.689
140, 24243.82, 50681.33, 187500.00, -187500.02, -156066.33, -187500.02, -187500.02, -187500.02, 0.000, 0.000, 0.000, 18:12:36.689
141, 25143.65, 51604.12, 187500.00, -187500.02, -156294.61, -187500.02, -187500.02, -187500.02, 0.000, 0.000, 0.000, 18:12:36.689
142, 25191.00, 51499.56, 187500.00, -187500.02, -156435.70, -187500.02, -187500.02, -187500.02, 0.000, 0.000, 0.000, 18:12:36.689
143, 24683.01, 50914.32, 187500.00, -187500.02, -156398.28, -187500.02, -187500.02, -187500.02, 0.000, 0.000, 0.000, 18:12:36.689
144, 23990.46, 50255.10, 187500.00, -187500.02, -156113.20, -187500.02, -187500.02, -187500.02, 0.000, 0.000, 0.000, 18:12:36.689
145, 24211.77, 50651.84, 187500.00, -187500.02, -156006.05, -187500.02, -187500.02, -187500.02, 0.012, -0.016, 1.020, 18:12:36.690
146, 25118.64, 51588.38, 187500.00, -187500.02, -156185.06, -187500.02, -187500.02, -187500.02, 0.000, 0.000, 0.000, 18:12:36.690
147, 25173.90, 51497.50, 187500.00, -187500.02, -156311.16, -187500.02, -187500.02, -187500.02, 0.000, 0.000, 0.000, 18:12:36.690
148, 24683.10, 50928.76, 187500.00, -187500.02, -156296.06, -187500.02, -187500.02, -187500.02, 0.000, 0.000, 0.000, 18:12:36.690
149, 23996.45, 50264.51, 187500.00, -187500.02, -156019.78, -187500.02, -187500.02, -187500.02, 0.000, 0.000, 0.000, 18:12:36.690
150, 24216.93, 50658.24, 187500.00, -187500.02, -155943.44, -187500.02, -187500.02, -187500.02, 0.000, 0.000, 0.000, 18:12:36.690
151, 25139.07, 51611.11, 187500.00, -187500.02, -156173.73, -187500.02, -187500.02, -187500.02, 0.000, 0.000, 0.000, 18:12:36.691
152, 25204.50, 51524.26, 187500.00, -187500.02, -156361.98, -187500.02, -187500.02, -187500.02, 0.000, 0.000, 0.000, 18:12:36.691
153, 24706.68, 50943.63, 187500.00, -187500.02, -156360.70, -187500.02, -187500.02, -187500.02, 0.000, 0.000, 0.000, 18:12:36.691
154, 24018.16, 50279.09, 187500.00, -187500.02, -156084.06, -187500.02, -187500.02, -187500.02, 0.000, 0.000, 0.000, 18:12:36.691
155, 24227.86, 50666.64, 187500.00, -187500.02, -156018.72, -187500.02, -187500.02, -187500.02, 0.012, -0.010, 1.018, 18:12:36.691
156, 25141.71, 51613.20, 187500.00, -187500.02, -156252.03, -187500.02, -187500.02, -187500.02, 0.000, 0.000, 0.000, 18:12:36.691
157, 25209.15, 51527.07, 187500.00, -187500.02, -156391.73, -187500.02, -187500.02, -187500.02, 0.000, 0.000, 0.000, 18:12:36.692
158, 24715.96, 50953.21, 187500.00, -187500.02, -156375.25, -187500.02, -187500.02, -187500.02, 0.000, 0.000, 0.000, 18:12:36.692
159, 24014.67, 50281.70, 187500.00, -187500.02, -156078.00, -187500.02, -187500.02, -187500.02, 0.000, 0.000, 0.000, 18:12:36.692
160, 24215.83, 50653.92, 187500.00, -187500.02, -155999.09, -187500.02, -187500.02, -187500.02, 0.000, 0.000, 0.000, 18:12:36.692
161, 25140.21, 51609.50, 187500.00, -187500.02, -156238.70, -187500.02, -187500.02, -187500.02, 0.000, 0.000, 0.000, 18:12:36.692
162, 25207.49, 51531.07, 187500.00, -187500.02, -156384.52, -187500.02, -187500.02, -187500.02, 0.000, 0.000, 0.000, 18:12:36.692
163, 24707.44, 50951.83, 187500.00, -187500.02, -156378.30, -187500.02, -187500.02, -187500.02, 0.000, 0.000, 0.000, 18:12:36.693
164, 24012.32, 50277.18, 187500.00, -187500.02, -156094.44, -187500.02, -187500.02, -187500.02, 0.000, 0.000, 0.000, 18:12:36.693
165, 24206.00, 50636.13, 187500.00, -187500.02, -155986.67, -187500.02, -187500.02, -187500.02, 0.014, -0.010, 1.018, 18:12:36.693
166, 25126.85, 51590.91, 187500.00, -187500.02, -156200.88, -187500.02, -187500.02, -187500.02, 0.000, 0.000, 0.000, 18:12:36.693
167, 25206.60, 51527.72, 187500.00, -187500.02, -156367.23, -187500.02, -187500.02, -187500.02, 0.000, 0.000, 0.000, 18:12:36.693
168, 24712.71, 50955.76, 187500.00, -187500.02, -156361.98, -187500.02, -187500.02, -187500.02, 0.000, 0.000, 0.000, 18:12:36.693
169, 24009.77, 50279.49, 187500.00, -187500.02, -156059.86, -187500.02, -187500.02, -187500.02, 0.000, 0.000, 0.000, 18:12:36.694
170, 24193.04, 50635.51, 187500.00, -187500.02, -156041.72, -187500.02, -187500.02, -187500.02, 0.000, 0.000, 0.000, 18:12:36.694
171, 25109.81, 51589.37, 187500.00, -187500.02, -156269.28, -187500.02, -187500.02, -187500.02, 0.000, 0.000, 0.000, 18:12:36.694
172, 25188.49, 51526.04, 187500.00, -187500.02, -156420.94, -187500.02, -187500.02, -187500.02, 0.000, 0.000, 0.000, 18:12:36.694
173, 24691.32, 50941.30, 187500.00, -187500.02, -156392.67, -187500.02, -187500.02, -187500.02, 0.000, 0.000, 0.000, 18:12:36.694
174, 23991.71, 50263.13, 187500.00, -187500.02, -156089.25, -187500.02, -187500.02, -187500.02, 0.000, 0.000, 0.000, 18:12:36.694
175, 24165.16, 50608.10, 187500.00, -187500.02, -156023.27, -187500.02, -187500.02, -187500.02, 0.014, -0.012, 1.014, 18:12:36.694
176, 25090.03, 51567.57, 187500.00, -187500.02, -156231.80, -187500.02, -187500.02, -187500.02, 0.000, 0.000, 0.000, 18:12:36.695
177, 25187.40, 51518.69, 187500.00, -187500.02, -156350.09, -187500.02, -187500.02, -187500.02, 0.000, 0.000, 0.000, 18:12:36.695
178, 24702.14, 50950.69, 187500.00, -187500.02, -156344.28, -187500.02, -187500.02, -187500.02, 0.000, 0.000, 0.000, 18:12:36.695
179, 24000.10, 50271.78, 187500.00, -187500.02, -156030.22, -187500.02, -187500.02, -187500.02, 0.000, 0.000, 0.000, 18:12:36.695
180, 24166.77, 50607.99, 187500.00, -187500.02, -155943.06, -187500.02, -187500.02, -187500.02, 0.000, 0.000, 0.000, 18:12:36.695
181, 25097.95, 51574.70, 187500.00, -187500.02, -156176.81, -187500.02, -187500.02, -187500.02, 0.000, 0.000, 0.000, 18:12:36.695
182, 25198.53, 51531.43, 187500.00, -187500.02, -156353.58, -187500.02, -187500.02, -187500.02, 0.000, 0.000, 0.000, 18:12:36.696
183, 24710.86, 50954.55, 187500.00, -187500.02, -156372.59, -187500.02, -187500.02, -187500.02, 0.000, 0.000, 0.000, 18:12:36.696
184, 24013.82, 50275.69, 187500.00, -187500.02, -156054.28, -187500.02, -187500.02, -187500.02, 0.000, 0.000, 0.000, 18:12:36.696
185, 24181.88, 50611.63, 187500.00, -187500.02, -155984.23, -187500.02, -187500.02, -187500.02, 0.016, -0.010, 1.014, 18:12:36.696
186, 25113.53, 51583.60, 187500.00, -187500.02, -156217.20, -187500.02, -187500.02, -187500.02, 0.000, 0.000, 0.000, 18:12:36.696
187, 25209.19, 51536.17, 187500.00, -187500.02, -156346.31, -187500.02, -187500.02, -187500.02, 0.000, 0.000, 0.000, 18:12:36.696
188, 24723.04, 50961.91, 187500.00, -187500.02, -156352.25, -187500.02, -187500.02, -187500.02, 0.000, 0.000, 0.000, 18:12:36.697
189, 24032.46, 50290.33, 187500.00, -187500.02, -156109.77, -187500.02, -187500.02, -187500.02, 0.000, 0.000, 0.000, 18:12:36.697
190, 24169.92, 50596.30, 187500.00, -187500.02, -156010.61, -187500.02, -187500.02, -187500.02, 0.000, 0.000, 0.000, 18:12:36.697
191, 25084.89, 51554.95, 187500.00, -187500.02, -156213.20, -187500.02, -187500.02, -187500.02, 0.000, 0.000, 0.000, 18:12:36.697
192, 25187.91, 51515.16, 187500.00, -187500.02, -156321.70, -187500.02, -187500.02, -187500.02, 0.000, 0.000, 0.000, 18:12:36.697
193, 24692.40, 50929.92, 187500.00, -187500.02, -156306.50, -187500.02, -187500.02, -187500.02, 0.000, 0.000, 0.000, 18:12:36.698
194, 24004.45, 50263.11, 187500.00, -187500.02, -156017.14, -187500.02, -187500.02, -187500.02, 0.000, 0.000, 0.000, 18:12:36.698
195, 24156.04, 50576.86, 187500.00, -187500.02, -155939.59, -187500.02, -187500.02, -187500.02, 0.016, -0.010, 1.022, 18:12:36.698
196, 25089.16, 51548.69, 187500.00, -187500.02, -156135.78, -187500.02, -187500.02, -187500.02, 0.000, 0.000, 0.000, 18:12:36.698
197, 25202.84, 51519.05, 187500.00, -187500.02, -156310.34, -187500.02, -187500.02, -187500.02, 0.000, 0.000, 0.000, 18:12:36.698
198, 24717.99, 50950.44, 187500.00, -187500.02, -156325.61, -187500.02, -187500.02, -187500.02, 0.000, 0.000, 0.000, 18:12:36.698
199, 24021.15, 50276.31, 187500.00, -187500.02, -156083.86, -187500.02, -187500.02, -187500.02, 0.000, 0.000, 0.000, 18:12:36.699
200, 24150.14, 50579.11, 187500.00, -187500.02, -156018.02, -187500.02, -187500.02, -187500.02, 0.000, 0.000, 0.000, 18:12:36.699
201, 25072.31, 51547.28, 187500.00, -187500.02, -156252.22, -187500.02, -187500.02, -187500.02, 0.000, 0.000, 0.000, 18:12:36.699
202, 25184.07, 51514.71, 187500.00, -187500.02, -156403.44, -187500.02, -187500.02, -187500.02, 0.000, 0.000, 0.000, 18:12:36.699
203, 24701.89, 50947.31, 187500.00, -187500.02, -156402.11, -187500.02, -187500.02, -187500.02, 0.000, 0.000, 0.000, 18:12:36.699
204, 24000.36, 50269.61, 187500.00, -187500.02, -156117.11, -187500.02, -187500.02, -187500.02, 0.000, 0.000, 0.000, 18:12:36.699
205, 24115.70, 50560.14, 187500.00, -187500.02, -156007.48, -187500.02, -187500.02, -187500.02, 0.014, -0.010, 1.018, 18:12:36.699
206, 25051.03, 51540.17, 187500.00, -187500.02, -156189.64, -187500.02, -187500.02, -187500.02, 0.000, 0.000, 0.000, 18:12:36.699
207, 25185.68, 51532.53, 187500.00, -187500.02, -156339.88, -187500.02, -187500.02, -187500.02, 0.000, 0.000, 0.000, 18:12:36.699
208, 24702.79, 50954.38, 187500.00, -187500.02, -156326.59, -187500.02, -187500.02, -187500.02, 0.000, 0.000, 0.000, 18:12:36.700
209, 23999.09, 50269.21, 187500.00, -187500.02, -156024.48, -187500.02, -187500.02, -187500.02, 0.000, 0.000, 0.000, 18:12:36.700
210, 24119.39, 50558.17, 187500.00, -187500.02, -155918.75, -187500.02, -187500.02, -187500.02, 0.000, 0.000, 0.000, 18:12:36.700
211, 25066.88, 51551.73, 187500.00, -187500.02, -156151.27, -187500.02, -187500.02, -187500.02, 0.000, 0.000, 0.000, 18:12:36.700
212, 25199.09, 51545.69, 187500.00, -187500.02, -156328.09, -187500.02, -187500.02, -187500.02, 0.000, 0.000, 0.000, 18:12:36.700
213, 24720.54, 50978.02, 187500.00, -187500.02, -156334.22, -187500.02, -187500.02, -187500.02, 0.000, 0.000, 0.000, 18:12:36.700
214, 24020.90, 50293.95, 187500.00, -187500.02, -156058.33, -187500.02, -187500.02, -187500.02, 0.000, 0.000, 0.000, 18:12:36.700
215, 24128.24, 50570.91, 187500.00, -187500.02, -155970.38, -187500.02, -187500.02, -187500.02, 0.018, -0.008, 1.020, 18:12:36.700
216, 25065.00, 51558.41, 187500.00, -187500.02, -156201.30, -187500.02, -187500.02, -187500.02, 0.000, 0.000, 0.000, 18:12:36.700
217, 25189.88, 51544.20, 187500.00, -187500.02, -156362.89, -187500.02, -187500.02, -187500.02, 0.000, 0.000, 0.000, 18:12:36.701
218, 24707.04, 50965.62, 187500.00, -187500.02, -156367.33, -187500.02, -187500.02, -187500.02, 0.000, 0.000, 0.000, 18:12:36.701
219, 24001.86, 50277.92, 187500.00, -187500.02, -156073.44, -187500.02, -187500.02, -187500.02, 0.000, 0.000, 0.000, 18:12:36.701
220, 24097.73, 50540.73, 187500.00, -187500.02, -155961.45, -187500.02, -187500.02, -187500.02, 0.000, 0.000, 0.000, 18:12:36.701
221, 25039.07, 51532.01, 187500.00, -187500.02, -156169.94, -187500.02, -187500.02, -187500.02, 0.000, 0.000, 0.000, 18:12:36.701
222, 25191.94, 51539.28, 187500.00, -187500.02, -156343.25, -187500.02, -187500.02, -187500.02, 0.000, 0.000, 0.000, 18:12:36.701
223, 24716.92, 50966.31, 187500.00, -187500.02, -156348.25, -187500.02, -187500.02, -187500.02, 0.000, 0.000, 0.000, 18:12:36.701
224, 24024.35, 50287.96, 187500.00, -187500.02, -156055.00, -187500.02, -187500.02, -187500.02, 0.000, 0.000, 0.000, 18:12:36.701
225, 24107.00, 50544.20, 187500.00, -187500.02, -155913.83, -187500.02, -187500.02, -187500.02, 0.018, -0.014, 1.022, 18:12:36.702
226, 25059.50, 51551.48, 187500.00, -187500.02, -156155.70, -187500.02, -187500.02, -187500.02, 0.000, 0.000, 0.000, 18:12:36.702
227, 25217.26, 51569.65, 187500.00, -187500.02, -156320.78, -187500.02, -187500.02, -187500.02, 0.000, 0.000, 0.000, 18:12:36.702
228, 24735.78, 50999.10, 187500.00, -187500.02, -156322.08, -187500.02, -187500.02, -187500.02, 0.000, 0.000, 0.000, 18:12:36.702
229, 24036.35, 50316.08, 187500.00, -187500.02, -156048.16, -187500.02, -187500.02, -187500.02, 0.000, 0.000, 0.000, 18:12:36.702
230, 24125.00, 50568.52, 187500.00, -187500.02, -155995.75, -187500.02, -187500.02, -187500.02, 0.000, 0.000, 0.000, 18:12:36.702
231, 25057.96, 51557.67, 187500.00, -187500.02, -156233.86, -187500.02, -187500.02, -187500.02, 0.000, 0.000, 0.000, 18:12:36.702
232, 25211.11, 51568.25, 187500.00, -187500.02, -156388.98, -187500.02, -187500.02, -187500.02, 0.000, 0.000, 0.000, 18:12:36.702
233, 24739.25, 50997.49, 187500.00, -187500.02, -156375.70, -187500.02, -187500.02, -187500.02, 0.000, 0.000, 0.000, 18:12:36.702
234, 24045.13, 50320.68, 187500.00, -187500.02, -156100.69, -187500.02, -187500.02, -187500.02, 0.000, 0.000, 0.000, 18:12:36.703
235, 24104.57, 50548.34, 187500.00, -187500.02, -155979.50, -187500.02, -187500.02, -187500.02, 0.016, -0.016, 1.020, 18:12:36.703
236, 25040.95, 51544.46, 187500.00, -187500.02, -156179.77, -187500.02, -187500.02, -187500.02, 0.000, 0.000, 0.000, 18:12:36.703
237, 25206.44, 51568.11, 187500.00, -187500.02, -156337.53, -187500.02, -187500.02, -187500.02, 0.000, 0.000, 0.000, 18:12:36.703
238, 24732.72, 50993.02, 187500.00, -187500.02, -156325.61, -187500.02, -187500.02, -187500.02, 0.000, 0.000, 0.000, 18:12:36.703
239, 24043.53, 50317.15, 187500.00, -187500.02, -156051.25, -187500.02, -187500.02, -187500.02, 0.000, 0.000, 0.000, 18:12:36.704
240, 24108.93, 50547.73, 187500.00, -187500.02, -155987.75, -187500.02, -187500.02, -187500.02, 0.000, 0.000, 0.000, 18:12:36.704
241, 25041.60, 51534.49, 187500.00, -187500.02, -156188.67, -187500.02, -187500.02, -187500.02, 0.000, 0.000, 0.000, 18:12:37.165
242, 25201.46, 51554.97, 187500.00, -187500.02, -156351.72, -187500.02, -187500.02, -187500.02, 0.000, 0.000, 0.000, 18:12:37.165
243, 24739.56, 50994.18, 187500.00, -187500.02, -156399.58, -187500.02, -187500.02, -187500.02, 0.000, 0.000, 0.000, 18:12:37.165
244, 24046.30, 50323.32, 187500.00, -187500.02, -156160.66, -187500.02, -187500.02, -187500.02, 0.000, 0.000, 0.000, 18:12:37.166
245, 24101.13, 50546.12, 187500.00, -187500.02, -156075.00, -187500.02, -187500.02, -187500.02, 0.014, -0.018, 1.022, 18:12:37.166
246, 25024.74, 51523.07, 187500.00, -187500.02, -156261.48, -187500.02, -187500.02, -187500.02, 0.000, 0.000, 0.000, 18:12:37.166
247, 25186.03, 51545.65, 187500.00, -187500.02, -156400.88, -187500.02, -187500.02, -187500.02, 0.000, 0.000, 0.000, 18:12:37.166
248, 24709.16, 50968.39, 187500.00, -187500.02, -156419.14, -187500.02, -187500.02, -187500.02, 0.000, 0.000, 0.000, 18:12:37.166
249, 24010.87, 50280.43, 187500.00, -187500.02, -156127.72, -187500.02, -187500.02, -187500.02, 0.000, 0.000, 0.000, 18:12:37.166
250, 24046.70, 50485.64, 187500.00, -187500.02, -155989.16, -187500.02, -187500.02, -187500.02, 0.000, 0.000, 0.000, 18:12:37.167
251, 25000.56, 51502.13, 187500.00, -187500.02, -156201.63, -187500.02, -187500.02, -187500.02, 0.000, 0.000, 0.000, 18:12:37.167
252, 25178.05, 51547.39, 187500.00, -187500.02, -156367.80, -187500.02, -187500.02, -187500.02, 0.000, 0.000, 0.000, 18:12:37.167
253, 24717.47, 50984.24, 187500.00, -187500.02, -156363.64, -187500.02, -187500.02, -187500.02, 0.000, 0.000, 0.000, 18:12:37.167
254, 24014.11, 50291.13, 187500.00, -187500.02, -156088.64, -187500.02, -187500.02, -187500.02, 0.000, 0.000, 0.000, 18:12:37.167
255, 24062.12, 50508.21, 187500.00, -187500.02, -155977.80, -187500.02, -187500.02, -187500.02, 0.018, -0.010, 1.020, 18:12:37.168
0, 25000.98, 51504.18, 187500.00, -187500.02, -156176.69, -187500.02, -187500.02, -187500.02, 0.000, 0.000, 0.000, 18:12:37.168
1, 25186.39, 51551.04, 187500.00, -187500.02, -156325.22, -187500.02, -187500.02, -187500.02, 0.000, 0.000, 0.000, 18:12:37.168
2, 24735.49, 50998.72, 187500.00, -187500.02, -156324.98, -187500.02, -187500.02, -187500.02, 0.000, 0.000, 0.000, 18:12:37.168
3, 24038.23, 50316.30, 187500.00, -187500.02, -156051.81, -187500.02, -187500.02, -187500.02, 0.000, 0.000, 0.000, 18:12:37.168
4, 24073.54, 50514.38, 187500.00, -187500.02, -155961.73, -187500.02, -187500.02, -187500.02, 0.000, 0.000, 0.000, 18:12:37.168
5, 25017.14, 51525.11, 187500.00, -187500.02, -156195.27, -187500.02, -187500.02, -187500.02, 0.000, 0.000, 0.000, 18:12:37.169
6, 25208.10, 51579.13, 187500.00, -187500.02, -156354.67, -187500.02, -187500.02, -187500.02, 0.000, 0.000, 0.000, 18:12:37.169
7, 24738.31, 51003.95, 187500.00, -187500.02, -156361.05, -187500.02, -187500.02, -187500.02, 0.000, 0.000, 0.000, 18:12:37.169
8, 24040.89, 50313.77, 187500.00, -187500.02, -156091.41, -187500.02, -187500.02, -187500.02, 0.000, 0.000, 0.000, 18:12:37.169
9, 24061.99, 50497.53, 187500.00, -187500.02, -155978.64, -187500.02, -187500.02, -187500.02, 0.020, -0.006, 1.012, 18:12:37.169
10, 25004.74, 51505.37, 187500.00, -187500.02, -156162.22, -187500.02, -187500.02, -187500.02, 0.000, 0.000, 0.000, 18:12:37.170
11, 25199.74, 51564.82, 187500.00, -187500.02, -156280.75, -187500.02, -187500.02, -187500.02, 0.000, 0.000, 0.000, 18:12:37.170
12, 24744.81, 51007.11, 187500.00, -187500.02, -156336.67, -187500.02, -187500.02, -187500.02, 0.000, 0.000, 0.000, 18:12:37.170
13, 24043.84, 50317.91, 187500.00, -187500.02, -156060.80, -187500.02, -187500.02, -187500.02, 0.000, 0.000, 0.000, 18:12:37.170
14, 24061.38, 50498.24, 187500.00, -187500.02, -155912.38, -187500.02, -187500.02, -187500.02, 0.000, 0.000, 0.000, 18:12:37.170
15, 25001.83, 51505.14, 187500.00, -187500.02, -156130.75, -187500.02, -187500.02, -187500.02, 0.000, 0.000, 0.000, 18:12:37.170
16, 25207.94, 51578.13, 187500.00, -187500.02, -156321.81, -187500.02, -187500.02, -187500.02, 0.000, 0.000, 0.000, 18:12:37.171
17, 24745.41, 51008.71, 187500.00, -187500.02, -156340.09, -187500.02, -187500.02, -187500.02, 0.000, 0.000, 0.000, 18:12:37.171
18, 24041.16, 50314.63, 187500.00, -187500.02, -156061.80, -187500.02, -187500.02, -187500.02, 0.018, -0.014, 1.018, 18:12:37.171
19, 24054.52, 50491.94, 187500.00, -187500.02, -155966.36, -187500.02, -187500.02, -187500.02, 0.000, 0.000, 0.000, 18:12:37.171
20, 24998.26, 51503.74, 187500.00, -187500.02, -156179.30, -187500.02, -187500.02, -187500.02, 0.000, 0.000, 0.000, 18:12:37.171
21, 25204.34, 51576.40, 187500.00, -187500.02, -156341.31, -187500.02, -187500.02, -187500.02, 0.000, 0.000, 0.000, 18:12:37.171
22, 24748.28, 51017.59, 187500.00, -187500.02, -156338.06, -187500.02, -187500.02, -187500.02, 0.000, 0.000, 0.000, 18:12:37.172
23, 24054.95, 50335.81, 187500.00, -187500.02, -156079.75, -187500.02, -187500.02, -187500.02, 0.000, 0.000, 0.000, 18:12:37.172
24, 24051.79, 50491.67, 187500.00, -187500.02, -155958.70, -187500.02, -187500.02, -187500.02, 0.000, 0.000, 0.000, 18:12:37.173
25, 24997.47, 51497.50, 187500.00, -187500.02, -156127.94, -187500.02, -187500.02, -187500.02, 0.000, 0.000, 0.000, 18:12:37.174
26, 25213.68, 51583.22, 187500.00, -187500.02, -156259.97, -187500.02, -187500.02, -187500.02, 0.000, 0.000, 0.000, 18:12:37.174
27, 24759.90, 51024.07, 187500.00, -187500.02, -156293.78, -187500.02, -187500.02, -187500.02, 0.000, 0.000, 0.000, 18:12:37.174
28, 24069.27, 50340.62, 187500.00, -187500.02, -156020.77, -187500.02, -187500.02, -187500.02, 0.020, -0.010, 1.026, 18:12:37.174
29, 24059.82, 50493.95, 187500.00, -187500.02, -155894.52, -187500.02, -187500.02, -187500.02, 0.000, 0.000, 0.000, 18:12:37.174
30, 25006.10, 51509.91, 187500.00, -187500.02, -156085.78, -187500.02, -187500.02, -187500.02, 0.000, 0.000, 0.000, 18:12:37.174
31, 25237.33, 51612.03, 187500.00, -187500.02, -156288.47, -187500.02, -187500.02, -187500.02, 0.000, 0.000, 0.000, 18:12:37.175
32, 24786.14, 51053.75, 187500.00, -187500.02, -156334.22, -187500.02, -187500.02, -187500.02, 0.000, 0.000, 0.000, 18:12:37.175
33, 24087.78, 50367.48, 187500.00, -187500.02, -156080.08, -187500.02, -187500.02, -187500.02, 0.000, 0.000, 0.000, 18:12:37.175
34, 24079.85, 50517.11, 187500.00, -187500.02, -155976.45, -187500.02, -187500.02, -187500.02, 0.000, 0.000, 0.000, 18:12:37.175
35, 25028.32, 51536.37, 187500.00, -187500.02, -156195.50, -187500.02, -187500.02, -187500.02, 0.000, 0.000, 0.000, 18:12:37.175
36, 25247.77, 51624.10, 187500.00, -187500.02, -156374.91, -187500.02, -187500.02, -187500.02, 0.000, 0.000, 0.000, 18:12:37.175
37, 24795.97, 51059.41, 187500.00, -187500.02, -156398.66, -187500.02, -187500.02, -187500.02, 0.000, 0.000, 0.000, 18:12:37.176
38, 24097.15, 50371.31, 187500.00, -187500.02, -156131.94, -187500.02, -187500.02, -187500.02, 0.018, -0.012, 1.030, 18:12:37.176
39, 24061.61, 50499.32, 187500.00, -187500.02, -156013.66, -187500.02, -187500.02, -187500.02, 0.000, 0.000, 0.000, 18:12:37.176
40, 24997.32, 51505.97, 187500.00, -187500.02, -156170.56, -187500.02, -187500.02, -187500.02, 0.000, 0.000, 0.000, 18:12:37.176
41, 25227.92, 51605.32, 187500.00, -187500.02, -156310.84, -187500.02, -187500.02, -187500.02, 0.000, 0.000, 0.000, 18:12:37.176
42, 24772.71, 51042.84, 187500.00, -187500.02, -156311.17, -187500.02, -187500.02, -187500.02, 0.000, 0.000, 0.000, 18:12:37.176
43, 24081.86, 50361.68, 187500.00, -187500.02, -156046.94, -187500.02, -187500.02, -187500.02, 0.000, 0.000, 0.000, 18:12:37.177
44, 24044.13, 50483.18, 187500.00, -187500.02, -155912.33, -187500.02, -187500.02, -187500.02, 0.000, 0.000, 0.000, 18:12:37.177
45, 24987.46, 51500.41, 187500.00, -187500.02, -156128.73, -187500.02, -187500.02, -187500.02, 0.000, 0.000, 0.000, 18:12:37.177
46, 25232.06, 51617.93, 187500.00, -187500.02, -156319.88, -187500.02, -187500.02, -187500.02, 0.000, 0.000, 0.000, 18:12:37.177
47, 24784.71, 51061.35, 187500.00, -187500.02, -156339.66, -187500.02, -187500.02, -187500.02, 0.000, 0.000, 0.000, 18:12:37.177
48, 24102.36, 50387.45, 187500.00, -187500.02, -156072.92, -187500.02, -187500.02, -187500.02, 0.018, -0.016, 1.022, 18:12:37.177
49, 24053.49, 50495.07, 187500.00, -187500.02, -155961.33, -187500.02, -187500.02, -187500.02, 0.000, 0.000, 0.000, 18:12:37.178
50, 24988.47, 51502.51, 187500.00, -187500.02, -156172.39, -187500.02, -187500.02, -187500.02, 0.000, 0.000, 0.000, 18:12:37.178
51, 25235.79, 51617.33, 187500.00, -187500.02, -156355.14, -187500.02, -187500.02, -187500.02, 0.000, 0.000, 0.000, 18:12:37.178
52, 24792.87, 51058.00, 187500.00, -187500.02, -156385.67, -187500.02, -187500.02, -187500.02, 0.000, 0.000, 0.000, 18:12:37.178
53, 24093.62, 50365.27, 187500.00, -187500.02, -156114.13, -187500.02, -187500.02, -187500.02, 0.000, 0.000, 0.000, 18:12:37.178
54, 24043.17, 50478.51, 187500.00, -187500.02, -155991.23, -187500.02, -187500.02, -187500.02, 0.000, 0.000, 0.000, 18:12:37.178
55, 24984.53, 51496.14, 187500.00, -187500.02, -156178.92, -187500.02, -187500.02, -187500.02, 0.000, 0.000, 0.000, 18:12:37.179
56, 25241.11, 51618.43, 187500.00, -187500.02, -156331.16, -187500.02, -187500.02, -187500.02, 0.000, 0.000, 0.000, 18:12:37.179
57, 24793.07, 51054.47, 187500.00, -187500.02, -156345.86, -187500.02, -187500.02, -187500.02, 0.000, 0.000, 0.000, 18:12:37.179
58, 24103.65, 50376.34, 187500.00, -187500.02, -156088.19, -187500.02, -187500.02, -187500.02, 0.018, -0.020, 1.016, 18:12:37.179
59, 24051.21, 50479.60, 187500.00, -187500.02, -155957.39, -187500.02, -187500.02, -187500.02, 0.000, 0.000, 0.000, 18:12:37.179
60, 25001.39, 51501.01, 187500.00, -187500.02, -156167.41, -187500.02, -187500.02, -187500.02, 0.000, 0.000, 0.000, 18:12:37.179
61, 25250.90, 51626.25, 187500.00, -187500.02, -156328.50, -187500.02, -187500.02, -187500.02, 0.000, 0.000, 0.000, 18:12:37.180
62, 24802.90, 51064.44, 187500.00, -187500.02, -156349.27, -187500.02, -187500.02, -187500.02, 0.000, 0.000, 0.000, 18:12:37.180
63, 24117.20, 50383.71, 187500.00, -187500.02, -156114.53, -187500.02, -187500.02, -187500.02, 0.000, 0.000, 0.000, 18:12:37.180
64, 24044.69, 50467.27, 187500.00, -187500.02, -156010.59, -187500.02, -187500.02, -187500.02, 0.000, 0.000, 0.000, 18:12:37.180
65, 24971.14, 51475.35, 187500.00, -187500.02, -156192.86, -187500.02, -187500.02, -187500.02, 0.000, 0.000, 0.000, 18:12:37.180
66, 25228.55, 51609.68, 187500.00, -187500.02, -156333.48, -187500.02, -187500.02, -187500.02, 0.000, 0.000, 0.000, 18:12:37.180
67, 24794.63, 51065.13, 187500.00, -187500.02, -156340.08, -187500.02, -187500.02, -187500.02, 0.000, 0.000, 0.000, 18:12:37.181
68, 24097.41, 50372.54, 187500.00, -187500.02, -156095.53, -187500.02, -187500.02, -187500.02, 0.018, -0.016, 1.014, 18:12:37.181
69, 24012.43, 50442.48, 187500.00, -187500.02, -155969.63, -187500.02, -187500.02, -187500.02, 0.000, 0.000, 0.000, 18:12:37.181
70, 24958.22, 51473.23, 187500.00, -187500.02, -156155.83, -187500.02, -187500.02, -187500.02, 0.000, 0.000, 0.000, 18:12:37.181
71, 25232.41, 51622.31, 187500.00, -187500.02, -156281.09, -187500.02, -187500.02, -187500.02, 0.000, 0.000, 0.000, 18:12:37.181
72, 24792.29, 51068.71, 187500.00, -187500.02, -156301.88, -187500.02, -187500.02, -187500.02, 0.000, 0.000, 0.000, 18:12:37.181
73, 24106.31, 50382.08, 187500.00, -187500.02, -156015.38, -187500.02, -187500.02, -187500.02, 0.000, 0.000, 0.000, 18:12:37.182
74, 24024.39, 50453.77, 187500.00, -187500.02, -155888.81, -187500.02, -187500.02, -187500.02, 0.000, 0.000, 0.000, 18:12:37.182
75, 24979.21, 51500.03, 187500.00, -187500.02, -156090.36, -187500.02, -187500.02, -187500.02, 0.000, 0.000, 0.000, 18:12:37.182
76, 25267.82, 51669.12, 187500.00, -187500.02, -156275.25, -187500.02, -187500.02, -187500.02, 0.000, 0.000, 0.000, 18:12:37.182
77, 24840.48, 51125.84, 187500.00, -187500.02, -156338.25, -187500.02, -187500.02, -187500.02, 0.000, 0.000, 0.000, 18:12:37.182
78, 24129.56, 50419.92, 187500.00, -187500.02, -156121.47, -187500.02, -187500.02, -187500.02, 0.014, -0.012, 1.018, 18:12:37.182
79, 24010.13, 50451.71, 187500.00, -187500.02, -155968.64, -187500.02, -187500.02, -187500.02, 0.000, 0.000, 0.000, 18:12:37.183
80, 24963.46, 51496.59, 187500.00, -187500.02, -156168.25, -187500.02, -187500.02, -187500.02, 0.000, 0.000, 0.000, 18:12:37.183
81, 25261.70, 51676.16, 187500.00, -187500.02, -156343.31, -187500.02, -187500.02, -187500.02, 0.000, 0.000, 0.000, 18:12:37.183
82, 24832.38, 51125.16, 187500.00, -187500.02, -156359.28, -187500.02, -187500.02, -187500.02, 0.000, 0.000, 0.000, 18:12:37.183
83, 24132.06, 50415.77, 187500.00, -187500.02, -156101.61, -187500.02, -187500.02, -187500.02, 0.000, 0.000, 0.000, 18:12:37.183
84, 23998.82, 50436.35, 187500.00, -187500.02, -155953.91, -187500.02, -187500.02, -187500.02, 0.000, 0.000, 0.000, 18:12:37.183
85, 24940.46, 51478.79, 187500.00, -187500.02, -156124.19, -187500.02, -187500.02, -187500.02, 0.000, 0.000, 0.000, 18:12:37.184
86, 25259.95, 51674.57, 187500.00, -187500.02, -156291.95, -187500.02, -187500.02, -187500.02, 0.000, 0.000, 0.000, 18:12:37.184
87, 24836.14, 51126.68, 187500.00, -187500.02, -156326.80, -187500.02, -187500.02, -187500.02, 0.000, 0.000, 0.000, 18:12:37.184
88, 24117.87, 50393.88, 187500.00, -187500.02, -156070.95, -187500.02, -187500.02, -187500.02, 0.018, -0.012, 1.020, 18:12:37.184
89, 23963.68, 50390.40, 187500.00, -187500.02, -155898.30, -187500.02, -187500.02, -187500.02, 0.000, 0.000, 0.000, 18:12:37.184
90, 24937.95, 51469.36, 187500.00, -187500.02, -156105.98, -187500.02, -187500.02, -187500.02, 0.000, 0.000, 0.000, 18:12:37.185
91, 25272.87, 51683.94, 187500.00, -187500.02, -156303.38, -187500.02, -187500.02, -187500.02, 0.000, 0.000, 0.000, 18:12:37.185
92, 24855.63, 51140.07, 187500.00, -187500.02, -156358.92, -187500.02, -187500.02, -187500.02, 0.000, 0.000, 0.000, 18:12:37.185
93, 24128.37, 50399.98, 187500.00, -187500.02, -156138.48, -187500.02, -187500.02, -187500.02, 0.000, 0.000, 0.000, 18:12:37.185
94, 23952.17, 50378.62, 187500.00, -187500.02, -155980.14, -187500.02, -187500.02, -187500.02, 0.000, 0.000, 0.000, 18:12:37.185
95, 24925.75, 51460.42, 187500.00, -187500.02, -156205.81, -187500.02, -187500.02, -187500.02, 0.000, 0.000, 0.000, 18:12:37.185
96, 25265.99, 51680.90, 187500.00, -187500.02, -156386.88, -187500.02, -187500.02, -187500.02, 0.000, 0.000, 0.000, 18:12:37.186
97, 24840.92, 51129.01, 187500.00, -187500.02, -156382.70, -187500.02, -187500.02, -187500.02, 0.000, 0.000, 0.000, 18:12:37.186
98, 24123.14, 50399.65, 187500.00, -187500.02, -156108.78, -187500.02, -187500.02, -187500.02, 0.020, -0.010, 1.022, 18:12:37.186
99, 23941.09, 50363.91, 187500.00, -187500.02, -155919.78, -187500.02, -187500.02, -187500.02, 0.000, 0.000, 0.000, 18:12:37.186
100, 24910.64, 51445.40, 187500.00, -187500.02, -156111.55, -187500.02, -187500.02, -187500.02, 0.000, 0.000, 0.000, 18:12:37.186
101, 25266.39, 51686.60, 187500.00, -187500.02, -156289.00, -187500.02, -187500.02, -187500.02, 0.000, 0.000, 0.000, 18:12:37.186
102, 24864.26, 51149.62, 187500.00, -187500.02, -156360.23, -187500.02, -187500.02, -187500.02, 0.000, 0.000, 0.000, 18:12:37.187
103, 24122.92, 50394.58, 187500.00, -187500.02, -156046.78, -187500.02, -187500.02, -187500.02, 0.000, 0.000, 0.000, 18:12:37.187
104, 23942.09, 50363.82, 187500.00, -187500.02, -155903.45, -187500.02, -187500.02, -187500.02, 0.000, 0.000, 0.000, 18:12:37.187
105, 24915.02, 51455.23, 187500.00, -187500.02, -156083.41, -187500.02, -187500.02, -187500.02, 0.000, 0.000, 0.000, 18:12:37.187
106, 25297.77, 51719.32, 187500.00, -187500.02, -156285.42, -187500.02, -187500.02, -187500.02, 0.000, 0.000, 0.000, 18:12:37.646
107, 24877.56, 51166.83, 187500.00, -187500.02, -156335.41, -187500.02, -187500.02, -187500.02, 0.000, 0.000, 0.000, 18:12:37.646
108, 24143.15, 50418.79, 187500.00, -187500.02, -156092.91, -187500.02, -187500.02, -187500.02, 0.018, -0.008, 1.026, 18:12:37.646
109, 23940.30, 50367.55, 187500.00, -187500.02, -155969.94, -187500.02, -187500.02, -187500.02, 0.000, 0.000, 0.000, 18:12:37.646
110, 24915.85, 51460.66, 187500.00, -187500.02, -156183.41, -187500.02, -187500.02, -187500.02, 0.000, 0.000, 0.000, 18:12:37.646
111, 25276.02, 51701.77, 187500.00, -187500.02, -156352.84, -187500.02, -187500.02, -187500.02, 0.000, 0.000, 0.000, 18:12:37.646
112, 24862.63, 51152.03, 187500.00, -187500.02, -156394.86, -187500.02, -187500.02, -187500.02, 0.000, 0.000, 0.000, 18:12:37.647
113, 24123.61, 50393.48, 187500.00, -187500.02, -156155.03, -187500.02, -187500.02, -187500.02, 0.000, 0.000, 0.000, 18:12:37.647
114, 23902.11, 50320.68, 187500.00, -187500.02, -155940.78, -187500.02, -187500.02, -187500.02, 0.000, 0.000, 0.000, 18:12:37.647
115, 24883.88, 51423.36, 187500.00, -187500.02, -156104.38, -187500.02, -187500.02, -187500.02, 0.000, 0.000, 0.000, 18:12:37.647
116, 25264.20, 51684.38, 187500.00, -187500.02, -156299.22, -187500.02, -187500.02, -187500.02, 0.000, 0.000, 0.000, 18:12:37.647
117, 24858.94, 51148.55, 187500.00, -187500.02, -156336.25, -187500.02, -187500.02, -187500.02, 0.000, 0.000, 0.000, 18:12:37.647
118, 24126.32, 50395.83, 187500.00, -187500.02, -156063.70, -187500.02, -187500.02, -187500.02, 0.016, -0.010, 1.022, 18:12:37.648
119, 23907.00, 50327.21, 187500.00, -187500.02, -155926.70, -187500.02, -187500.02, -187500.02, 0.000, 0.000, 0.000, 18:12:37.648
120, 24880.93, 51426.45, 187500.00, -187500.02, -156117.78, -187500.02, -187500.02, -187500.02, 0.000, 0.000, 0.000, 18:12:37.648
121, 25277.47, 51705.26, 187500.00, -187500.02, -156280.52, -187500.02, -187500.02, -187500.02, 0.000, 0.000, 0.000, 18:12:37.648
122, 24883.77, 51175.43, 187500.00, -187500.02, -156346.56, -187500.02, -187500.02, -187500.02, 0.000, 0.000, 0.000, 18:12:37.648
123, 24151.28, 50417.98, 187500.00, -187500.02, -156126.64, -187500.02, -187500.02, -187500.02, 0.000, 0.000, 0.000, 18:12:37.649
124, 23916.43, 50329.22, 187500.00, -187500.02, -155964.48, -187500.02, -187500.02, -187500.02, 0.000, 0.000, 0.000, 18:12:37.649
125, 24886.90, 51431.21, 187500.00, -187500.02, -156143.78, -187500.02, -187500.02, -187500.02, 0.000, 0.000, 0.000, 18:12:37.649
126, 25296.18, 51730.36, 187500.00, -187500.02, -156323.11, -187500.02, -187500.02, -187500.02, 0.000, 0.000, 0.000, 18:12:37.649
127, 24883.73, 51179.86, 187500.00, -187500.02, -156345.95, -187500.02, -187500.02, -187500.02, 0.000, 0.000, 0.000, 18:12:37.649
128, 24139.84, 50404.81, 187500.00, -187500.02, -156080.34, -187500.02, -187500.02, -187500.02, 0.016, -0.010, 1.026, 18:12:37.649
129, 23904.94, 50319.09, 187500.00, -187500.02, -155928.92, -187500.02, -187500.02, -187500.02, 0.000, 0.000, 0.000, 18:12:37.650
130, 24883.21, 51431.38, 187500.00, -187500.02, -156096.67, -187500.02, -187500.02, -187500.02, 0.000, 0.000, 0.000, 18:12:37.650
131, 25291.18, 51727.19, 187500.00, -187500.02, -156271.66, -187500.02, -187500.02, -187500.02, 0.000, 0.000, 0.000, 18:12:37.650
132, 24889.61, 51188.09, 187500.00, -187500.02, -156317.97, -187500.02, -187500.02, -187500.02, 0.000, 0.000, 0.000, 18:12:37.650
133, 24150.01, 50424.28, 187500.00, -187500.02, -156040.78, -187500.02, -187500.02, -187500.02, 0.000, 0.000, 0.000, 18:12:37.650
134, 23895.58, 50317.82, 187500.00, -187500.02, -155868.88, -187500.02, -187500.02, -187500.02, 0.000, 0.000, 0.000, 18:12:37.650
135, 24875.12, 51435.05, 187500.00, -187500.02, -156080.38, -187500.02, -187500.02, -187500.02, 0.000, 0.000, 0.000, 18:12:37.651
136, 25295.65, 51739.77, 187500.00, -187500.02, -156255.20, -187500.02, -187500.02, -187500.02, 0.000, 0.000, 0.000, 18:12:37.651
137, 24898.32, 51204.89, 187500.00, -187500.02, -156311.47, -187500.02, -187500.02, -187500.02, 0.000, 0.000, 0.000, 18:12:37.651
138, 24160.87, 50436.84, 187500.00, -187500.02, -156080.91, -187500.02, -187500.02, -187500.02, 0.014, -0.014, 1.020, 18:12:37.651
139, 23892.90, 50309.19, 187500.00, -187500.02, -155971.70, -187500.02, -187500.02, -187500.02, 0.000, 0.000, 0.000, 18:12:37.651
140, 24865.38, 51415.70, 187500.00, -187500.02, -156190.75, -187500.02, -187500.02, -187500.02, 0.000, 0.000, 0.000, 18:12:37.651
141, 25279.46, 51719.03, 187500.00, -187500.02, -156349.08, -187500.02, -187500.02, -187500.02, 0.000, 0.000, 0.000, 18:12:37.652
142, 24882.59, 51182.12, 187500.00, -187500.02, -156374.30, -187500.02, -187500.02, -187500.02, 0.000, 0.000, 0.000, 18:12:37.652
143, 24147.46, 50419.01, 187500.00, -187500.02, -156123.31, -187500.02, -187500.02, -187500.02, 0.000, 0.000, 0.000, 18:12:37.652
144, 23866.37, 50279.38, 187500.00, -187500.02, -155929.83, -187500.02, -187500.02, -187500.02, 0.000, 0.000, 0.000, 18:12:37.652
145, 24850.98, 51400.63, 187500.00, -187500.02, -156102.83, -187500.02, -187500.02, -187500.02, 0.000, 0.000, 0.000, 18:12:37.652
146, 25296.85, 51739.50, 187500.00, -187500.02, -156280.95, -187500.02, -187500.02, -187500.02, 0.000, 0.000, 0.000, 18:12:37.652
147, 24901.47, 51200.20, 187500.00, -187500.02, -156317.28, -187500.02, -187500.02, -187500.02, 0.012, -0.016, 1.022, 18:12:37.653
148, 24162.17, 50426.36, 187500.00, -187500.02, -156074.20, -187500.02, -187500.02, -187500.02, 0.000, 0.000, 0.000, 18:12:37.653
149, 23880.96, 50285.97, 187500.00, -187500.02, -155899.55, -187500.02, -187500.02, -187500.02, 0.000, 0.000, 0.000, 18:12:37.653
150, 24864.55, 51419.63, 187500.00, -187500.02, -156077.53, -187500.02, -187500.02, -187500.02, 0.000, 0.000, 0.000, 18:12:37.653
151, 25321.31, 51764.43, 187500.00, -187500.02, -156263.34, -187500.02, -187500.02, -187500.02, 0.000, 0.000, 0.000, 18:12:37.653
152, 24944.39, 51236.72, 187500.00, -187500.02, -156344.84, -187500.02, -187500.02, -187500.02, 0.000, 0.000, 0.000, 18:12:37.653
153, 24213.26, 50477.48, 187500.00, -187500.02, -156128.47, -187500.02, -187500.02, -187500.02, 0.000, 0.000, 0.000, 18:12:37.654
154, 23905.73, 50309.33, 187500.00, -187500.02, -155987.48, -187500.02, -187500.02, -187500.02, 0.000, 0.000, 0.000, 18:12:37.654
155, 24883.28, 51434.60, 187500.00, -187500.02, -156156.25, -187500.02, -187500.02, -187500.02, 0.000, 0.000, 0.000, 18:12:37.654
156, 25339.86, 51778.82, 187500.00, -187500.02, -156328.47, -187500.02, -187500.02, -187500.02, 0.000, 0.000, 0.000, 18:12:37.654
157, 24945.15, 51237.30, 187500.00, -187500.02, -156381.09, -187500.02, -187500.02, -187500.02, 0.016, -0.016, 1.020, 18:12:37.654
158, 24196.34, 50460.80, 187500.00, -187500.02, -156129.19, -187500.02, -187500.02, -187500.02, 0.000, 0.000, 0.000, 18:12:37.654
159, 23878.52, 50287.00, 187500.00, -187500.02, -155942.66, -187500.02, -187500.02, -187500.02, 0.000, 0.000, 0.000, 18:12:37.654
160, 24861.69, 51419.47, 187500.00, -187500.02, -156116.58, -187500.02, -187500.02, -187500.02, 0.000, 0.000, 0.000, 18:12:37.654
161, 25328.41, 51775.64, 187500.00, -187500.02, -156286.31, -187500.02, -187500.02, -187500.02, 0.000, 0.000, 0.000, 18:12:37.654
162, 24945.46, 51246.65, 187500.00, -187500.02, -156328.30, -187500.02, -187500.02, -187500.02, 0.000, 0.000, 0.000, 18:12:37.655
163, 24199.36, 50465.30, 187500.00, -187500.02, -156079.39, -187500.02, -187500.02, -187500.02, 0.000, 0.000, 0.000, 18:12:37.655
164, 23869.65, 50267.69, 187500.00, -187500.02, -155881.55, -187500.02, -187500.02, -187500.02, 0.000, 0.000, 0.000, 18:12:37.655
165, 24849.42, 51399.24, 187500.00, -187500.02, -156071.97, -187500.02, -187500.02, -187500.02, 0.000, 0.000, 0.000, 18:12:37.655
166, 25325.02, 51773.07, 187500.00, -187500.02, -156277.36, -187500.02, -187500.02, -187500.02, 0.000, 0.000, 0.000, 18:12:37.655
167, 24940.79, 51243.50, 187500.00, -187500.02, -156377.38, -187500.02, -187500.02, -187500.02, 0.016, -0.014, 1.014, 18:12:37.655
168, 24197.24, 50468.65, 187500.00, -187500.02, -156148.97, -187500.02, -187500.02, -187500.02, 0.000, 0.000, 0.000, 18:12:37.656
169, 23863.53, 50268.00, 187500.00, -187500.02, -155947.22, -187500.02, -187500.02, -187500.02, 0.000, 0.000, 0.000, 18:12:37.656
170, 24841.13, 51398.86, 187500.00, -187500.02, -156164.02, -187500.02, -187500.02, -187500.02, 0.000, 0.000, 0.000, 18:12:37.656
171, 25330.81, 51784.16, 187500.00, -187500.02, -156371.69, -187500.02, -187500.02, -187500.02, 0.000, 0.000, 0.000, 18:12:37.656
172, 24941.44, 51246.80, 187500.00, -187500.02, -156396.14, -187500.02, -187500.02, -187500.02, 0.000, 0.000, 0.000, 18:12:37.656
173, 24191.92, 50465.75, 187500.00, -187500.02, -156136.63, -187500.02, -187500.02, -187500.02, 0.000, 0.000, 0.000, 18:12:37.656
174, 23859.97, 50271.04, 187500.00, -187500.02, -155966.53, -187500.02, -187500.02, -187500.02, 0.000, 0.000, 0.000, 18:12:37.657
175, 24836.88, 51399.33, 187500.00, -187500.02, -156140.03, -187500.02, -187500.02, -187500.02, 0.000, 0.000, 0.000, 18:12:37.657
176, 25330.38, 51788.52, 187500.00, -187500.02, -156321.30, -187500.02, -187500.02, -187500.02, 0.000, 0.000, 0.000, 18:12:37.657
177, 24958.54, 51263.84, 187500.00, -187500.02, -156347.67, -187500.02, -187500.02, -187500.02, 0.012, -0.012, 1.018, 18:12:37.657
178, 24223.95, 50504.01, 187500.00, -187500.02, -156107.89, -187500.02, -187500.02, -187500.02, 0.000, 0.000, 0.000, 18:12:37.657
179, 23879.69, 50295.09, 187500.00, -187500.02, -155943.69, -187500.02, -187500.02, -187500.02, 0.000, 0.000, 0.000, 18:12:37.657
180, 24850.65, 51419.58, 187500.00, -187500.02, -156111.38, -187500.02, -187500.02, -187500.02, 0.000, 0.000, 0.000, 18:12:37.658
181, 25348.91, 51813.82, 187500.00, -187500.02, -156292.91, -187500.02, -187500.02, -187500.02, 0.000, 0.000, 0.000, 18:12:37.658
182, 24977.04, 51290.90, 187500.00, -187500.02, -156357.64, -187500.02, -187500.02, -187500.02, 0.000, 0.000, 0.000, 18:12:37.658
183, 24230.70, 50510.43, 187500.00, -187500.02, -156147.58, -187500.02, -187500.02, -187500.02, 0.000, 0.000, 0.000, 18:12:37.658
184, 23870.79, 50281.16, 187500.00, -187500.02, -155983.50, -187500.02, -187500.02, -187500.02, 0.000, 0.000, 0.000, 18:12:37.658
185, 24850.54, 51415.80, 187500.00, -187500.02, -156163.47, -187500.02, -187500.02, -187500.02, 0.000, 0.000, 0.000, 18:12:37.658
186, 25349.94, 51818.05, 187500.00, -187500.02, -156346.78, -187500.02, -187500.02, -187500.02, 0.000, 0.000, 0.000, 18:12:37.659
187, 24971.73, 51292.54, 187500.00, -187500.02, -156404.78, -187500.02, -187500.02, -187500.02, 0.016, -0.008, 1.022, 18:12:37.659
188, 24219.25, 50505.71, 187500.00, -187500.02, -156177.02, -187500.02, -187500.02, -187500.02, 0.000, 0.000, 0.000, 18:12:37.659
189, 23843.07, 50257.25, 187500.00, -187500.02, -155975.20, -187500.02, -187500.02, -187500.02, 0.000, 0.000, 0.000, 18:12:37.659
190, 24814.19, 51386.73, 187500.00, -187500.02, -156128.19, -187500.02, -187500.02, -187500.02, 0.000, 0.000, 0.000, 18:12:37.659
191, 25325.91, 51799.00, 187500.00, -187500.02, -156283.33, -187500.02, -187500.02, -187500.02, 0.000, 0.000, 0.000, 18:12:37.659
192, 24949.33, 51275.41, 187500.00, -187500.02, -156340.03, -187500.02, -187500.02, -187500.02, 0.000, 0.000, 0.000, 18:12:37.659
193, 24213.80, 50502.82, 187500.00, -187500.02, -156083.13, -187500.02, -187500.02, -187500.02, 0.000, 0.000, 0.000, 18:12:37.659
194, 23845.76, 50260.40, 187500.00, -187500.02, -155931.52, -187500.02, -187500.02, -187500.02, 0.000, 0.000, 0.000, 18:12:37.659
195, 24818.48, 51387.26, 187500.00, -187500.02, -156111.22, -187500.02, -187500.02, -187500.02, 0.000, 0.000, 0.000, 18:12:37.660
196, 25357.70, 51831.19, 187500.00, -187500.02, -156335.88, -187500.02, -187500.02, -187500.02, 0.000, 0.000, 0.000, 18:12:37.660
197, 24990.54, 51319.69, 187500.00, -187500.02, -156419.78, -187500.02, -187500.02, -187500.02, 0.014, -0.010, 1.026, 18:12:37.660
198, 24257.25, 50554.23, 187500.00, -187500.02, -156195.81, -187500.02, -187500.02, -187500.02, 0.000, 0.000, 0.000, 18:12:37.660
199, 23863.08, 50276.76, 187500.00, -187500.02, -155998.34, -187500.02, -187500.02, -187500.02, 0.000, 0.000, 0.000, 18:12:37.660
200, 24811.73, 51383.75, 187500.00, -187500.02, -156168.09, -187500.02, -187500.02, -187500.02, 0.000, 0.000, 0.000, 18:12:37.660
201, 25352.00, 51827.61, 187500.00, -187500.02, -156327.47, -187500.02, -187500.02, -187500.02, 0.000, 0.000, 0.000, 18:12:37.660
202, 24989.12, 51305.50, 187500.00, -187500.02, -156394.39, -187500.02, -187500.02, -187500.02, 0.000, 0.000, 0.000, 18:12:37.660
203, 24244.11, 50526.43, 187500.00, -187500.02, -156156.19, -187500.02, -187500.02, -187500.02, 0.000, 0.000, 0.000, 18:12:37.661
204, 23850.74, 50259.35, 187500.00, -187500.02, -155978.67, -187500.02, -187500.02, -187500.02, 0.000, 0.000, 0.000, 18:12:37.661
205, 24820.58, 51386.61, 187500.00, -187500.02, -156160.55, -187500.02, -187500.02, -187500.02, 0.000, 0.000, 0.000, 18:12:37.661
206, 25363.89, 51833.96, 187500.00, -187500.02, -156352.70, -187500.02, -187500.02, -187500.02, 0.000, 0.000, 0.000, 18:12:37.661
207, 24994.81, 51314.82, 187500.00, -187500.02, -156412.05, -187500.02, -187500.02, -187500.02, 0.018, -0.008, 1.022, 18:12:37.661
208, 24263.29, 50546.39, 187500.00, -187500.02, -156189.78, -187500.02, -187500.02, -187500.02, 0.000, 0.000, 0.000, 18:12:37.661
209, 23867.88, 50271.29, 187500.00, -187500.02, -156000.58, -187500.02, -187500.02, -187500.02, 0.000, 0.000, 0.000, 18:12:37.661
210, 24815.20, 51377.58, 187500.00, -187500.02, -156186.09, -187500.02, -187500.02, -187500.02, 0.000, 0.000, 0.000, 18:12:37.661
211, 25361.25, 51826.43, 187500.00, -187500.02, -156402.81, -187500.02, -187500.02, -187500.02, 0.000, 0.000, 0.000, 18:12:37.661
212, 24994.90, 51303.20, 187500.00, -187500.02, -156453.88, -187500.02, -187500.02, -187500.02, 0.000, 0.000, 0.000, 18:12:37.662
213, 24249.92, 50522.50, 187500.00, -187500.02, -156221.33, -187500.02, -187500.02, -187500.02, 0.000, 0.000, 0.000, 18:12:37.662
214, 23837.71, 50233.75, 187500.00, -187500.02, -156012.17, -187500.02, -187500.02, -187500.02, 0.000, 0.000, 0.000, 18:12:37.662
215, 24790.79, 51352.50, 187500.00, -187500.02, -156185.47, -187500.02, -187500.02, -187500.02, 0.000, 0.000, 0.000, 18:12:37.662
216, 25331.10, 51798.07, 187500.00, -187500.02, -156346.41, -187500.02, -187500.02, -187500.02, 0.000, 0.000, 0.000, 18:12:37.662
217, 24976.87, 51292.13, 187500.00, -187500.02, -156400.42, -187500.02, -187500.02, -187500.02, 0.020, -0.012, 1.024, 18:12:37.662
218, 24247.15, 50523.12, 187500.00, -187500.02, -156164.50, -187500.02, -187500.02, -187500.02, 0.000, 0.000, 0.000, 18:12:37.662
219, 23836.75, 50229.04, 187500.00, -187500.02, -155983.52, -187500.02, -187500.02, -187500.02, 0.000, 0.000, 0.000, 18:12:37.662
220, 24783.66, 51348.04, 187500.00, -187500.02, -156136.47, -187500.02, -187500.02, -187500.02, 0.000, 0.000, 0.000, 18:12:37.663
221, 25351.10, 51826.79, 187500.00, -187500.02, -156330.23, -187500.02, -187500.02, -187500.02, 0.000, 0.000, 0.000, 18:12:37.663
222, 24995.69, 51315.89, 187500.00, -187500.02, -156384.44, -187500.02, -187500.02, -187500.02, 0.000, 0.000, 0.000, 18:12:37.663
223, 24266.28, 50544.64, 187500.00, -187500.02, -156193.36, -187500.02, -187500.02, -187500.02, 0.000, 0.000, 0.000, 18:12:37.663
224, 23844.82, 50246.88, 187500.00, -187500.02, -156025.05, -187500.02, -187500.02, -187500.02, 0.000, 0.000, 0.000, 18:12:37.663
225, 24793.69, 51363.95, 187500.00, -187500.02, -156191.03, -187500.02, -187500.02, -187500.02, 0.000, 0.000, 0.000, 18:12:37.663
226, 25354.05, 51833.94, 187500.00, -187500.02, -156384.17, -187500.02, -187500.02, -187500.02, 0.000, 0.000, 0.000, 18:12:38.126
227, 25003.04, 51320.41, 187500.00, -187500.02, -156451.16, -187500.02, -187500.02, -187500.02, 0.018, -0.010, 1.022, 18:12:38.126
228, 24268.54, 50547.77, 187500.00, -187500.02, -156228.77, -187500.02, -187500.02, -187500.02, 0.000, 0.000, 0.000, 18:12:38.126
229, 23835.52, 50234.38, 187500.00, -187500.02, -156011.42, -187500.02, -187500.02, -187500.02, 0.000, 0.000, 0.000, 18:12:38.126
230, 24793.69, 51363.79, 187500.00, -187500.02, -156162.92, -187500.02, -187500.02, -187500.02, 0.000, 0.000, 0.000, 18:12:38.126
231, 25367.78, 51846.88, 187500.00, -187500.02, -156334.11, -187500.02, -187500.02, -187500.02, 0.000, 0.000, 0.000, 18:12:38.127
232, 25026.93, 51344.95, 187500.00, -187500.02, -156425.48, -187500.02, -187500.02, -187500.02, 0.000, 0.000, 0.000, 18:12:38.127
233, 24287.09, 50568.90, 187500.00, -187500.02, -156217.63, -187500.02, -187500.02, -187500.02, 0.000, 0.000, 0.000, 18:12:38.127
234, 23843.61, 50242.45, 187500.00, -187500.02, -156022.92, -187500.02, -187500.02, -187500.02, 0.000, 0.000, 0.000, 18:12:38.127
235, 24791.17, 51358.00, 187500.00, -187500.02, -156187.08, -187500.02, -187500.02, -187500.02, 0.000, 0.000, 0.000, 18:12:38.127
236, 25370.30, 51845.56, 187500.00, -187500.02, -156363.95, -187500.02, -187500.02, -187500.02, 0.000, 0.000, 0.000, 18:12:38.127
237, 25011.33, 51326.44, 187500.00, -187500.02, -156421.39, -187500.02, -187500.02, -187500.02, 0.010, -0.004, 1.020, 18:12:38.128
238, 24274.46, 50556.98, 187500.00, -187500.02, -156218.17, -187500.02, -187500.02, -187500.02, 0.000, 0.000, 0.000, 18:12:38.128
239, 23827.83, 50222.80, 187500.00, -187500.02, -156017.45, -187500.02, -187500.02, -187500.02, 0.000, 0.000, 0.000, 18:12:38.128
240, 24769.82, 51330.42, 187500.00, -187500.02, -156198.45, -187500.02, -187500.02, -187500.02, 0.000, 0.000, 0.000, 18:12:38.128
241, 25349.87, 51824.71, 187500.00, -187500.02, -156417.25, -187500.02, -187500.02, -187500.02, 0.000, 0.000, 0.000, 18:12:38.128
242, 24990.93, 51313.17, 187500.00, -187500.02, -156456.13, -187500.02, -187500.02, -187500.02, 0.000, 0.000, 0.000, 18:12:38.128
243, 24263.29, 50546.81, 187500.00, -187500.02, -156247.20, -187500.02, -187500.02, -187500.02, 0.000, 0.000, 0.000, 18:12:38.129
244, 23801.79, 50195.98, 187500.00, -187500.02, -156061.80, -187500.02, -187500.02, -187500.02, 0.000, 0.000, 0.000, 18:12:38.129
245, 24733.05, 51298.05, 187500.00, -187500.02, -156226.48, -187500.02, -187500.02, -187500.02, 0.000, 0.000, 0.000, 18:12:38.129
246, 25314.89, 51797.55, 187500.00, -187500.02, -156394.02, -187500.02, -187500.02, -187500.02, 0.000, 0.000, 0.000, 18:12:38.129
247, 24981.52, 51304.49, 187500.00, -187500.02, -156430.16, -187500.02, -187500.02, -187500.02, 0.014, -0.010, 1.016, 18:12:38.129
248, 24259.82, 50541.41, 187500.00, -187500.02, -156227.98, -187500.02, -187500.02, -187500.02, 0.000, 0.000, 0.000, 18:12:38.129
249, 23804.70, 50192.29, 187500.00, -187500.02, -156010.00, -187500.02, -187500.02, -187500.02, 0.000, 0.000, 0.000, 18:12:38.130
250, 24740.68, 51302.23, 187500.00, -187500.02, -156172.27, -187500.02, -187500.02, -187500.02, 0.000, 0.000, 0.000, 18:12:38.130
251, 25337.56, 51817.64, 187500.00, -187500.02, -156378.86, -187500.02, -187500.02, -187500.02, 0.000, 0.000, 0.000, 18:12:38.130
252, 25016.88, 51332.99, 187500.00, -187500.02, -156451.83, -187500.02, -187500.02, -187500.02, 0.000, 0.000, 0.000, 18:12:38.130
253, 24304.26, 50578.87, 187500.00, -187500.02, -156259.31, -187500.02, -187500.02, -187500.02, 0.000, 0.000, 0.000, 18:12:38.130
254, 23828.84, 50207.02, 187500.00, -187500.02, -156052.52, -187500.02, -187500.02, -187500.02, 0.000, 0.000, 0.000, 18:12:38.130
255, 24756.12, 51308.88, 187500.00, -187500.02, -156223.84, -187500.02, -187500.02, -187500.02, 0.000, 0.000, 0.000, 18:12:38.131
0, 25351.66, 51823.93, 187500.00, -187500.02, -156422.84, -187500.02, -187500.02, -187500.02, 0.000, 0.000, 0.000, 18:12:38.131
1, 25010.21, 51323.61, 187500.00, -187500.02, -156496.72, -187500.02, -187500.02, -187500.02, 0.016, -0.012, 1.022, 18:12:38.131
2, 24290.40, 50566.75, 187500.00, -187500.02, -156297.63, -187500.02, -187500.02, -187500.02, 0.000, 0.000, 0.000, 18:12:38.131
3, 23806.71, 50196.63, 187500.00, -187500.02, -156068.19, -187500.02, -187500.02, -187500.02, 0.000, 0.000, 0.000, 18:12:38.131
4, 24728.25, 51286.81, 187500.00, -187500.02, -156217.61, -187500.02, -187500.02, -187500.02, 0.000, 0.000, 0.000, 18:12:38.132
5, 25337.56, 51815.66, 187500.00, -187500.02, -156399.59, -187500.02, -187500.02, -187500.02, 0.000, 0.000, 0.000, 18:12:38.132
6, 25009.66, 51323.22, 187500.00, -187500.02, -156468.16, -187500.02, -187500.02, -187500.02, 0.000, 0.000, 0.000, 18:12:38.132
7, 24290.60, 50560.27, 187500.00, -187500.02, -156239.94, -187500.02, -187500.02, -187500.02, 0.000, 0.000, 0.000, 18:12:38.132
8, 23803.76, 50181.61, 187500.00, -187500.02, -156023.58, -187500.02, -187500.02, -187500.02, 0.000, 0.000, 0.000, 18:12:38.132
9, 24712.74, 51266.81, 187500.00, -187500.02, -156181.27, -187500.02, -187500.02, -187500.02, 0.000, 0.000, 0.000, 18:12:38.132
10, 25332.62, 51805.78, 187500.00, -187500.02, -156368.27, -187500.02, -187500.02, -187500.02, 0.018, -0.012, 1.022, 18:12:38.133
11, 25004.11, 51322.18, 187500.00, -187500.02, -156451.00, -187500.02, -187500.02, -187500.02, 0.000, 0.000, 0.000, 18:12:38.133
12, 24288.50, 50567.69, 187500.00, -187500.02, -156251.52, -187500.02, -187500.02, -187500.02, 0.000, 0.000, 0.000, 18:12:38.133
13, 23797.90, 50179.91, 187500.00, -187500.02, -156044.11, -187500.02, -187500.02, -187500.02, 0.000, 0.000, 0.000, 18:12:38.133
14, 24702.23, 51257.93, 187500.00, -187500.02, -156215.73, -187500.02, -187500.02, -187500.02, 0.000, 0.000, 0.000, 18:12:38.133
15, 25331.54, 51809.40, 187500.00, -187500.02, -156410.11, -187500.02, -187500.02, -187500.02, 0.000, 0.000, 0.000, 18:12:38.134
16, 25007.55, 51324.83, 187500.00, -187500.02, -156505.80, -187500.02, -187500.02, -187500.02, 0.000, 0.000, 0.000, 18:12:38.134
17, 24286.33, 50564.36, 187500.00, -187500.02, -156288.67, -187500.02, -187500.02, -187500.02, 0.000, 0.000, 0.000, 18:12:38.134
18, 23789.43, 50169.14, 187500.00, -187500.02, -156085.06, -187500.02, -187500.02, -187500.02, 0.000, 0.000, 0.000, 18:12:38.134
19, 24693.40, 51250.87, 187500.00, -187500.02, -156219.27, -187500.02, -187500.02, -187500.02, 0.000, 0.000, 0.000, 18:12:38.134
20, 25327.95, 51820.77, 187500.00, -187500.02, -156397.09, -187500.02, -187500.02, -187500.02, 0.016, -0.012, 1.018, 18:12:38.134
21, 25013.52, 51343.86, 187500.00, -187500.02, -156461.45, -187500.02, -187500.02, -187500.02, 0.000, 0.000, 0.000, 18:12:38.135
22, 24306.20, 50593.26, 187500.00, -187500.02, -156215.55, -187500.02, -187500.02, -187500.02, 0.000, 0.000, 0.000, 18:12:38.135
23, 23805.46, 50190.91, 187500.00, -187500.02, -155976.97, -187500.02, -187500.02, -187500.02, 0.000, 0.000, 0.000, 18:12:38.135
24, 24706.25, 51268.71, 187500.00, -187500.02, -156137.02, -187500.02, -187500.02, -187500.02, 0.000, 0.000, 0.000, 18:12:38.135
25, 25342.38, 51832.11, 187500.00, -187500.02, -156381.50, -187500.02, -187500.02, -187500.02, 0.000, 0.000, 0.000, 18:12:38.135
26, 25039.72, 51363.55, 187500.00, -187500.02, -156465.92, -187500.02, -187500.02, -187500.02, 0.000, 0.000, 0.000, 18:12:38.135
27, 24338.84, 50618.83, 187500.00, -187500.02, -156284.48, -187500.02, -187500.02, -187500.02, 0.000, 0.000, 0.000, 18:12:38.136
28, 23819.36, 50205.75, 187500.00, -187500.02, -156072.53, -187500.02, -187500.02, -187500.02, 0.000, 0.000, 0.000, 18:12:38.136
29, 24712.27, 51273.58, 187500.00, -187500.02, -156252.25, -187500.02, -187500.02, -187500.02, 0.000, 0.000, 0.000, 18:12:38.136
30, 25348.71, 51836.84, 187500.00, -187500.02, -156438.98, -187500.02, -187500.02, -187500.02, 0.010, -0.014, 1.020, 18:12:38.136
31, 25042.60, 51366.45, 187500.00, -187500.02, -156509.39, -187500.02, -187500.02, -187500.02, 0.000, 0.000, 0.000, 18:12:38.136
32, 24329.54, 50610.27, 187500.00, -187500.02, -156289.50, -187500.02, -187500.02, -187500.02, 0.000, 0.000, 0.000, 18:12:38.136
33, 23806.06, 50178.30, 187500.00, -187500.02, -156061.81, -187500.02, -187500.02, -187500.02, 0.000, 0.000, 0.000, 18:12:38.137
34, 24683.32, 51238.18, 187500.00, -187500.02, -156189.33, -187500.02, -187500.02, -187500.02, 0.000, 0.000, 0.000, 18:12:38.137
35, 25332.97, 51819.68, 187500.00, -187500.02, -156388.41, -187500.02, -187500.02, -187500.02, 0.000, 0.000, 0.000, 18:12:38.137
36, 25024.52, 51344.08, 187500.00, -187500.02, -156473.38, -187500.02, -187500.02, -187500.02, 0.000, 0.000, 0.000, 18:12:38.137
37, 24317.83, 50590.73, 187500.00, -187500.02, -156240.55, -187500.02, -187500.02, -187500.02, 0.000, 0.000, 0.000, 18:12:38.137
38, 23793.50, 50161.89, 187500.00, -187500.02, -155995.03, -187500.02, -187500.02, -187500.02, 0.000, 0.000, 0.000, 18:12:38.138
39, 24677.85, 51230.44, 187500.00, -187500.02, -156129.52, -187500.02, -187500.02, -187500.02, 0.000, 0.000, 0.000, 18:12:38.138
40, 25338.58, 51828.06, 187500.00, -187500.02, -156328.41, -187500.02, -187500.02, -187500.02, 0.018, -0.014, 1.024, 18:12:38.138
41, 25041.53, 51367.68, 187500.00, -187500.02, -156453.84, -187500.02, -187500.02, -187500.02, 0.000, 0.000, 0.000, 18:12:38.138
42, 24345.83, 50625.31, 187500.00, -187500.02, -156275.61, -187500.02, -187500.02, -187500.02, 0.000, 0.000, 0.000, 18:12:38.138
43, 23810.44, 50191.31, 187500.00, -187500.02, -156078.69, -187500.02, -187500.02, -187500.02, 0.000, 0.000, 0.000, 18:12:38.138
44, 24679.03, 51242.36, 187500.00, -187500.02, -156233.61, -187500.02, -187500.02, -187500.02, 0.000, 0.000, 0.000, 18:12:38.138
45, 25347.30, 51844.45, 187500.00, -187500.02, -156426.55, -187500.02, -187500.02, -187500.02, 0.000, 0.000, 0.000, 18:12:38.138
46, 25039.29, 51374.43, 187500.00, -187500.02, -156508.34, -187500.02, -187500.02, -187500.02, 0.000, 0.000, 0.000, 18:12:38.138
47, 24331.48, 50624.93, 187500.00, -187500.02, -156321.38, -187500.02, -187500.02, -187500.02, 0.000, 0.000, 0.000, 18:12:38.139
48, 23789.25, 50173.72, 187500.00, -187500.02, -156065.00, -187500.02, -187500.02, -187500.02, 0.000, 0.000, 0.000, 18:12:38.139
49, 24656.28, 51224.36, 187500.00, -187500.02, -156184.64, -187500.02, -187500.02, -187500.02, 0.000, 0.000, 0.000, 18:12:38.139
50, 25333.76, 51841.38, 187500.00, -187500.02, -156374.45, -187500.02, -187500.02, -187500.02, 0.018, -0.012, 1.022, 18:12:38.139
51, 25024.45, 51368.71, 187500.00, -187500.02, -156445.95, -187500.02, -187500.02, -187500.02, 0.000, 0.000, 0.000, 18:12:38.139
52, 24326.92, 50625.83, 187500.00, -187500.02, -156234.17, -187500.02, -187500.02, -187500.02, 0.000, 0.000, 0.000, 18:12:38.139
53, 23787.78, 50175.62, 187500.00, -187500.02, -156010.59, -187500.02, -187500.02, -187500.02, 0.000, 0.000, 0.000, 18:12:38.139
54, 24651.94, 51219.94, 187500.00, -187500.02, -156149.39, -187500.02, -187500.02, -187500.02, 0.000, 0.000, 0.000, 18:12:38.139
55, 25333.27, 51835.26, 187500.00, -187500.02, -156332.83, -187500.02, -187500.02, -187500.02, 0.000, 0.000, 0.000, 18:12:38.140
56, 25045.40, 51378.86, 187500.00, -187500.02, -156430.13, -187500.02, -187500.02, -187500.02, 0.000, 0.000, 0.000, 18:12:38.140
57, 24349.77, 50635.15, 187500.00, -187500.02, -156268.66, -187500.02, -187500.02, -187500.02, 0.000, 0.000, 0.000, 18:12:38.140
58, 23785.81, 50164.49, 187500.00, -187500.02, -156019.69, -187500.02, -187500.02, -187500.02, 0.000, 0.000, 0.000, 18:12:38.140
59, 24643.98, 51208.07, 187500.00, -187500.02, -156169.11, -187500.02, -187500.02, -187500.02, 0.000, 0.000, 0.000, 18:12:38.140
60, 25342.34, 51839.59, 187500.00, -187500.02, -156430.94, -187500.02, -187500.02, -187500.02, 0.014, -0.012, 1.026, 18:12:38.140
61, 25054.76, 51383.48, 187500.00, -187500.02, -156501.61, -187500.02, -187500.02, -187500.02, 0.000, 0.000, 0.000, 18:12:38.140
62, 24341.88, 50627.53, 187500.00, -187500.02, -156291.59, -187500.02, -187500.02, -187500.02, 0.000, 0.000, 0.000, 18:12:38.140
63, 23764.44, 50137.93, 187500.00, -187500.02, -156051.02, -187500.02, -187500.02, -187500.02, 0.000, 0.000, 0.000, 18:12:38.140
64, 24613.92, 51180.62, 187500.00, -187500.02, -156165.63, -187500.02, -187500.02, -187500.02, 0.000, 0.000, 0.000, 18:12:38.141
65, 25311.85, 51819.03, 187500.00, -187500.02, -156359.77, -187500.02, -187500.02, -187500.02, 0.000, 0.000, 0.000, 18:12:38.141
66, 25022.20, 51368.71, 187500.00, -187500.02, -156419.00, -187500.02, -187500.02, -187500.02, 0.000, 0.000, 0.000, 18:12:38.141
67, 24321.92, 50622.36, 187500.00, -187500.02, -156219.80, -187500.02, -187500.02, -187500.02, 0.000, 0.000, 0.000, 18:12:38.141
68, 23760.04, 50145.15, 187500.00, -187500.02, -155991.05, -187500.02, -187500.02, -187500.02, 0.000, 0.000, 0.000, 18:12:38.141
69, 24600.64, 51174.88, 187500.00, -187500.02, -156133.20, -187500.02, -187500.02, -187500.02, 0.000, 0.000, 0.000, 18:12:38.141
70, 25307.67, 51821.04, 187500.00, -187500.02, -156369.88, -187500.02, -187500.02, -187500.02, 0.014, -0.016, 1.028, 18:12:38.141
71, 25048.93, 51390.53, 187500.00, -187500.02, -156461.16, -187500.02, -187500.02, -187500.02, 0.000, 0.000, 0.000, 18:12:38.141
72, 24356.09, 50652.49, 187500.00, -187500.02, -156291.17, -187500.02, -187500.02, -187500.02, 0.000, 0.000, 0.000, 18:12:38.142
73, 23781.79, 50162.99, 187500.00, -187500.02, -156075.47, -187500.02, -187500.02, -187500.02, 0.000, 0.000, 0.000, 18:12:38.142
74, 24614.84, 51189.47, 187500.00, -187500.02, -156210.84, -187500.02, -187500.02, -187500.02, 0.000, 0.000, 0.000, 18:12:38.142
75, 25326.09, 51845.56, 187500.00, -187500.02, -156401.98, -187500.02, -187500.02, -187500.02, 0.000, 0.000, 0.000, 18:12:38.142
76, 25046.16, 51397.75, 187500.00, -187500.02, -156483.55, -187500.02, -187500.02, -187500.02, 0.000, 0.000, 0.000, 18:12:38.142
77, 24358.88, 50665.91, 187500.00, -187500.02, -156273.42, -187500.02, -187500.02, -187500.02, 0.000, 0.000, 0.000, 18:12:38.142
78, 23772.98, 50160.66, 187500.00, -187500.02, -156025.55, -187500.02, -187500.02, -187500.02, 0.000, 0.000, 0.000, 18:12:38.142
79, 24603.12, 51175.10, 187500.00, -187500.02, -156135.92, -187500.02, -187500.02, -187500.02, 0.000, 0.000, 0.000, 18:12:38.142
80, 25318.04, 51834.01, 187500.00, -187500.02, -156329.28, -187500.02, -187500.02, -187500.02, 0.010, -0.016, 1.022, 18:12:38.142
81, 25047.01, 51403.60, 187500.00, -187500.02, -156417.95, -187500.02, -187500.02, -187500.02, 0.000, 0.000, 0.000, 18:12:38.143
82, 24359.36, 50671.92, 187500.00, -187500.02, -156232.52, -187500.02, -187500.02, -187500.02, 0.000, 0.000, 0.000, 18:12:38.143
83, 23769.87, 50157.78, 187500.00, -187500.02, -156003.30, -187500.02, -187500.02, -187500.02, 0.000, 0.000, 0.000, 18:12:38.143
84, 24608.55, 51185.18, 187500.00, -187500.02, -156162.95, -187500.02, -187500.02, -187500.02, 0.000, 0.000, 0.000, 18:12:38.143
85, 25326.20, 51850.48, 187500.00, -187500.02, -156371.92, -187500.02, -187500.02, -187500.02, 0.000, 0.000, 0.000, 18:12:38.143
86, 25064.35, 51417.39, 187500.00, -187500.02, -156464.83, -187500.02, -187500.02, -187500.02, 0.000, 0.000, 0.000, 18:12:38.143
87, 24374.31, 50677.17, 187500.00, -187500.02, -156338.20, -187500.02, -187500.02, -187500.02, 0.000, 0.000, 0.000, 18:12:38.143
88, 23763.05, 50149.27, 187500.00, -187500.02, -156092.16, -187500.02, -187500.02, -187500.02, 0.000, 0.000, 0.000, 18:12:38.143
89, 24580.48, 51157.66, 187500.00, -187500.02, -156192.28, -187500.02, -187500.02, -187500.02, 0.000, 0.000, 0.000, 18:12:38.144
90, 25304.81, 51829.20, 187500.00, -187500.02, -156372.52, -187500.02, -187500.02, -187500.02, 0.010, -0.018, 1.024, 18:12:38.606
91, 25042.87, 51395.35, 187500.00, -187500.02, -156450.97, -187500.02, -187500.02, -187500.02, 0.000, 0.000, 0.000, 18:12:38.606
92, 24364.27, 50670.02, 187500.00, -187500.02, -156288.47, -187500.02, -187500.02, -187500.02, 0.000, 0.000, 0.000, 18:12:38.607
93, 23756.01, 50139.61, 187500.00, -187500.02, -156047.41, -187500.02, -187500.02, -187500.02, 0.000, 0.000, 0.000, 18:12:38.607
94, 24559.25, 51133.12, 187500.00, -187500.02, -156137.50, -187500.02, -187500.02, -187500.02, 0.000, 0.000, 0.000, 18:12:38.607
95, 25294.33, 51818.50, 187500.00, -187500.02, -156298.39, -187500.02, -187500.02, -187500.02, 0.000, 0.000, 0.000, 18:12:38.607
96, 25042.38, 51397.07, 187500.00, -187500.02, -156398.50, -187500.02, -187500.02, -187500.02, 0.000, 0.000, 0.000, 18:12:38.607
97, 24360.96, 50665.21, 187500.00, -187500.02, -156223.31, -187500.02, -187500.02, -187500.02, 0.000, 0.000, 0.000, 18:12:38.607
98, 23756.84, 50139.68, 187500.00, -187500.02, -155973.78, -187500.02, -187500.02, -187500.02, 0.000, 0.000, 0.000, 18:12:38.607
99, 24580.23, 51149.37, 187500.00, -187500.02, -156129.19, -187500.02, -187500.02, -187500.02, 0.000, 0.000, 0.000, 18:12:38.608
100, 25320.48, 51839.86, 187500.00, -187500.02, -156358.69, -187500.02, -187500.02, -187500.02, 0.014, -0.010, 1.024, 18:12:38.608
101, 25066.12, 51420.32, 187500.00, -187500.02, -156450.78, -187500.02, -187500.02, -187500.02, 0.000, 0.000, 0.000, 18:12:38.608
102, 24384.99, 50685.06, 187500.00, -187500.02, -156279.59, -187500.02, -187500.02, -187500.02, 0.000, 0.000, 0.000, 18:12:38.608
103, 23780.76, 50161.36, 187500.00, -187500.02, -156049.17, -187500.02, -187500.02, -187500.02, 0.000, 0.000, 0.000, 18:12:38.608
104, 24587.25, 51165.60, 187500.00, -187500.02, -156185.36, -187500.02, -187500.02, -187500.02, 0.000, 0.000, 0.000, 18:12:38.609
105, 25332.59, 51864.23, 187500.00, -187500.02, -156409.59, -187500.02, -187500.02, -187500.02, 0.000, 0.000, 0.000, 18:12:38.609
106, 25079.73, 51440.93, 187500.00, -187500.02, -156478.91, -187500.02, -187500.02, -187500.02, 0.000, 0.000, 0.000, 18:12:38.609
107, 24402.81, 50705.33, 187500.00, -187500.02, -156312.72, -187500.02, -187500.02, -187500.02, 0.000, 0.000, 0.000, 18:12:38.609
108, 23778.25, 50155.88, 187500.00, -187500.02, -156055.45, -187500.02, -187500.02, -187500.02, 0.000, 0.000, 0.000, 18:12:38.609
109, 24568.95, 51140.25, 187500.00, -187500.02, -156140.03, -187500.02, -187500.02, -187500.02, 0.000, 0.000, 0.000, 18:12:38.609
110, 25320.68, 51845.34, 187500.00, -187500.02, -156349.13, -187500.02, -187500.02, -187500.02, 0.022, -0.008, 1.020, 18:12:38.610
111, 25073.49, 51430.16, 187500.00, -187500.02, -156463.23, -187500.02, -187500.02, -187500.02, 0.000, 0.000, 0.000, 18:12:38.610
112, 24394.27, 50698.02, 187500.00, -187500.02, -156296.73, -187500.02, -187500.02, -187500.02, 0.000, 0.000, 0.000, 18:12:38.610
113, 23761.33, 50134.20, 187500.00, -187500.02, -156028.73, -187500.02, -187500.02, -187500.02, 0.000, 0.000, 0.000, 18:12:38.610
114, 24549.35, 51113.52, 187500.00, -187500.02, -156131.33, -187500.02, -187500.02, -187500.02, 0.000, 0.000, 0.000, 18:12:38.610
115, 25320.28, 51838.90, 187500.00, -187500.02, -156355.19, -187500.02, -187500.02, -187500.02, 0.000, 0.000, 0.000, 18:12:38.610
116, 25070.83, 51429.62, 187500.00, -187500.02, -156447.83, -187500.02, -187500.02, -187500.02, 0.000, 0.000, 0.000, 18:12:38.611
117, 24395.99, 50706.63, 187500.00, -187500.02, -156303.42, -187500.02, -187500.02, -187500.02, 0.000, 0.000, 0.000, 18:12:38.611
118, 23769.13, 50148.66, 187500.00, -187500.02, -156112.06, -187500.02, -187500.02, -187500.02, 0.000, 0.000, 0.000, 18:12:38.611
119, 24555.58, 51122.95, 187500.00, -187500.02, -156240.88, -187500.02, -187500.02, -187500.02, 0.000, 0.000, 0.000, 18:12:38.611
120, 25319.29, 51840.87, 187500.00, -187500.02, -156422.42, -187500.02, -187500.02, -187500.02, 0.016, -0.016, 1.026, 18:12:38.611
121, 25069.85, 51419.14, 187500.00, -187500.02, -156504.88, -187500.02, -187500.02, -187500.02, 0.000, 0.000, 0.000, 18:12:38.611
122, 24398.36, 50703.57, 187500.00, -187500.02, -156331.41, -187500.02, -187500.02, -187500.02, 0.000, 0.000, 0.000, 18:12:38.612
123, 23761.56, 50136.23, 187500.00, -187500.02, -156066.78, -187500.02, -187500.02, -187500.02, 0.000, 0.000, 0.000, 18:12:38.612
124, 24541.50, 51105.86, 187500.00, -187500.02, -156142.95, -187500.02, -187500.02, -187500.02, 0.000, 0.000, 0.000, 18:12:38.612
125, 25317.46, 51844.33, 187500.00, -187500.02, -156344.39, -187500.02, -187500.02, -187500.02, 0.000, 0.000, 0.000, 18:12:38.612
126, 25085.90, 51446.02, 187500.00, -187500.02, -156429.44, -187500.02, -187500.02, -187500.02, 0.000, 0.000, 0.000, 18:12:38.612
127, 24421.61, 50723.57, 187500.00, -187500.02, -156264.64, -187500.02, -187500.02, -187500.02, 0.000, 0.000, 0.000, 18:12:38.612
128, 23778.23, 50142.36, 187500.00, -187500.02, -156012.42, -187500.02, -187500.02, -187500.02, 0.000, 0.000, 0.000, 18:12:38.613
129, 24546.82, 51114.35, 187500.00, -187500.02, -156123.22, -187500.02, -187500.02, -187500.02, 0.024, -0.016, 1.026, 18:12:38.613
130, 25329.80, 51855.00, 187500.00, -187500.02, -156341.08, -187500.02, -187500.02, -187500.02, 0.000, 0.000, 0.000, 18:12:38.613
131, 25097.05, 51445.55, 187500.00, -187500.02, -156454.73, -187500.02, -187500.02, -187500.02, 0.000, 0.000, 0.000, 18:12:38.613
132, 24438.30, 50725.00, 187500.00, -187500.02, -156315.17, -187500.02, -187500.02, -187500.02, 0.000, 0.000, 0.000, 18:12:38.613
133, 23793.70, 50139.10, 187500.00, -187500.02, -156075.08, -187500.02, -187500.02, -187500.02, 0.000, 0.000, 0.000, 18:12:38.613
134, 24543.49, 51089.78, 187500.00, -187500.02, -156189.63, -187500.02, -187500.02, -187500.02, 0.000, 0.000, 0.000, 18:12:38.614
135, 25324.71, 51834.43, 187500.00, -187500.02, -156387.53, -187500.02, -187500.02, -187500.02, 0.000, 0.000, 0.000, 18:12:38.614
136, 25095.40, 51430.33, 187500.00, -187500.02, -156491.78, -187500.02, -187500.02, -187500.02, 0.000, 0.000, 0.000, 18:12:38.614
137, 24431.08, 50712.06, 187500.00, -187500.02, -156328.81, -187500.02, -187500.02, -187500.02, 0.000, 0.000, 0.000, 18:12:38.614
138, 23771.37, 50120.39, 187500.00, -187500.02, -156059.77, -187500.02, -187500.02, -187500.02, 0.000, 0.000, 0.000, 18:12:38.614
139, 24521.63, 51068.95, 187500.00, -187500.02, -156130.11, -187500.02, -187500.02, -187500.02, 0.016, -0.016, 1.024, 18:12:38.614
140, 25311.81, 51825.63, 187500.00, -187500.02, -156352.70, -187500.02, -187500.02, -187500.02, 0.000, 0.000, 0.000, 18:12:38.615
141, 25088.76, 51430.31, 187500.00, -187500.02, -156437.08, -187500.02, -187500.02, -187500.02, 0.000, 0.000, 0.000, 18:12:38.615
142, 24417.29, 50708.53, 187500.00, -187500.02, -156279.02, -187500.02, -187500.02, -187500.02, 0.000, 0.000, 0.000, 18:12:38.615
143, 23761.65, 50114.53, 187500.00, -187500.02, -156028.17, -187500.02, -187500.02, -187500.02, 0.000, 0.000, 0.000, 18:12:38.615
144, 24508.06, 51057.42, 187500.00, -187500.02, -156127.84, -187500.02, -187500.02, -187500.02, 0.000, 0.000, 0.000, 18:12:38.615
145, 25308.05, 51825.73, 187500.00, -187500.02, -156339.56, -187500.02, -187500.02, -187500.02, 0.000, 0.000, 0.000, 18:12:38.615
146, 25096.07, 51438.02, 187500.00, -187500.02, -156466.44, -187500.02, -187500.02, -187500.02, 0.000, 0.000, 0.000, 18:12:38.616
147, 24437.59, 50718.77, 187500.00, -187500.02, -156337.14, -187500.02, -187500.02, -187500.02, 0.000, 0.000, 0.000, 18:12:38.616
148, 23779.64, 50119.11, 187500.00, -187500.02, -156076.28, -187500.02, -187500.02, -187500.02, 0.000, 0.000, 0.000, 18:12:38.616
149, 24523.95, 51058.67, 187500.00, -187500.02, -156199.27, -187500.02, -187500.02, -187500.02, 0.016, -0.016, 1.026, 18:12:38.616
150, 25321.35, 51823.55, 187500.00, -187500.02, -156412.27, -187500.02, -187500.02, -187500.02, 0.000, 0.000, 0.000, 18:12:38.616
151, 25104.12, 51437.69, 187500.00, -187500.02, -156501.59, -187500.02, -187500.02, -187500.02, 0.000, 0.000, 0.000, 18:12:38.617
152, 24438.59, 50717.58, 187500.00, -187500.02, -156337.02, -187500.02, -187500.02, -187500.02, 0.000, 0.000, 0.000, 18:12:38.617
153, 23763.26, 50101.90, 187500.00, -187500.02, -156072.72, -187500.02, -187500.02, -187500.02, 0.000, 0.000, 0.000, 18:12:38.617
154, 24492.62, 51030.37, 187500.00, -187500.02, -156125.86, -187500.02, -187500.02, -187500.02, 0.000, 0.000, 0.000, 18:12:38.617
155, 25305.08, 51815.48, 187500.00, -187500.02, -156327.69, -187500.02, -187500.02, -187500.02, 0.000, 0.000, 0.000, 18:12:38.617
156, 25102.15, 51438.20, 187500.00, -187500.02, -156431.78, -187500.02, -187500.02, -187500.02, 0.000, 0.000, 0.000, 18:12:38.617
157, 24437.81, 50722.28, 187500.00, -187500.02, -156269.67, -187500.02, -187500.02, -187500.02, 0.000, 0.000, 0.000, 18:12:38.618
158, 23752.26, 50097.07, 187500.00, -187500.02, -155967.72, -187500.02, -187500.02, -187500.02, 0.000, 0.000, 0.000, 18:12:38.618
159, 24485.55, 51026.55, 187500.00, -187500.02, -156081.05, -187500.02, -187500.02, -187500.02, 0.014, -0.014, 1.026, 18:12:38.618
160, 25294.44, 51804.32, 187500.00, -187500.02, -156303.23, -187500.02, -187500.02, -187500.02, 0.000, 0.000, 0.000, 18:12:38.618
161, 25096.87, 51431.88, 187500.00, -187500.02, -156427.53, -187500.02, -187500.02, -187500.02, 0.000, 0.000, 0.000, 18:12:38.618
162, 24439.78, 50719.41, 187500.00, -187500.02, -156303.17, -187500.02, -187500.02, -187500.02, 0.000, 0.000, 0.000, 18:12:38.619
163, 23758.52, 50094.75, 187500.00, -187500.02, -156053.58, -187500.02, -187500.02, -187500.02, 0.000, 0.000, 0.000, 18:12:38.619
164, 24467.45, 51005.38, 187500.00, -187500.02, -156156.80, -187500.02, -187500.02, -187500.02, 0.000, 0.000, 0.000, 18:12:38.619
165, 25280.94, 51791.63, 187500.00, -187500.02, -156379.92, -187500.02, -187500.02, -187500.02, 0.000, 0.000, 0.000, 18:12:38.619
166, 25083.93, 51422.29, 187500.00, -187500.02, -156488.25, -187500.02, -187500.02, -187500.02, 0.000, 0.000, 0.000, 18:12:38.619
167, 24426.32, 50704.91, 187500.00, -187500.02, -156360.73, -187500.02, -187500.02, -187500.02, 0.000, 0.000, 0.000, 18:12:38.619
168, 23733.33, 50064.64, 187500.00, -187500.02, -156083.72, -187500.02, -187500.02, -187500.02, 0.000, 0.000, 0.000, 18:12:38.620
169, 24432.62, 50964.23, 187500.00, -187500.02, -156125.97, -187500.02, -187500.02, -187500.02, 0.020, -0.014, 1.028, 18:12:38.620
170, 25251.17, 51760.20, 187500.00, -187500.02, -156311.05, -187500.02, -187500.02, -187500.02, 0.000, 0.000, 0.000, 18:12:38.620
171, 25065.04, 51403.45, 187500.00, -187500.02, -156412.86, -187500.02, -187500.02, -187500.02, 0.000, 0.000, 0.000, 18:12:38.620
172, 24411.39, 50694.22, 187500.00, -187500.02, -156246.28, -187500.02, -187500.02, -187500.02, 0.000, 0.000, 0.000, 18:12:38.620
173, 23731.40, 50063.12, 187500.00, -187500.02, -155999.22, -187500.02, -187500.02, -187500.02, 0.000, 0.000, 0.000, 18:12:38.620
174, 24432.27, 50969.51, 187500.00, -187500.02, -156095.45, -187500.02, -187500.02, -187500.02, 0.000, 0.000, 0.000, 18:12:38.621
175, 25270.03, 51787.49, 187500.00, -187500.02, -156341.89, -187500.02, -187500.02, -187500.02, 0.000, 0.000, 0.000, 18:12:38.621
176, 25073.27, 51419.36, 187500.00, -187500.02, -156472.11, -187500.02, -187500.02, -187500.02, 0.000, 0.000, 0.000, 18:12:38.621
177, 24422.59, 50707.14, 187500.00, -187500.02, -156332.75, -187500.02, -187500.02, -187500.02, 0.000, 0.000, 0.000, 18:12:38.621
178, 23721.71, 50062.12, 187500.00, -187500.02, -156058.11, -187500.02, -187500.02, -187500.02, 0.000, 0.000, 0.000, 18:12:38.621
179, 24416.44, 50959.34, 187500.00, -187500.02, -156174.53, -187500.02, -187500.02, -187500.02, 0.018, -0.016, 1.030, 18:12:38.622
180, 25249.38, 51767.93, 187500.00, -187500.02, -156389.83, -187500.02, -187500.02, -187500.02, 0.000, 0.000, 0.000, 18:12:38.622
181, 25059.19, 51406.89, 187500.00, -187500.02, -156495.83, -187500.02, -187500.02, -187500.02, 0.000, 0.000, 0.000, 18:12:38.622
182, 24399.79, 50691.68, 187500.00, -187500.02, -156337.91, -187500.02, -187500.02, -187500.02, 0.000, 0.000, 0.000, 18:12:38.622
183, 23691.69, 50040.14, 187500.00, -187500.02, -156058.75, -187500.02, -187500.02, -187500.02, 0.000, 0.000, 0.000, 18:12:38.622
184, 24376.90, 50925.09, 187500.00, -187500.02, -156138.70, -187500.02, -187500.02, -187500.02, 0.000, 0.000, 0.000, 18:12:38.622
185, 25213.57, 51736.04, 187500.00, -187500.02, -156342.31, -187500.02, -187500.02, -187500.02, 0.000, 0.000, 0.000, 18:12:38.622
186, 25027.56, 51378.59, 187500.00, -187500.02, -156430.80, -187500.02, -187500.02, -187500.02, 0.000, 0.000, 0.000, 18:12:38.623
187, 24383.83, 50673.48, 187500.00, -187500.02, -156306.89, -187500.02, -187500.02, -187500.02, 0.000, 0.000, 0.000, 18:12:38.623
188, 23685.14, 50021.64, 187500.00, -187500.02, -156057.45, -187500.02, -187500.02, -187500.02, 0.000, 0.000, 0.000, 18:12:38.623
189, 24361.50, 50901.38, 187500.00, -187500.02, -156175.08, -187500.02, -187500.02, -187500.02, 0.016, -0.012, 1.022, 18:12:38.623
190, 25204.25, 51721.82, 187500.00, -187500.02, -156402.17, -187500.02, -187500.02, -187500.02, 0.000, 0.000, 0.000, 18:12:38.623
191, 25020.72, 51361.58, 187500.00, -187500.02, -156502.84, -187500.02, -187500.02, -187500.02, 0.000, 0.000, 0.000, 18:12:38.624
192, 24373.75, 50656.20, 187500.00, -187500.02, -156377.41, -187500.02, -187500.02, -187500.02, 0.000, 0.000, 0.000, 18:12:38.624
193, 23674.14, 50007.02, 187500.00, -187500.02, -156143.88, -187500.02, -187500.02, -187500.02, 0.000, 0.000, 0.000, 18:12:38.624
194, 24341.50, 50871.41, 187500.00, -187500.02, -156220.81, -187500.02, -187500.02, -187500.02, 0.000, 0.000, 0.000, 18:12:38.624
195, 25190.71, 51701.73, 187500.00, -187500.02, -156425.91, -187500.02, -187500.02, -187500.02, 0.000, 0.000, 0.000, 18:12:38.624
196, 25014.82, 51354.50, 187500.00, -187500.02, -156571.91, -187500.02, -187500.02, -187500.02, 0.000, 0.000, 0.000, 18:12:38.625
197, 24365.86, 50644.54, 187500.00, -187500.02, -156440.17, -187500.02, -187500.02, -187500.02, 0.000, 0.000, 0.000, 18:12:38.625
198, 23654.87, 49975.95, 187500.00, -187500.02, -156128.14, -187500.02, -187500.02, -187500.02, 0.000, 0.000, 0.000, 18:12:38.625
199, 24311.16, 50838.68, 187500.00, -187500.02, -156163.19, -187500.02, -187500.02, -187500.02, 0.012, -0.004, 1.020, 18:12:38.625
200, 25163.35, 51673.03, 187500.00, -187500.02, -156389.47, -187500.02, -187500.02, -187500.02, 0.000, 0.000, 0.000, 18:12:38.625
201, 24990.95, 51329.66, 187500.00, -187500.02, -156505.33, -187500.02, -187500.02, -187500.02, 0.000, 0.000, 0.000, 18:12:38.626
202, 24345.32, 50622.52, 187500.00, -187500.02, -156325.56, -187500.02, -187500.02, -187500.02, 0.000, 0.000, 0.000, 18:12:38.626
203, 23627.71, 49950.54, 187500.00, -187500.02, -156032.73, -187500.02, -187500.02, -187500.02, 0.000, 0.000, 0.000, 18:12:38.626
204, 24281.91, 50809.61, 187500.00, -187500.02, -156110.55, -187500.02, -187500.02, -187500.02, 0.000, 0.000, 0.000, 18:12:38.626
205, 25138.13, 51655.13, 187500.00, -187500.02, -156338.95, -187500.02, -187500.02, -187500.02, 0.000, 0.000, 0.000, 18:12:38.626
206, 24985.25, 51331.63, 187500.00, -187500.02, -156498.06, -187500.02, -187500.02, -187500.02, 0.000, 0.000, 0.000, 18:12:38.626
207, 24342.97, 50629.74, 187500.00, -187500.02, -156397.03, -187500.02, -187500.02, -187500.02, 0.000, 0.000, 0.000, 18:12:38.627
208, 23615.76, 49948.73, 187500.00, -187500.02, -156129.77, -187500.02, -187500.02, -187500.02, 0.000, 0.000, 0.000, 18:12:38.627
209, 24266.24, 50795.75, 187500.00, -187500.02, -156209.66, -187500.02, -187500.02, -187500.02, 0.016, -0.006, 1.016, 18:12:38.627
210, 25128.14, 51639.30, 187500.00, -187500.02, -156428.00, -187500.02, -187500.02, -187500.02, 0.000, 0.000, 0.000, 18:12:39.087
211, 24954.02, 51295.75, 187500.00, -187500.02, -156534.31, -187500.02, -187500.02, -187500.02, 0.000, 0.000, 0.000, 18:12:39.087
212, 24314.54, 50593.95, 187500.00, -187500.02, -156415.09, -187500.02, -187500.02, -187500.02, 0.000, 0.000, 0.000, 18:12:39.087
213, 23582.83, 49906.88, 187500.00, -187500.02, -156121.92, -187500.02, -187500.02, -187500.02, 0.000, 0.000, 0.000, 18:12:39.088
214, 24210.58, 50737.56, 187500.00, -187500.02, -156148.30, -187500.02, -187500.02, -187500.02, 0.000, 0.000, 0.000, 18:12:39.088
215, 25082.26, 51593.52, 187500.00, -187500.02, -156361.75, -187500.02, -187500.02, -187500.02, 0.000, 0.000, 0.000, 18:12:39.088
216, 24923.07, 51258.79, 187500.00, -187500.02, -156494.92, -187500.02, -187500.02, -187500.02, 0.000, 0.000, 0.000, 18:12:39.088
217, 24282.11, 50558.48, 187500.00, -187500.02, -156350.94, -187500.02, -187500.02, -187500.02, 0.000, 0.000, 0.000, 18:12:39.088
218, 23558.98, 49881.20, 187500.00, -187500.02, -156057.55, -187500.02, -187500.02, -187500.02, 0.000, 0.000, 0.000, 18:12:39.088
219, 24200.14, 50722.68, 187500.00, -187500.02, -156147.89, -187500.02, -187500.02, -187500.02, 0.016, -0.006, 1.016, 18:12:39.089
220, 25061.83, 51568.67, 187500.00, -187500.02, -156368.89, -187500.02, -187500.02, -187500.02, 0.000, 0.000, 0.000, 18:12:39.089
221, 24919.54, 51252.01, 187500.00, -187500.02, -156493.30, -187500.02, -187500.02, -187500.02, 0.000, 0.000, 0.000, 18:12:39.089
222, 24293.98, 50563.76, 187500.00, -187500.02, -156382.83, -187500.02, -187500.02, -187500.02, 0.000, 0.000, 0.000, 18:12:39.089
223, 23558.45, 49871.08, 187500.00, -187500.02, -156111.64, -187500.02, -187500.02, -187500.02, 0.000, 0.000, 0.000, 18:12:39.089
224, 24182.42, 50700.26, 187500.00, -187500.02, -156192.13, -187500.02, -187500.02, -187500.02, 0.000, 0.000, 0.000, 18:12:39.089
225, 25061.87, 51570.23, 187500.00, -187500.02, -156414.08, -187500.02, -187500.02, -187500.02, 0.000, 0.000, 0.000, 18:12:39.089
226, 24908.65, 51242.82, 187500.00, -187500.02, -156513.08, -187500.02, -187500.02, -187500.02, 0.000, 0.000, 0.000, 18:12:39.089
227, 24271.20, 50543.08, 187500.00, -187500.02, -156366.77, -187500.02, -187500.02, -187500.02, 0.000, 0.000, 0.000, 18:12:39.089
228, 23541.86, 49854.47, 187500.00, -187500.02, -156083.64, -187500.02, -187500.02, -187500.02, 0.000, 0.000, 0.000, 18:12:39.090
229, 24154.39, 50668.18, 187500.00, -187500.02, -156101.20, -187500.02, -187500.02, -187500.02, 0.012, -0.012, 1.018, 18:12:39.090
230, 25044.75, 51548.42, 187500.00, -187500.02, -156323.11, -187500.02, -187500.02, -187500.02, 0.000, 0.000, 0.000, 18:12:39.090
231, 24897.70, 51229.93, 187500.00, -187500.02, -156438.83, -187500.02, -187500.02, -187500.02, 0.000, 0.000, 0.000, 18:12:39.090
232, 24259.60, 50536.20, 187500.00, -187500.02, -156319.36, -187500.02, -187500.02, -187500.02, 0.000, 0.000, 0.000, 18:12:39.090
233, 23535.69, 49846.60, 187500.00, -187500.02, -156011.23, -187500.02, -187500.02, -187500.02, 0.000, 0.000, 0.000, 18:12:39.090
234, 24144.73, 50659.02, 187500.00, -187500.02, -156072.66, -187500.02, -187500.02, -187500.02, 0.000, 0.000, 0.000, 18:12:39.090
235, 25037.28, 51543.37, 187500.00, -187500.02, -156320.03, -187500.02, -187500.02, -187500.02, 0.000, 0.000, 0.000, 18:12:39.090
236, 24898.55, 51227.87, 187500.00, -187500.02, -156474.95, -187500.02, -187500.02, -187500.02, 0.000, 0.000, 0.000, 18:12:39.091
237, 24272.18, 50533.14, 187500.00, -187500.02, -156376.64, -187500.02, -187500.02, -187500.02, 0.000, 0.000, 0.000, 18:12:39.091
238, 23531.16, 49826.86, 187500.00, -187500.02, -156109.72, -187500.02, -187500.02, -187500.02, 0.000, 0.000, 0.000, 18:12:39.091
239, 24119.05, 50623.23, 187500.00, -187500.02, -156169.31, -187500.02, -187500.02, -187500.02, 0.012, -0.012, 1.008, 18:12:39.091
240, 25008.09, 51505.08, 187500.00, -187500.02, -156385.72, -187500.02, -187500.02, -187500.02, 0.000, 0.000, 0.000, 18:12:39.091
241, 24869.00, 51192.73, 187500.00, -187500.02, -156497.75, -187500.02, -187500.02, -187500.02, 0.000, 0.000, 0.000, 18:12:39.091
242, 24237.90, 50496.41, 187500.00, -187500.02, -156371.84, -187500.02, -187500.02, -187500.02, 0.000, 0.000, 0.000, 18:12:39.091
243, 23494.07, 49792.98, 187500.00, -187500.02, -156099.17, -187500.02, -187500.02, -187500.02, 0.000, 0.000, 0.000, 18:12:39.091
244, 24079.44, 50585.91, 187500.00, -187500.02, -156167.66, -187500.02, -187500.02, -187500.02, 0.000, 0.000, 0.000, 18:12:39.092
245, 24975.06, 51474.08, 187500.00, -187500.02, -156382.45, -187500.02, -187500.02, -187500.02, 0.000, 0.000, 0.000, 18:12:39.092
246, 24845.46, 51170.14, 187500.00, -187500.02, -156496.05, -187500.02, -187500.02, -187500.02, 0.000, 0.000, 0.000, 18:12:39.092
247, 24212.26, 50467.38, 187500.00, -187500.02, -156344.56, -187500.02, -187500.02, -187500.02, 0.000, 0.000, 0.000, 18:12:39.092
248, 23478.81, 49768.73, 187500.00, -187500.02, -156084.08, -187500.02, -187500.02, -187500.02, 0.000, 0.000, 0.000, 18:12:39.092
249, 24061.83, 50560.94, 187500.00, -187500.02, -156130.84, -187500.02, -187500.02, -187500.02, 0.012, -0.020, 1.014, 18:12:39.092
250, 24965.54, 51463.75, 187500.00, -187500.02, -156349.55, -187500.02, -187500.02, -187500.02, 0.000, 0.000, 0.000, 18:12:39.092
251, 24853.31, 51176.04, 187500.00, -187500.02, -156487.59, -187500.02, -187500.02, -187500.02, 0.000, 0.000, 0.000, 18:12:39.092
252, 24230.81, 50485.91, 187500.00, -187500.02, -156353.47, -187500.02, -187500.02, -187500.02, 0.000, 0.000, 0.000, 18:12:39.092
253, 23488.89, 49775.46, 187500.00, -187500.02, -156080.33, -187500.02, -187500.02, -187500.02, 0.000, 0.000, 0.000, 18:12:39.093
254, 24065.65, 50560.43, 187500.00, -187500.02, -156168.17, -187500.02, -187500.02, -187500.02, 0.000, 0.000, 0.000, 18:12:39.093
255, 24962.23, 51456.71, 187500.00, -187500.02, -156396.73, -187500.02, -187500.02, -187500.02, 0.000, 0.000, 0.000, 18:12:39.093
0, 24840.48, 51163.34, 187500.00, -187500.02, -156533.08, -187500.02, -187500.02, -187500.02, 0.000, 0.000, 0.000, 18:12:39.093
1, 24209.53, 50466.41, 187500.00, -187500.02, -156414.06, -187500.02, -187500.02, -187500.02, 0.000, 0.000, 0.000, 18:12:39.093
2, 23456.66, 49750.02, 187500.00, -187500.02, -156116.53, -187500.02, -187500.02, -187500.02, 0.014, -0.020, 1.014, 18:12:39.093
3, 24022.42, 50520.75, 187500.00, -187500.02, -156154.00, -187500.02, -187500.02, -187500.02, 0.000, 0.000, 0.000, 18:12:39.093
4, 24936.95, 51429.20, 187500.00, -187500.02, -156375.22, -187500.02, -187500.02, -187500.02, 0.000, 0.000, 0.000, 18:12:39.093
5, 24822.57, 51141.86, 187500.00, -187500.02, -156494.38, -187500.02, -187500.02, -187500.02, 0.000, 0.000, 0.000, 18:12:39.094
6, 24200.81, 50456.56, 187500.00, -187500.02, -156388.75, -187500.02, -187500.02, -187500.02, 0.000, 0.000, 0.000, 18:12:39.094
7, 23443.49, 49729.79, 187500.00, -187500.02, -156088.70, -187500.02, -187500.02, -187500.02, 0.000, 0.000, 0.000, 18:12:39.094
8, 24000.61, 50494.58, 187500.00, -187500.02, -156134.23, -187500.02, -187500.02, -187500.02, 0.000, 0.000, 0.000, 18:12:39.094
9, 24916.74, 51411.02, 187500.00, -187500.02, -156371.50, -187500.02, -187500.02, -187500.02, 0.000, 0.000, 0.000, 18:12:39.094
10, 24818.46, 51139.94, 187500.00, -187500.02, -156539.67, -187500.02, -187500.02, -187500.02, 0.000, 0.000, 0.000, 18:12:39.094
11, 24202.94, 50453.23, 187500.00, -187500.02, -156459.86, -187500.02, -187500.02, -187500.02, 0.000, 0.000, 0.000, 18:12:39.095
12, 23433.21, 49710.14, 187500.00, -187500.02, -156164.30, -187500.02, -187500.02, -187500.02, 0.014, -0.018, 1.016, 18:12:39.095
13, 23977.90, 50466.62, 187500.00, -187500.02, -156216.81, -187500.02, -187500.02, -187500.02, 0.000, 0.000, 0.000, 18:12:39.095
14, 24899.22, 51388.67, 187500.00, -187500.02, -156454.30, -187500.02, -187500.02, -187500.02, 0.000, 0.000, 0.000, 18:12:39.095
15, 24784.98, 51097.18, 187500.00, -187500.02, -156553.33, -187500.02, -187500.02, -187500.02, 0.000, 0.000, 0.000, 18:12:39.095
16, 24168.34, 50414.07, 187500.00, -187500.02, -156433.39, -187500.02, -187500.02, -187500.02, 0.000, 0.000, 0.000, 18:12:39.095
17, 23408.15, 49684.62, 187500.00, -187500.02, -156146.00, -187500.02, -187500.02, -187500.02, 0.000, 0.000, 0.000, 18:12:39.096
18, 23949.22, 50435.23, 187500.00, -187500.02, -156197.61, -187500.02, -187500.02, -187500.02, 0.000, 0.000, 0.000, 18:12:39.096
19, 24872.48, 51358.74, 187500.00, -187500.02, -156399.08, -187500.02, -187500.02, -187500.02, 0.000, 0.000, 0.000, 18:12:39.096
20, 24781.04, 51091.91, 187500.00, -187500.02, -156515.67, -187500.02, -187500.02, -187500.02, 0.000, 0.000, 0.000, 18:12:39.096
21, 24169.81, 50409.84, 187500.00, -187500.02, -156389.39, -187500.02, -187500.02, -187500.02, 0.000, 0.000, 0.000, 18:12:39.096
22, 23409.09, 49682.20, 187500.00, -187500.02, -156098.67, -187500.02, -187500.02, -187500.02, 0.016, -0.014, 1.022, 18:12:39.097
23, 23951.19, 50428.89, 187500.00, -187500.02, -156139.48, -187500.02, -187500.02, -187500.02, 0.000, 0.000, 0.000, 18:12:39.097
24, 24885.78, 51365.60, 187500.00, -187500.02, -156361.67, -187500.02, -187500.02, -187500.02, 0.000, 0.000, 0.000, 18:12:39.097
25, 24791.91, 51096.31, 187500.00, -187500.02, -156501.14, -187500.02, -187500.02, -187500.02, 0.000, 0.000, 0.000, 18:12:39.097
26, 24180.56, 50416.05, 187500.00, -187500.02, -156400.02, -187500.02, -187500.02, -187500.02, 0.000, 0.000, 0.000, 18:12:39.097
27, 23415.84, 49675.90, 187500.00, -187500.02, -156103.50, -187500.02, -187500.02, -187500.02, 0.000, 0.000, 0.000, 18:12:39.097
28, 23943.34, 50405.62, 187500.00, -187500.02, -156156.64, -187500.02, -187500.02, -187500.02, 0.000, 0.000, 0.000, 18:12:39.098
29, 24870.65, 51350.63, 187500.00, -187500.02, -156416.94, -187500.02, -187500.02, -187500.02, 0.000, 0.000, 0.000, 18:12:39.098
30, 24778.32, 51087.73, 187500.00, -187500.02, -156549.52, -187500.02, -187500.02, -187500.02, 0.000, 0.000, 0.000, 18:12:39.098
31, 24169.61, 50401.73, 187500.00, -187500.02, -156432.97, -187500.02, -187500.02, -187500.02, 0.000, 0.000, 0.000, 18:12:39.098
32, 23401.00, 49653.23, 187500.00, -187500.02, -156118.75, -187500.02, -187500.02, -187500.02, 0.018, -0.010, 1.024, 18:12:39.098
33, 23919.36, 50373.07, 187500.00, -187500.02, -156148.23, -187500.02, -187500.02, -187500.02, 0.000, 0.000, 0.000, 18:12:39.098
34, 24850.29, 51313.66, 187500.00, -187500.02, -156377.34, -187500.02, -187500.02, -187500.02, 0.000, 0.000, 0.000, 18:12:39.099
35, 24763.07, 51054.04, 187500.00, -187500.02, -156477.89, -187500.02, -187500.02, -187500.02, 0.000, 0.000, 0.000, 18:12:39.099
36, 24163.35, 50380.90, 187500.00, -187500.02, -156392.41, -187500.02, -187500.02, -187500.02, 0.000, 0.000, 0.000, 18:12:39.099
37, 23391.23, 49633.30, 187500.00, -187500.02, -156123.55, -187500.02, -187500.02, -187500.02, 0.000, 0.000, 0.000, 18:12:39.099
38, 23896.79, 50347.57, 187500.00, -187500.02, -156147.14, -187500.02, -187500.02, -187500.02, 0.000, 0.000, 0.000, 18:12:39.099
39, 24838.67, 51299.51, 187500.00, -187500.02, -156383.11, -187500.02, -187500.02, -187500.02, 0.000, 0.000, 0.000, 18:12:39.099
40, 24754.09, 51044.39, 187500.00, -187500.02, -156500.72, -187500.02, -187500.02, -187500.02, 0.000, 0.000, 0.000, 18:12:39.099
41, 24152.20, 50372.89, 187500.00, -187500.02, -156409.02, -187500.02, -187500.02, -187500.02, 0.000, 0.000, 0.000, 18:12:39.099
42, 23389.51, 49629.10, 187500.00, -187500.02, -156139.95, -187500.02, -187500.02, -187500.02, 0.020, -0.006, 1.018, 18:12:39.100
43, 23896.79, 50339.90, 187500.00, -187500.02, -156205.09, -187500.02, -187500.02, -187500.02, 0.000, 0.000, 0.000, 18:12:39.100
44, 24846.89, 51298.30, 187500.00, -187500.02, -156458.97, -187500.02, -187500.02, -187500.02, 0.000, 0.000, 0.000, 18:12:39.100
45, 24765.82, 51045.14, 187500.00, -187500.02, -156568.88, -187500.02, -187500.02, -187500.02, 0.000, 0.000, 0.000, 18:12:39.100
46, 24164.45, 50370.41, 187500.00, -187500.02, -156485.30, -187500.02, -187500.02, -187500.02, 0.000, 0.000, 0.000, 18:12:39.100
47, 23389.38, 49614.90, 187500.00, -187500.02, -156175.13, -187500.02, -187500.02, -187500.02, 0.000, 0.000, 0.000, 18:12:39.100
48, 23872.96, 50303.70, 187500.00, -187500.02, -156175.56, -187500.02, -187500.02, -187500.02, 0.000, 0.000, 0.000, 18:12:39.100
49, 24832.36, 51273.87, 187500.00, -187500.02, -156380.13, -187500.02, -187500.02, -187500.02, 0.000, 0.000, 0.000, 18:12:39.100
50, 24765.24, 51036.32, 187500.00, -187500.02, -156533.08, -187500.02, -187500.02, -187500.02, 0.000, 0.000, 0.000, 18:12:39.101
51, 24156.33, 50359.08, 187500.00, -187500.02, -156437.31, -187500.02, -187500.02, -187500.02, 0.000, 0.000, 0.000, 18:12:39.101
52, 23384.97, 49604.55, 187500.00, -187500.02, -156133.25, -187500.02, -187500.02, -187500.02, 0.020, -0.008, 1.016, 18:12:39.101
53, 23868.15, 50292.83, 187500.00, -187500.02, -156185.58, -187500.02, -187500.02, -187500.02, 0.000, 0.000, 0.000, 18:12:39.101
54, 24831.04, 51276.55, 187500.00, -187500.02, -156417.23, -187500.02, -187500.02, -187500.02, 0.000, 0.000, 0.000, 18:12:39.101
55, 24757.60, 51030.84, 187500.00, -187500.02, -156510.89, -187500.02, -187500.02, -187500.02, 0.000, 0.000, 0.000, 18:12:39.101
56, 24160.25, 50357.99, 187500.00, -187500.02, -156457.05, -187500.02, -187500.02, -187500.02, 0.000, 0.000, 0.000, 18:12:39.101
57, 23376.93, 49591.05, 187500.00, -187500.02, -156157.75, -187500.02, -187500.02, -187500.02, 0.000, 0.000, 0.000, 18:12:39.101
58, 23858.68, 50278.88, 187500.00, -187500.02, -156190.30, -187500.02, -187500.02, -187500.02, 0.000, 0.000, 0.000, 18:12:39.101
59, 24816.85, 51253.49, 187500.00, -187500.02, -156443.09, -187500.02, -187500.02, -187500.02, 0.000, 0.000, 0.000, 18:12:39.102
60, 24750.62, 51014.57, 187500.00, -187500.02, -156561.31, -187500.02, -187500.02, -187500.02, 0.000, 0.000, 0.000, 18:12:39.102
61, 24154.81, 50343.88, 187500.00, -187500.02, -156477.00, -187500.02, -187500.02, -187500.02, 0.000, 0.000, 0.000, 18:12:39.102
62, 23365.39, 49566.87, 187500.00, -187500.02, -156173.88, -187500.02, -187500.02, -187500.02, 0.018, -0.008, 1.018, 18:12:39.102
63, 23825.46, 50226.69, 187500.00, -187500.02, -156146.53, -187500.02, -187500.02, -187500.02, 0.000, 0.000, 0.000, 18:12:39.102
64, 24796.20, 51221.61, 187500.00, -187500.02, -156362.11, -187500.02, -187500.02, -187500.02, 0.000, 0.000, 0.000, 18:12:39.102
65, 24730.55, 50987.93, 187500.00, -187500.02, -156473.97, -187500.02, -187500.02, -187500.02, 0.000, 0.000, 0.000, 18:12:39.102
66, 24136.22, 50317.42, 187500.00, -187500.02, -156389.50, -187500.02, -187500.02, -187500.02, 0.000, 0.000, 0.000, 18:12:39.102
67, 23352.19, 49550.82, 187500.00, -187500.02, -156086.78, -187500.02, -187500.02, -187500.02, 0.000, 0.000, 0.000, 18:12:39.103
68, 23814.73, 50220.95, 187500.00, -187500.02, -156117.00, -187500.02, -187500.02, -187500.02, 0.000, 0.000, 0.000, 18:12:39.103
69, 24786.09, 51208.61, 187500.00, -187500.02, -156366.61, -187500.02, -187500.02, -187500.02, 0.000, 0.000, 0.000, 18:12:39.103
70, 24744.32, 50995.70, 187500.00, -187500.02, -156521.03, -187500.02, -187500.02, -187500.02, 0.000, 0.000, 0.000, 18:12:39.103
71, 24169.07, 50346.18, 187500.00, -187500.02, -156469.56, -187500.02, -187500.02, -187500.02, 0.000, 0.000, 0.000, 18:12:39.103
72, 23387.34, 49580.05, 187500.00, -187500.02, -156179.17, -187500.02, -187500.02, -187500.02, 0.016, -0.008, 1.018, 18:12:39.103
73, 23829.51, 50225.73, 187500.00, -187500.02, -156214.09, -187500.02, -187500.02, -187500.02, 0.000, 0.000, 0.000, 18:12:39.104
74, 24797.94, 51216.65, 187500.00, -187500.02, -156421.34, -187500.02, -187500.02, -187500.02, 0.000, 0.000, 0.000, 18:12:39.104
75, 24763.70, 51012.89, 187500.00, -187500.02, -156559.64, -187500.02, -187500.02, -187500.02, 0.000, 0.000, 0.000, 18:12:39.567
76, 24169.39, 50340.80, 187500.00, -187500.02, -156466.47, -187500.02, -187500.02, -187500.02, 0.000, 0.000, 0.000, 18:12:39.567
77, 23373.31, 49564.10, 187500.00, -187500.02, -156165.63, -187500.02, -187500.02, -187500.02, 0.000, 0.000, 0.000, 18:12:39.568
78, 23806.66, 50202.84, 187500.00, -187500.02, -156144.25, -187500.02, -187500.02, -187500.02, 0.000, 0.000, 0.000, 18:12:39.568
79, 24789.71, 51205.52, 187500.00, -187500.02, -156360.23, -187500.02, -187500.02, -187500.02, 0.000, 0.000, 0.000, 18:12:39.568
80, 24751.49, 50998.70, 187500.00, -187500.02, -156499.41, -187500.02, -187500.02, -187500.02, 0.000, 0.000, 0.000, 18:12:39.568
81, 24166.10, 50334.65, 187500.00, -187500.02, -156406.81, -187500.02, -187500.02, -187500.02, 0.000, 0.000, 0.000, 18:12:39.568
82, 23385.58, 49565.77, 187500.00, -187500.02, -156098.88, -187500.02, -187500.02, -187500.02, 0.016, -0.008, 1.020, 18:12:39.568
83, 23815.20, 50203.87, 187500.00, -187500.02, -156124.88, -187500.02, -187500.02, -187500.02, 0.000, 0.000, 0.000, 18:12:39.569
84, 24788.60, 51204.38, 187500.00, -187500.02, -156363.17, -187500.02, -187500.02, -187500.02, 0.000, 0.000, 0.000, 18:12:39.569
85, 24753.91, 51002.30, 187500.00, -187500.02, -156514.28, -187500.02, -187500.02, -187500.02, 0.000, 0.000, 0.000, 18:12:39.569
86, 24167.73, 50333.29, 187500.00, -187500.02, -156427.20, -187500.02, -187500.02, -187500.02, 0.000, 0.000, 0.000, 18:12:39.569
87, 23387.39, 49559.02, 187500.00, -187500.02, -156169.75, -187500.02, -187500.02, -187500.02, 0.000, 0.000, 0.000, 18:12:39.569
88, 23801.77, 50179.13, 187500.00, -187500.02, -156179.77, -187500.02, -187500.02, -187500.02, 0.000, 0.000, 0.000, 18:12:39.570
89, 24773.89, 51179.21, 187500.00, -187500.02, -156409.34, -187500.02, -187500.02, -187500.02, 0.000, 0.000, 0.000, 18:12:39.570
90, 24739.27, 50973.31, 187500.00, -187500.02, -156545.72, -187500.02, -187500.02, -187500.02, 0.000, 0.000, 0.000, 18:12:39.570
91, 24158.95, 50314.04, 187500.00, -187500.02, -156465.25, -187500.02, -187500.02, -187500.02, 0.000, 0.000, 0.000, 18:12:39.570
92, 23365.04, 49527.64, 187500.00, -187500.02, -156175.64, -187500.02, -187500.02, -187500.02, 0.018, -0.014, 1.020, 18:12:39.570
93, 23762.29, 50128.21, 187500.00, -187500.02, -156147.84, -187500.02, -187500.02, -187500.02, 0.000, 0.000, 0.000, 18:12:39.570
94, 24752.16, 51145.39, 187500.00, -187500.02, -156337.34, -187500.02, -187500.02, -187500.02, 0.000, 0.000, 0.000, 18:12:39.571
95, 24735.51, 50960.43, 187500.00, -187500.02, -156466.98, -187500.02, -187500.02, -187500.02, 0.000, 0.000, 0.000, 18:12:39.571
96, 24158.86, 50304.01, 187500.00, -187500.02, -156385.88, -187500.02, -187500.02, -187500.02, 0.000, 0.000, 0.000, 18:12:39.571
97, 23365.28, 49518.70, 187500.00, -187500.02, -156078.52, -187500.02, -187500.02, -187500.02, 0.000, 0.000, 0.000, 18:12:39.571
98, 23768.93, 50130.60, 187500.00, -187500.02, -156073.08, -187500.02, -187500.02, -187500.02, 0.000, 0.000, 0.000, 18:12:39.571
99, 24769.06, 51160.08, 187500.00, -187500.02, -156319.17, -187500.02, -187500.02, -187500.02, 0.000, 0.000, 0.000, 18:12:39.571
100, 24766.29, 50993.07, 187500.00, -187500.02, -156485.27, -187500.02, -187500.02, -187500.02, 0.000, 0.000, 0.000, 18:12:39.572
101, 24194.20, 50339.61, 187500.00, -187500.02, -156432.50, -187500.02, -187500.02, -187500.02, 0.000, 0.000, 0.000, 18:12:39.572
102, 23388.66, 49542.73, 187500.00, -187500.02, -156144.63, -187500.02, -187500.02, -187500.02, 0.016, -0.016, 1.020, 18:12:39.572
103, 23781.32, 50137.46, 187500.00, -187500.02, -156130.42, -187500.02, -187500.02, -187500.02, 0.000, 0.000, 0.000, 18:12:39.572
104, 24773.22, 51163.86, 187500.00, -187500.02, -156377.66, -187500.02, -187500.02, -187500.02, 0.000, 0.000, 0.000, 18:12:39.572
105, 24762.83, 50984.08, 187500.00, -187500.02, -156519.22, -187500.02, -187500.02, -187500.02, 0.000, 0.000, 0.000, 18:12:39.573
106, 24181.50, 50318.83, 187500.00, -187500.02, -156433.86, -187500.02, -187500.02, -187500.02, 0.000, 0.000, 0.000, 18:12:39.573
107, 23376.93, 49523.33, 187500.00, -187500.02, -156129.61, -187500.02, -187500.02, -187500.02, 0.000, 0.000, 0.000, 18:12:39.573
108, 23758.41, 50111.13, 187500.00, -187500.02, -156135.58, -187500.02, -187500.02, -187500.02, 0.000, 0.000, 0.000, 18:12:39.573
109, 24743.18, 51128.41, 187500.00, -187500.02, -156322.98, -187500.02, -187500.02, -187500.02, 0.000, 0.000, 0.000, 18:12:39.573
110, 24740.81, 50951.36, 187500.00, -187500.02, -156458.88, -187500.02, -187500.02, -187500.02, 0.000, 0.000, 0.000, 18:12:39.573
111, 24169.01, 50297.01, 187500.00, -187500.02, -156393.78, -187500.02, -187500.02, -187500.02, 0.000, 0.000, 0.000, 18:12:39.574
112, 23376.04, 49512.44, 187500.00, -187500.02, -156112.72, -187500.02, -187500.02, -187500.02, 0.014, -0.020, 1.020, 18:12:39.574
113, 23756.39, 50092.80, 187500.00, -187500.02, -156132.88, -187500.02, -187500.02, -187500.02, 0.000, 0.000, 0.000, 18:12:39.574
114, 24752.01, 51120.89, 187500.00, -187500.02, -156373.05, -187500.02, -187500.02, -187500.02, 0.000, 0.000, 0.000, 18:12:39.574
115, 24737.93, 50948.07, 187500.00, -187500.02, -156501.13, -187500.02, -187500.02, -187500.02, 0.000, 0.000, 0.000, 18:12:39.574
116, 24167.06, 50300.05, 187500.00, -187500.02, -156447.19, -187500.02, -187500.02, -187500.02, 0.000, 0.000, 0.000, 18:12:39.575
117, 23363.65, 49502.65, 187500.00, -187500.02, -156144.63, -187500.02, -187500.02, -187500.02, 0.000, 0.000, 0.000, 18:12:39.575
118, 23735.23, 50077.32, 187500.00, -187500.02, -156168.75, -187500.02, -187500.02, -187500.02, 0.000, 0.000, 0.000, 18:12:39.575
119, 24735.47, 51110.30, 187500.00, -187500.02, -156393.72, -187500.02, -187500.02, -187500.02, 0.000, 0.000, 0.000, 18:12:39.575
120, 24739.54, 50944.79, 187500.00, -187500.02, -156529.06, -187500.02, -187500.02, -187500.02, 0.000, 0.000, 0.000, 18:12:39.575
121, 24169.83, 50294.24, 187500.00, -187500.02, -156461.89, -187500.02, -187500.02, -187500.02, 0.018, -0.014, 1.018, 18:12:39.575
122, 23365.82, 49493.45, 187500.00, -187500.02, -156164.50, -187500.02, -187500.02, -187500.02, 0.000, 0.000, 0.000, 18:12:39.575
123, 23723.76, 50056.35, 187500.00, -187500.02, -156154.00, -187500.02, -187500.02, -187500.02, 0.000, 0.000, 0.000, 18:12:39.575
124, 24724.98, 51097.52, 187500.00, -187500.02, -156352.75, -187500.02, -187500.02, -187500.02, 0.000, 0.000, 0.000, 18:12:39.576
125, 24733.88, 50941.50, 187500.00, -187500.02, -156461.67, -187500.02, -187500.02, -187500.02, 0.000, 0.000, 0.000, 18:12:39.576
126, 24173.37, 50297.12, 187500.00, -187500.02, -156386.03, -187500.02, -187500.02, -187500.02, 0.000, 0.000, 0.000, 18:12:39.576
127, 23375.19, 49503.26, 187500.00, -187500.02, -156102.67, -187500.02, -187500.02, -187500.02, 0.000, 0.000, 0.000, 18:12:39.576
128, 23724.81, 50057.02, 187500.00, -187500.02, -156093.72, -187500.02, -187500.02, -187500.02, 0.000, 0.000, 0.000, 18:12:39.576
129, 24740.63, 51112.87, 187500.00, -187500.02, -156325.30, -187500.02, -187500.02, -187500.02, 0.000, 0.000, 0.000, 18:12:39.577
130, 24762.07, 50967.41, 187500.00, -187500.02, -156497.05, -187500.02, -187500.02, -187500.02, 0.000, 0.000, 0.000, 18:12:39.577
131, 24204.61, 50324.19, 187500.00, -187500.02, -156469.53, -187500.02, -187500.02, -187500.02, 0.014, -0.010, 1.024, 18:12:39.577
132, 23398.39, 49518.77, 187500.00, -187500.02, -156183.13, -187500.02, -187500.02, -187500.02, 0.000, 0.000, 0.000, 18:12:39.577
133, 23731.72, 50055.07, 187500.00, -187500.02, -156187.13, -187500.02, -187500.02, -187500.02, 0.000, 0.000, 0.000, 18:12:39.577
134, 24737.61, 51103.02, 187500.00, -187500.02, -156399.83, -187500.02, -187500.02, -187500.02, 0.000, 0.000, 0.000, 18:12:39.577
135, 24760.88, 50959.09, 187500.00, -187500.02, -156538.38, -187500.02, -187500.02, -187500.02, 0.000, 0.000, 0.000, 18:12:39.578
136, 24191.45, 50301.57, 187500.00, -187500.02, -156494.81, -187500.02, -187500.02, -187500.02, 0.000, 0.000, 0.000, 18:12:39.578
137, 23374.07, 49489.09, 187500.00, -187500.02, -156181.56, -187500.02, -187500.02, -187500.02, 0.000, 0.000, 0.000, 18:12:39.578
138, 23691.44, 50014.11, 187500.00, -187500.02, -156143.11, -187500.02, -187500.02, -187500.02, 0.000, 0.000, 0.000, 18:12:39.578
139, 24702.61, 51063.86, 187500.00, -187500.02, -156340.09, -187500.02, -187500.02, -187500.02, 0.000, 0.000, 0.000, 18:12:39.578
140, 24730.55, 50924.16, 187500.00, -187500.02, -156472.89, -187500.02, -187500.02, -187500.02, 0.000, 0.000, 0.000, 18:12:39.578
141, 24166.44, 50278.13, 187500.00, -187500.02, -156428.09, -187500.02, -187500.02, -187500.02, 0.014, -0.014, 1.020, 18:12:39.579
142, 23355.56, 49470.00, 187500.00, -187500.02, -156167.52, -187500.02, -187500.02, -187500.02, 0.000, 0.000, 0.000, 18:12:39.579
143, 23677.56, 49999.22, 187500.00, -187500.02, -156182.72, -187500.02, -187500.02, -187500.02, 0.000, 0.000, 0.000, 18:12:39.579
144, 24692.78, 51054.20, 187500.00, -187500.02, -156390.39, -187500.02, -187500.02, -187500.02, 0.000, 0.000, 0.000, 18:12:39.579
145, 24737.86, 50933.52, 187500.00, -187500.02, -156537.53, -187500.02, -187500.02, -187500.02, 0.000, 0.000, 0.000, 18:12:39.579
146, 24181.26, 50292.50, 187500.00, -187500.02, -156477.89, -187500.02, -187500.02, -187500.02, 0.000, 0.000, 0.000, 18:12:39.579
147, 23377.82, 49491.12, 187500.00, -187500.02, -156186.86, -187500.02, -187500.02, -187500.02, 0.000, 0.000, 0.000, 18:12:39.579
148, 23682.54, 49998.68, 187500.00, -187500.02, -156152.03, -187500.02, -187500.02, -187500.02, 0.000, 0.000, 0.000, 18:12:39.580
149, 24705.38, 51064.37, 187500.00, -187500.02, -156404.00, -187500.02, -187500.02, -187500.02, 0.000, 0.000, 0.000, 18:12:39.580
150, 24752.63, 50948.70, 187500.00, -187500.02, -156577.86, -187500.02, -187500.02, -187500.02, 0.000, 0.000, 0.000, 18:12:39.580
151, 24203.29, 50312.72, 187500.00, -187500.02, -156561.36, -187500.02, -187500.02, -187500.02, 0.012, -0.016, 1.020, 18:12:39.580
152, 23384.48, 49495.21, 187500.00, -187500.02, -156261.17, -187500.02, -187500.02, -187500.02, 0.000, 0.000, 0.000, 18:12:39.580
153, 23678.97, 49997.72, 187500.00, -187500.02, -156198.39, -187500.02, -187500.02, -187500.02, 0.000, 0.000, 0.000, 18:12:39.581
154, 24705.99, 51075.48, 187500.00, -187500.02, -156398.97, -187500.02, -187500.02, -187500.02, 0.000, 0.000, 0.000, 18:12:39.581
155, 24748.77, 50945.86, 187500.00, -187500.02, -156538.45, -187500.02, -187500.02, -187500.02, 0.000, 0.000, 0.000, 18:12:39.581
