%OpenBCI Raw EEG Data
%
%Sample Rate = 250.0 Hz
%First Column = SampleIndex
%Last Column = Timestamp 
%Other Columns = EEG data in microvolts followed by Accel Data (in G) interleaved with Aux Data
0, 32529.72, 31954.28, -187500.02, -187500.02, -187500.02, -148757.66, -187500.02, -187500.02, 0.004, -0.272, 0.986, 15:06:48.995
1, 32511.10, 32075.80, -187500.02, -187500.02, -187500.02, -148770.84, -187500.02, -187500.02, 0.000, 0.000, 0.000, 15:06:49.475
2, 32432.45, 32140.27, -187500.02, -187500.02, -187500.02, -148590.77, -187500.02, -187500.02, 0.000, 0.000, 0.000, 15:06:49.475
3, 32332.18, 32113.40, -187500.02, -187500.02, -187500.02, -148351.19, -187500.02, -187500.02, 0.000, 0.000, 0.000, 15:06:49.475
4, 32376.28, 31941.07, -187500.02, -187500.02, -187500.02, -148447.86, -187500.02, -187500.02, 0.000, 0.000, 0.000, 15:06:49.476
5, 32502.65, 31931.21, -187500.02, -187500.02, -187500.02, -148739.83, -187500.02, -187500.02, 0.000, 0.000, 0.000, 15:06:49.476
6, 32496.24, 32066.21, -187500.02, -187500.02, -187500.02, -148732.17, -187500.02, -187500.02, 0.000, 0.000, 0.000, 15:06:49.476
7, 32415.46, 32134.21, -187500.02, -187500.02, -187500.02, -148530.78, -187500.02, -187500.02, 0.000, -0.296, 0.984, 15:06:49.476
8, 32332.00, 32117.85, -187500.02, -187500.02, -187500.02, -148259.16, -187500.02, -187500.02, 0.000, 0.000, 0.000, 15:06:49.476
9, 32384.46, 31942.72, -187500.02, -187500.02, -187500.02, -148382.09, -187500.02, -187500.02, 0.000, 0.000, 0.000, 15:06:49.476
10, 32496.89, 31920.70, -187500.02, -187500.02, -187500.02, -148633.70, -187500.02, -187500.02, 0.000, 0.000, 0.000, 15:06:49.477
11, 32498.50, 32071.33, -187500.02, -187500.02, -187500.02, -148665.66, -187500.02, -187500.02, 0.000, 0.000, 0.000, 15:06:49.477
12, 32443.20, 32167.31, -187500.02, -187500.02, -187500.02, -148544.33, -187500.02, -187500.02, 0.000, 0.000, 0.000, 15:06:49.477
13, 32359.67, 32150.55, -187500.02, -187500.02, -187500.02, -148328.77, -187500.02, -187500.02, 0.000, 0.000, 0.000, 15:06:49.477
14, 32406.74, 31975.80, -187500.02, -187500.02, -187500.02, -148464.06, -187500.02, -187500.02, 0.000, 0.000, 0.000, 15:06:49.477
15, 32521.92, 31949.65, -187500.02, -187500.02, -187500.02, -148725.34, -187500.02, -187500.02, 0.000, 0.000, 0.000, 15:06:49.478
16, 32527.49, 32089.28, -187500.02, -187500.02, -187500.02, -148697.13, -187500.02, -187500.02, 0.000, 0.000, 0.000, 15:06:49.478
17, 32452.34, 32161.23, -187500.02, -187500.02, -187500.02, -148523.17, -187500.02, -187500.02, 0.000, -0.286, 0.996, 15:06:49.478
18, 32360.41, 32145.23, -187500.02, -187500.02, -187500.02, -148286.63, -187500.02, -187500.02, 0.000, 0.000, 0.000, 15:06:49.478
19, 32407.93, 31974.10, -187500.02, -187500.02, -187500.02, -148393.52, -187500.02, -187500.02, 0.000, 0.000, 0.000, 15:06:49.478
20, 32519.28, 31942.88, -187500.02, -187500.02, -187500.02, -148649.00, -187500.02, -187500.02, 0.000, 0.000, 0.000, 15:06:49.478
21, 32512.87, 32073.46, -187500.02, -187500.02, -187500.02, -148648.30, -187500.02, -187500.02, 0.000, 0.000, 0.000, 15:06:49.479
22, 32438.79, 32147.62, -187500.02, -187500.02, -187500.02, -148493.23, -187500.02, -187500.02, 0.000, 0.000, 0.000, 15:06:49.479
23, 32352.27, 32130.68, -187500.02, -187500.02, -187500.02, -148264.53, -187500.02, -187500.02, 0.000, 0.000, 0.000, 15:06:49.479
24, 32398.81, 31962.41, -187500.02, -187500.02, -187500.02, -148400.31, -187500.02, -187500.02, 0.000, 0.000, 0.000, 15:06:49.479
25, 32520.16, 31942.47, -187500.02, -187500.02, -187500.02, -148689.25, -187500.02, -187500.02, 0.000, 0.000, 0.000, 15:06:49.479
26, 32535.22, 32090.89, -187500.02, -187500.02, -187500.02, -148751.25, -187500.02, -187500.02, 0.002, -0.278, 0.992, 15:06:49.479
27, 32464.10, 32167.40, -187500.02, -187500.02, -187500.02, -148600.98, -187500.02, -187500.02, 0.000, 0.000, 0.000, 15:06:49.480
28, 32359.33, 32142.43, -187500.02, -187500.02, -187500.02, -148339.42, -187500.02, -187500.02, 0.000, 0.000, 0.000, 15:06:49.480
29, 32401.83, 31964.42, -187500.02, -187500.02, -187500.02, -148447.03, -187500.02, -187500.02, 0.000, 0.000, 0.000, 15:06:49.480
30, 32528.89, 31943.30, -187500.02, -187500.02, -187500.02, -148752.86, -187500.02, -187500.02, 0.000, 0.000, 0.000, 15:06:49.480
31, 32526.77, 32081.39, -187500.02, -187500.02, -187500.02, -148773.52, -187500.02, -187500.02, 0.000, 0.000, 0.000, 15:06:49.480
32, 32461.62, 32160.34, -187500.02, -187500.02, -187500.02, -148603.31, -187500.02, -187500.02, 0.000, 0.000, 0.000, 15:06:49.480
33, 32360.70, 32138.39, -187500.02, -187500.02, -187500.02, -148321.08, -187500.02, -187500.02, 0.000, 0.000, 0.000, 15:06:49.480
34, 32402.54, 31965.43, -187500.02, -187500.02, -187500.02, -148417.56, -187500.02, -187500.02, 0.000, 0.000, 0.000, 15:06:49.480
35, 32522.10, 31939.37, -187500.02, -187500.02, -187500.02, -148686.95, -187500.02, -187500.02, 0.000, 0.000, 0.000, 15:06:49.481
36, 32519.62, 32070.04, -187500.02, -187500.02, -187500.02, -148700.31, -187500.02, -187500.02, -0.004, -0.276, 0.990, 15:06:49.481
37, 32447.31, 32148.98, -187500.02, -187500.02, -187500.02, -148545.33, -187500.02, -187500.02, 0.000, 0.000, 0.000, 15:06:49.481
38, 32350.21, 32133.00, -187500.02, -187500.02, -187500.02, -148249.17, -187500.02, -187500.02, 0.000, 0.000, 0.000, 15:06:49.481
39, 32403.52, 31966.59, -187500.02, -187500.02, -187500.02, -148381.38, -187500.02, -187500.02, 0.000, 0.000, 0.000, 15:06:49.481
40, 32529.74, 31945.36, -187500.02, -187500.02, -187500.02, -148684.84, -187500.02, -187500.02, 0.000, 0.000, 0.000, 15:06:49.481
41, 32543.18, 32089.93, -187500.02, -187500.02, -187500.02, -148734.56, -187500.02, -187500.02, 0.000, 0.000, 0.000, 15:06:49.481
42, 32462.96, 32163.82, -187500.02, -187500.02, -187500.02, -148583.86, -187500.02, -187500.02, 0.000, 0.000, 0.000, 15:06:49.481
43, 32354.44, 32136.98, -187500.02, -187500.02, -187500.02, -148313.75, -187500.02, -187500.02, 0.000, 0.000, 0.000, 15:06:49.482
44, 32396.33, 31952.22, -187500.02, -187500.02, -187500.02, -148445.34, -187500.02, -187500.02, 0.000, 0.000, 0.000, 15:06:49.482
45, 32521.79, 31922.85, -187500.02, -187500.02, -187500.02, -148733.20, -187500.02, -187500.02, 0.000, 0.000, 0.000, 15:06:49.482
46, 32523.66, 32059.08, -187500.02, -187500.02, -187500.02, -148766.03, -187500.02, -187500.02, -0.002, -0.282, 0.986, 15:06:49.482
47, 32443.56, 32134.30, -187500.02, -187500.02, -187500.02, -148611.06, -187500.02, -187500.02, 0.000, 0.000, 0.000, 15:06:49.482
48, 32346.19, 32119.25, -187500.02, -187500.02, -187500.02, -148331.64, -187500.02, -187500.02, 0.000, 0.000, 0.000, 15:06:49.482
49, 32381.28, 31936.26, -187500.02, -187500.02, -187500.02, -148405.34, -187500.02, -187500.02, 0.000, 0.000, 0.000, 15:06:49.483
50, 32503.93, 31904.90, -187500.02, -187500.02, -187500.02, -148713.73, -187500.02, -187500.02, 0.000, 0.000, 0.000, 15:06:49.483
51, 32516.27, 32048.98, -187500.02, -187500.02, -187500.02, -148726.98, -187500.02, -187500.02, 0.000, 0.000, 0.000, 15:06:49.483
52, 32443.91, 32133.43, -187500.02, -187500.02, -187500.02, -148537.64, -187500.02, -187500.02, 0.000, 0.000, 0.000, 15:06:49.483
53, 32360.56, 32135.41, -187500.02, -187500.02, -187500.02, -148276.94, -187500.02, -187500.02, 0.000, 0.000, 0.000, 15:06:49.483
54, 32400.06, 31953.05, -187500.02, -187500.02, -187500.02, -148385.53, -187500.02, -187500.02, 0.000, 0.000, 0.000, 15:06:49.483
55, 32515.17, 31915.67, -187500.02, -187500.02, -187500.02, -148685.52, -187500.02, -187500.02, 0.000, 0.000, 0.000, 15:06:49.484
56, 32528.18, 32066.24, -187500.02, -187500.02, -187500.02, -148721.55, -187500.02, -187500.02, 0.004, -0.274, 0.986, 15:06:49.484
57, 32474.20, 32152.67, -187500.02, -187500.02, -187500.02, -148614.64, -187500.02, -187500.02, 0.000, 0.000, 0.000, 15:06:49.484
58, 32378.69, 32141.07, -187500.02, -187500.02, -187500.02, -148372.58, -187500.02, -187500.02, 0.000, 0.000, 0.000, 15:06:49.484
59, 32399.25, 31956.98, -187500.02, -187500.02, -187500.02, -148465.02, -187500.02, -187500.02, 0.000, 0.000, 0.000, 15:06:49.484
60, 32515.66, 31927.86, -187500.02, -187500.02, -187500.02, -148746.78, -187500.02, -187500.02, 0.000, 0.000, 0.000, 15:06:49.485
61, 32528.02, 32078.13, -187500.02, -187500.02, -187500.02, -148749.88, -187500.02, -187500.02, 0.000, 0.000, 0.000, 15:06:49.485
62, 32456.39, 32145.21, -187500.02, -187500.02, -187500.02, -148573.50, -187500.02, -187500.02, 0.000, 0.000, 0.000, 15:06:49.485
63, 32373.68, 32141.34, -187500.02, -187500.02, -187500.02, -148309.20, -187500.02, -187500.02, 0.000, 0.000, 0.000, 15:06:49.505
64, 32399.14, 31966.68, -187500.02, -187500.02, -187500.02, -148405.31, -187500.02, -187500.02, 0.000, 0.000, 0.000, 15:06:49.505
65, 32510.52, 31930.09, -187500.02, -187500.02, -187500.02, -148698.17, -187500.02, -187500.02, 0.000, 0.000, 0.000, 15:06:49.505
66, 32525.36, 32074.28, -187500.02, -187500.02, -187500.02, -148703.45, -187500.02, -187500.02, 0.000, -0.278, 0.986, 15:06:49.505
67, 32445.95, 32146.63, -187500.02, -187500.02, -187500.02, -148519.05, -187500.02, -187500.02, 0.000, 0.000, 0.000, 15:06:49.505
68, 32364.50, 32144.27, -187500.02, -187500.02, -187500.02, -148262.11, -187500.02, -187500.02, 0.000, 0.000, 0.000, 15:06:49.506
69, 32409.42, 31978.93, -187500.02, -187500.02, -187500.02, -148344.52, -187500.02, -187500.02, 0.000, 0.000, 0.000, 15:06:49.506
70, 32541.03, 31955.08, -187500.02, -187500.02, -187500.02, -148654.66, -187500.02, -187500.02, 0.000, 0.000, 0.000, 15:06:49.506
71, 32555.16, 32096.54, -187500.02, -187500.02, -187500.02, -148712.44, -187500.02, -187500.02, 0.000, 0.000, 0.000, 15:06:49.506
72, 32478.16, 32176.25, -187500.02, -187500.02, -187500.02, -148583.33, -187500.02, -187500.02, 0.000, 0.000, 0.000, 15:06:49.506
73, 32380.03, 32164.70, -187500.02, -187500.02, -187500.02, -148319.22, -187500.02, -187500.02, 0.000, 0.000, 0.000, 15:06:49.506
74, 32414.61, 31985.72, -187500.02, -187500.02, -187500.02, -148431.56, -187500.02, -187500.02, 0.000, 0.000, 0.000, 15:06:49.506
75, 32528.63, 31944.73, -187500.02, -187500.02, -187500.02, -148723.16, -187500.02, -187500.02, 0.000, 0.000, 0.000, 15:06:49.507
76, 32532.25, 32079.20, -187500.02, -187500.02, -187500.02, -148753.27, -187500.02, -187500.02, -0.002, -0.280, 0.988, 15:06:49.507
77, 32455.00, 32155.98, -187500.02, -187500.02, -187500.02, -148599.59, -187500.02, -187500.02, 0.000, 0.000, 0.000, 15:06:49.507
78, 32365.91, 32153.97, -187500.02, -187500.02, -187500.02, -148323.63, -187500.02, -187500.02, 0.000, 0.000, 0.000, 15:06:49.507
79, 32405.58, 31981.17, -187500.02, -187500.02, -187500.02, -148433.81, -187500.02, -187500.02, 0.000, 0.000, 0.000, 15:06:49.507
80, 32525.05, 31937.47, -187500.02, -187500.02, -187500.02, -148710.16, -187500.02, -187500.02, 0.000, 0.000, 0.000, 15:06:49.507
81, 32540.03, 32083.87, -187500.02, -187500.02, -187500.02, -148673.78, -187500.02, -187500.02, 0.000, 0.000, 0.000, 15:06:49.507
82, 32468.05, 32170.28, -187500.02, -187500.02, -187500.02, -148492.31, -187500.02, -187500.02, 0.000, 0.000, 0.000, 15:06:49.507
83, 32384.08, 32171.56, -187500.02, -187500.02, -187500.02, -148183.81, -187500.02, -187500.02, 0.000, 0.000, 0.000, 15:06:49.507
84, 32432.11, 32006.74, -187500.02, -187500.02, -187500.02, -148336.72, -187500.02, -187500.02, 0.000, 0.000, 0.000, 15:06:49.508
85, 32554.00, 31967.38, -187500.02, -187500.02, -187500.02, -148623.14, -187500.02, -187500.02, 0.000, 0.000, 0.000, 15:06:49.508
86, 32569.82, 32110.60, -187500.02, -187500.02, -187500.02, -148698.03, -187500.02, -187500.02, 0.000, -0.282, 0.982, 15:06:49.508
87, 32487.88, 32181.46, -187500.02, -187500.02, -187500.02, -148564.11, -187500.02, -187500.02, 0.000, 0.000, 0.000, 15:06:49.508
88, 32395.07, 32182.96, -187500.02, -187500.02, -187500.02, -148312.25, -187500.02, -187500.02, 0.000, 0.000, 0.000, 15:06:49.508
89, 32425.25, 32005.98, -187500.02, -187500.02, -187500.02, -148419.88, -187500.02, -187500.02, 0.000, 0.000, 0.000, 15:06:49.508
90, 32549.26, 31959.93, -187500.02, -187500.02, -187500.02, -148693.20, -187500.02, -187500.02, 0.000, 0.000, 0.000, 15:06:49.508
91, 32554.38, 32092.83, -187500.02, -187500.02, -187500.02, -148709.33, -187500.02, -187500.02, 0.000, 0.000, 0.000, 15:06:49.508
92, 32488.75, 32186.47, -187500.02, -187500.02, -187500.02, -148564.98, -187500.02, -187500.02, 0.000, 0.000, 0.000, 15:06:49.509
93, 32395.48, 32187.14, -187500.02, -187500.02, -187500.02, -148314.19, -187500.02, -187500.02, 0.000, 0.000, 0.000, 15:06:49.509
94, 32425.63, 32008.66, -187500.02, -187500.02, -187500.02, -148384.31, -187500.02, -187500.02, 0.000, 0.000, 0.000, 15:06:49.509
95, 32549.79, 31957.16, -187500.02, -187500.02, -187500.02, -148654.50, -187500.02, -187500.02, 0.000, 0.000, 0.000, 15:06:49.509
96, 32559.14, 32089.73, -187500.02, -187500.02, -187500.02, -148710.42, -187500.02, -187500.02, 0.002, -0.280, 0.984, 15:06:49.509
97, 32493.67, 32187.14, -187500.02, -187500.02, -187500.02, -148547.70, -187500.02, -187500.02, 0.000, 0.000, 0.000, 15:06:49.509
98, 32393.09, 32181.28, -187500.02, -187500.02, -187500.02, -148255.77, -187500.02, -187500.02, 0.000, 0.000, 0.000, 15:06:49.509
99, 32428.54, 32008.01, -187500.02, -187500.02, -187500.02, -148336.39, -187500.02, -187500.02, 0.000, 0.000, 0.000, 15:06:49.510
100, 32550.04, 31952.33, -187500.02, -187500.02, -187500.02, -148631.36, -187500.02, -187500.02, 0.000, 0.000, 0.000, 15:06:49.510
101, 32571.14, 32093.95, -187500.02, -187500.02, -187500.02, -148707.63, -187500.02, -187500.02, 0.000, 0.000, 0.000, 15:06:49.510
102, 32496.60, 32182.80, -187500.02, -187500.02, -187500.02, -148542.95, -187500.02, -187500.02, 0.000, 0.000, 0.000, 15:06:49.510
103, 32397.18, 32190.24, -187500.02, -187500.02, -187500.02, -148299.27, -187500.02, -187500.02, 0.000, 0.000, 0.000, 15:06:49.510
104, 32427.35, 32004.72, -187500.02, -187500.02, -187500.02, -148387.34, -187500.02, -187500.02, 0.000, 0.000, 0.000, 15:06:49.510
105, 32550.13, 31946.47, -187500.02, -187500.02, -187500.02, -148656.84, -187500.02, -187500.02, 0.000, 0.000, 0.000, 15:06:49.510
106, 32554.67, 32074.62, -187500.02, -187500.02, -187500.02, -148707.92, -187500.02, -187500.02, 0.004, -0.280, 0.986, 15:06:49.510
107, 32470.13, 32153.21, -187500.02, -187500.02, -187500.02, -148529.84, -187500.02, -187500.02, 0.000, 0.000, 0.000, 15:06:49.511
108, 32374.60, 32159.49, -187500.02, -187500.02, -187500.02, -148244.41, -187500.02, -187500.02, 0.000, 0.000, 0.000, 15:06:49.511
109, 32426.14, 31992.12, -187500.02, -187500.02, -187500.02, -148338.86, -187500.02, -187500.02, 0.000, 0.000, 0.000, 15:06:49.511
110, 32556.61, 31944.35, -187500.02, -187500.02, -187500.02, -148611.25, -187500.02, -187500.02, 0.000, 0.000, 0.000, 15:06:49.511
111, 32534.28, 32057.23, -187500.02, -187500.02, -187500.02, -148664.44, -187500.02, -187500.02, 0.000, 0.000, 0.000, 15:06:49.511
112, 32461.82, 32150.32, -187500.02, -187500.02, -187500.02, -148511.73, -187500.02, -187500.02, 0.000, 0.000, 0.000, 15:06:49.511
113, 32378.58, 32174.46, -187500.02, -187500.02, -187500.02, -148247.56, -187500.02, -187500.02, 0.000, 0.000, 0.000, 15:06:49.511
114, 32413.69, 31993.01, -187500.02, -187500.02, -187500.02, -148353.69, -187500.02, -187500.02, 0.000, 0.000, 0.000, 15:06:49.511
115, 32533.52, 31925.64, -187500.02, -187500.02, -187500.02, -148650.06, -187500.02, -187500.02, 0.000, 0.000, 0.000, 15:06:49.511
116, 32552.30, 32071.62, -187500.02, -187500.02, -187500.02, -148701.75, -187500.02, -187500.02, 0.000, -0.276, 0.992, 15:06:49.512
117, 32485.22, 32176.41, -187500.02, -187500.02, -187500.02, -148554.16, -187500.02, -187500.02, 0.000, 0.000, 0.000, 15:06:49.512
118, 32396.84, 32195.07, -187500.02, -187500.02, -187500.02, -148290.41, -187500.02, -187500.02, 0.000, 0.000, 0.000, 15:06:49.512
119, 32423.73, 31999.65, -187500.02, -187500.02, -187500.02, -148384.63, -187500.02, -187500.02, 0.000, 0.000, 0.000, 15:06:49.512
120, 32542.19, 31925.35, -187500.02, -187500.02, -187500.02, -148679.39, -187500.02, -187500.02, 0.000, 0.000, 0.000, 15:06:49.512
121, 32555.34, 32074.24, -187500.02, -187500.02, -187500.02, -148716.70, -187500.02, -187500.02, 0.000, 0.000, 0.000, 15:06:49.955
122, 32481.11, 32173.41, -187500.02, -187500.02, -187500.02, -148556.11, -187500.02, -187500.02, 0.000, 0.000, 0.000, 15:06:49.955
123, 32389.69, 32191.12, -187500.02, -187500.02, -187500.02, -148265.11, -187500.02, -187500.02, 0.000, 0.000, 0.000, 15:06:49.956
124, 32424.94, 32012.14, -187500.02, -187500.02, -187500.02, -148344.13, -187500.02, -187500.02, 0.000, 0.000, 0.000, 15:06:49.956
125, 32540.25, 31930.56, -187500.02, -187500.02, -187500.02, -148646.06, -187500.02, -187500.02, 0.000, 0.000, 0.000, 15:06:49.956
126, 32547.02, 32060.54, -187500.02, -187500.02, -187500.02, -148710.55, -187500.02, -187500.02, 0.000, -0.274, 0.990, 15:06:49.956
127, 32491.70, 32171.63, -187500.02, -187500.02, -187500.02, -148572.11, -187500.02, -187500.02, 0.000, 0.000, 0.000, 15:06:49.956
128, 32392.88, 32190.06, -187500.02, -187500.02, -187500.02, -148282.52, -187500.02, -187500.02, 0.000, 0.000, 0.000, 15:06:49.957
129, 32423.57, 32009.53, -187500.02, -187500.02, -187500.02, -148349.34, -187500.02, -187500.02, 0.000, 0.000, 0.000, 15:06:49.957
130, 32546.17, 31937.96, -187500.02, -187500.02, -187500.02, -148645.84, -187500.02, -187500.02, 0.000, 0.000, 0.000, 15:06:49.957
131, 32563.32, 32077.19, -187500.02, -187500.02, -187500.02, -148717.13, -187500.02, -187500.02, 0.000, 0.000, 0.000, 15:06:49.957
132, 32488.82, 32174.75, -187500.02, -187500.02, -187500.02, -148570.39, -187500.02, -187500.02, 0.000, 0.000, 0.000, 15:06:49.957
133, 32388.23, 32193.51, -187500.02, -187500.02, -187500.02, -148268.14, -187500.02, -187500.02, 0.000, 0.000, 0.000, 15:06:49.957
134, 32422.86, 32009.24, -187500.02, -187500.02, -187500.02, -148389.88, -187500.02, -187500.02, 0.000, 0.000, 0.000, 15:06:49.958
135, 32554.44, 31942.54, -187500.02, -187500.02, -187500.02, -148700.83, -187500.02, -187500.02, 0.000, 0.000, 0.000, 15:06:49.958
136, 32562.18, 32077.72, -187500.02, -187500.02, -187500.02, -148745.69, -187500.02, -187500.02, 0.002, -0.278, 0.984, 15:06:49.958
137, 32492.21, 32180.59, -187500.02, -187500.02, -187500.02, -148585.11, -187500.02, -187500.02, 0.000, 0.000, 0.000, 15:06:49.958
138, 32395.79, 32201.80, -187500.02, -187500.02, -187500.02, -148302.97, -187500.02, -187500.02, 0.000, 0.000, 0.000, 15:06:49.958
139, 32435.20, 32032.13, -187500.02, -187500.02, -187500.02, -148350.69, -187500.02, -187500.02, 0.000, 0.000, 0.000, 15:06:49.958
140, 32558.85, 31958.03, -187500.02, -187500.02, -187500.02, -148620.61, -187500.02, -187500.02, 0.000, 0.000, 0.000, 15:06:49.959
141, 32572.10, 32087.11, -187500.02, -187500.02, -187500.02, -148650.41, -187500.02, -187500.02, 0.000, 0.000, 0.000, 15:06:49.959
142, 32508.20, 32186.29, -187500.02, -187500.02, -187500.02, -148497.09, -187500.02, -187500.02, 0.000, 0.000, 0.000, 15:06:49.959
143, 32406.63, 32208.79, -187500.02, -187500.02, -187500.02, -148201.52, -187500.02, -187500.02, 0.000, 0.000, 0.000, 15:06:49.959
144, 32438.26, 32030.59, -187500.02, -187500.02, -187500.02, -148316.92, -187500.02, -187500.02, 0.000, 0.000, 0.000, 15:06:49.959
145, 32570.49, 31962.05, -187500.02, -187500.02, -187500.02, -148647.45, -187500.02, -187500.02, 0.000, -0.274, 0.982, 15:06:49.960
146, 32592.84, 32107.90, -187500.02, -187500.02, -187500.02, -148678.48, -187500.02, -187500.02, 0.000, 0.000, 0.000, 15:06:49.960
147, 32512.38, 32202.67, -187500.02, -187500.02, -187500.02, -148555.97, -187500.02, -187500.02, 0.000, 0.000, 0.000, 15:06:49.960
148, 32401.00, 32214.29, -187500.02, -187500.02, -187500.02, -148300.72, -187500.02, -187500.02, 0.000, 0.000, 0.000, 15:06:49.960
149, 32433.07, 32023.12, -187500.02, -187500.02, -187500.02, -148377.56, -187500.02, -187500.02, 0.000, 0.000, 0.000, 15:06:49.960
150, 32569.08, 31953.07, -187500.02, -187500.02, -187500.02, -148707.63, -187500.02, -187500.02, 0.000, 0.000, 0.000, 15:06:49.961
151, 32578.96, 32096.90, -187500.02, -187500.02, -187500.02, -148750.00, -187500.02, -187500.02, 0.000, 0.000, 0.000, 15:06:49.961
152, 32507.95, 32203.01, -187500.02, -187500.02, -187500.02, -148571.19, -187500.02, -187500.02, 0.000, 0.000, 0.000, 15:06:49.961
153, 32406.63, 32225.78, -187500.02, -187500.02, -187500.02, -148295.33, -187500.02, -187500.02, 0.000, 0.000, 0.000, 15:06:49.961
154, 32448.14, 32048.44, -187500.02, -187500.02, -187500.02, -148360.41, -187500.02, -187500.02, 0.000, 0.000, 0.000, 15:06:49.961
155, 32580.35, 31970.73, -187500.02, -187500.02, -187500.02, -148663.70, -187500.02, -187500.02, 0.000, -0.278, 0.988, 15:06:49.961
156, 32598.30, 32111.32, -187500.02, -187500.02, -187500.02, -148731.88, -187500.02, -187500.02, 0.000, 0.000, 0.000, 15:06:49.962
157, 32526.88, 32221.69, -187500.02, -187500.02, -187500.02, -148571.02, -187500.02, -187500.02, 0.000, 0.000, 0.000, 15:06:49.962
158, 32423.80, 32241.12, -187500.02, -187500.02, -187500.02, -148265.73, -187500.02, -187500.02, 0.000, 0.000, 0.000, 15:06:49.962
159, 32454.93, 32053.41, -187500.02, -187500.02, -187500.02, -148334.39, -187500.02, -187500.02, 0.000, 0.000, 0.000, 15:06:49.962
160, 32593.20, 31979.76, -187500.02, -187500.02, -187500.02, -148616.66, -187500.02, -187500.02, 0.000, 0.000, 0.000, 15:06:49.962
161, 32619.62, 32124.73, -187500.02, -187500.02, -187500.02, -148686.06, -187500.02, -187500.02, 0.000, 0.000, 0.000, 15:06:49.962
162, 32546.69, 32230.61, -187500.02, -187500.02, -187500.02, -148567.64, -187500.02, -187500.02, 0.000, 0.000, 0.000, 15:06:49.963
163, 32433.86, 32260.41, -187500.02, -187500.02, -187500.02, -148306.13, -187500.02, -187500.02, 0.000, 0.000, 0.000, 15:06:49.963
164, 32463.92, 32071.80, -187500.02, -187500.02, -187500.02, -148402.48, -187500.02, -187500.02, 0.000, 0.000, 0.000, 15:06:49.963
165, 32589.11, 31975.38, -187500.02, -187500.02, -187500.02, -148666.05, -187500.02, -187500.02, 0.002, -0.278, 0.990, 15:06:49.963
166, 32598.99, 32111.95, -187500.02, -187500.02, -187500.02, -148725.66, -187500.02, -187500.02, 0.000, 0.000, 0.000, 15:06:49.963
167, 32519.33, 32211.54, -187500.02, -187500.02, -187500.02, -148546.78, -187500.02, -187500.02, 0.000, 0.000, 0.000, 15:06:49.964
168, 32421.49, 32242.75, -187500.02, -187500.02, -187500.02, -148270.88, -187500.02, -187500.02, 0.000, 0.000, 0.000, 15:06:49.964
169, 32456.39, 32061.05, -187500.02, -187500.02, -187500.02, -148359.67, -187500.02, -187500.02, 0.000, 0.000, 0.000, 15:06:49.964
170, 32587.72, 31972.27, -187500.02, -187500.02, -187500.02, -148648.91, -187500.02, -187500.02, 0.000, 0.000, 0.000, 15:06:49.964
171, 32597.94, 32107.70, -187500.02, -187500.02, -187500.02, -148716.36, -187500.02, -187500.02, 0.000, 0.000, 0.000, 15:06:49.964
172, 32529.81, 32220.96, -187500.02, -187500.02, -187500.02, -148564.06, -187500.02, -187500.02, 0.000, 0.000, 0.000, 15:06:49.965
173, 32426.26, 32258.53, -187500.02, -187500.02, -187500.02, -148249.08, -187500.02, -187500.02, 0.000, 0.000, 0.000, 15:06:49.965
174, 32465.86, 32078.13, -187500.02, -187500.02, -187500.02, -148315.17, -187500.02, -187500.02, 0.000, 0.000, 0.000, 15:06:49.965
175, 32616.00, 31995.87, -187500.02, -187500.02, -187500.02, -148664.02, -187500.02, -187500.02, 0.006, -0.282, 0.988, 15:06:49.965
176, 32634.82, 32137.92, -187500.02, -187500.02, -187500.02, -148738.94, -187500.02, -187500.02, 0.000, 0.000, 0.000, 15:06:49.965
177, 32554.67, 32242.03, -187500.02, -187500.02, -187500.02, -148588.36, -187500.02, -187500.02, 0.000, 0.000, 0.000, 15:06:49.965
178, 32445.99, 32266.46, -187500.02, -187500.02, -187500.02, -148337.22, -187500.02, -187500.02, 0.000, 0.000, 0.000, 15:06:49.966
179, 32483.63, 32084.56, -187500.02, -187500.02, -187500.02, -148433.48, -187500.02, -187500.02, 0.000, 0.000, 0.000, 15:06:49.966
180, 32613.14, 31991.47, -187500.02, -187500.02, -187500.02, -148736.03, -187500.02, -187500.02, 0.000, 0.000, 0.000, 15:06:49.966
181, 32615.93, 32119.48, -187500.02, -187500.02, -187500.02, -148761.42, -187500.02, -187500.02, 0.000, 0.000, 0.000, 15:06:49.966
182, 32544.47, 32234.66, -187500.02, -187500.02, -187500.02, -148603.09, -187500.02, -187500.02, 0.000, 0.000, 0.000, 15:06:49.966
183, 32435.11, 32267.42, -187500.02, -187500.02, -187500.02, -148312.05, -187500.02, -187500.02, 0.000, 0.000, 0.000, 15:06:49.966
184, 32456.14, 32071.22, -187500.02, -187500.02, -187500.02, -148347.34, -187500.02, -187500.02, 0.000, 0.000, 0.000, 15:06:49.967
185, 32592.96, 31980.70, -187500.02, -187500.02, -187500.02, -148633.75, -187500.02, -187500.02, 0.002, -0.284, 0.992, 15:06:49.967
186, 32617.88, 32126.00, -187500.02, -187500.02, -187500.02, -148713.77, -187500.02, -187500.02, 0.000, 0.000, 0.000, 15:06:49.967
187, 32541.95, 32237.58, -187500.02, -187500.02, -187500.02, -148540.80, -187500.02, -187500.02, 0.000, 0.000, 0.000, 15:06:49.967
188, 32434.84, 32268.29, -187500.02, -187500.02, -187500.02, -148227.16, -187500.02, -187500.02, 0.000, 0.000, 0.000, 15:06:49.968
189, 32462.18, 32073.05, -187500.02, -187500.02, -187500.02, -148316.94, -187500.02, -187500.02, 0.000, 0.000, 0.000, 15:06:49.968
190, 32604.11, 31983.63, -187500.02, -187500.02, -187500.02, -148631.09, -187500.02, -187500.02, 0.000, 0.000, 0.000, 15:06:49.968
191, 32633.70, 32132.02, -187500.02, -187500.02, -187500.02, -148729.31, -187500.02, -187500.02, 0.000, 0.000, 0.000, 15:06:49.968
192, 32569.26, 32254.19, -187500.02, -187500.02, -187500.02, -148598.91, -187500.02, -187500.02, 0.000, 0.000, 0.000, 15:06:49.968
193, 32463.85, 32295.95, -187500.02, -187500.02, -187500.02, -148279.48, -187500.02, -187500.02, 0.000, 0.000, 0.000, 15:06:49.968
194, 32482.87, 32096.52, -187500.02, -187500.02, -187500.02, -148362.72, -187500.02, -187500.02, 0.000, 0.000, 0.000, 15:06:49.969
195, 32625.34, 32006.09, -187500.02, -187500.02, -187500.02, -148667.64, -187500.02, -187500.02, 0.004, -0.278, 0.992, 15:06:49.969
196, 32638.33, 32141.56, -187500.02, -187500.02, -187500.02, -148718.16, -187500.02, -187500.02, 0.000, 0.000, 0.000, 15:06:49.969
197, 32565.66, 32254.42, -187500.02, -187500.02, -187500.02, -148619.77, -187500.02, -187500.02, 0.000, 0.000, 0.000, 15:06:49.969
198, 32449.50, 32285.66, -187500.02, -187500.02, -187500.02, -148323.06, -187500.02, -187500.02, 0.000, 0.000, 0.000, 15:06:49.969
199, 32479.19, 32098.11, -187500.02, -187500.02, -187500.02, -148346.27, -187500.02, -187500.02, 0.000, 0.000, 0.000, 15:06:49.969
200, 32615.29, 31997.44, -187500.02, -187500.02, -187500.02, -148634.72, -187500.02, -187500.02, 0.000, 0.000, 0.000, 15:06:49.970
201, 32634.55, 32141.34, -187500.02, -187500.02, -187500.02, -148708.67, -187500.02, -187500.02, 0.000, 0.000, 0.000, 15:06:49.970
202, 32553.28, 32249.28, -187500.02, -187500.02, -187500.02, -148581.97, -187500.02, -187500.02, 0.000, 0.000, 0.000, 15:06:49.970
203, 32449.43, 32293.55, -187500.02, -187500.02, -187500.02, -148254.25, -187500.02, -187500.02, 0.000, 0.000, 0.000, 15:06:49.970
204, 32487.81, 32111.48, -187500.02, -187500.02, -187500.02, -148291.70, -187500.02, -187500.02, 0.000, 0.000, 0.000, 15:06:49.970
205, 32634.98, 32015.70, -187500.02, -187500.02, -187500.02, -148637.47, -187500.02, -187500.02, -0.002, -0.280, 0.990, 15:06:49.970
206, 32646.31, 32149.65, -187500.02, -187500.02, -187500.02, -148721.03, -187500.02, -187500.02, 0.000, 0.000, 0.000, 15:06:49.970
207, 32573.33, 32265.35, -187500.02, -187500.02, -187500.02, -148619.77, -187500.02, -187500.02, 0.000, 0.000, 0.000, 15:06:49.970
208, 32470.85, 32310.76, -187500.02, -187500.02, -187500.02, -148299.61, -187500.02, -187500.02, 0.000, 0.000, 0.000, 15:06:49.970
209, 32486.34, 32111.50, -187500.02, -187500.02, -187500.02, -148354.09, -187500.02, -187500.02, 0.000, 0.000, 0.000, 15:06:49.971
210, 32630.71, 32007.54, -187500.02, -187500.02, -187500.02, -148687.06, -187500.02, -187500.02, 0.000, 0.000, 0.000, 15:06:49.971
211, 32659.90, 32151.66, -187500.02, -187500.02, -187500.02, -148791.88, -187500.02, -187500.02, 0.000, 0.000, 0.000, 15:06:49.971
212, 32586.03, 32263.67, -187500.02, -187500.02, -187500.02, -148654.66, -187500.02, -187500.02, 0.000, 0.000, 0.000, 15:06:49.971
213, 32473.11, 32315.35, -187500.02, -187500.02, -187500.02, -148331.52, -187500.02, -187500.02, 0.000, 0.000, 0.000, 15:06:49.971
214, 32486.87, 32116.24, -187500.02, -187500.02, -187500.02, -148344.98, -187500.02, -187500.02, 0.000, 0.000, 0.000, 15:06:49.971
215, 32628.81, 32007.81, -187500.02, -187500.02, -187500.02, -148653.11, -187500.02, -187500.02, 0.002, -0.278, 0.996, 15:06:49.971
216, 32650.02, 32151.60, -187500.02, -187500.02, -187500.02, -148703.80, -187500.02, -187500.02, 0.000, 0.000, 0.000, 15:06:49.973
217, 32583.34, 32275.16, -187500.02, -187500.02, -187500.02, -148567.19, -187500.02, -187500.02, 0.000, 0.000, 0.000, 15:06:49.973
218, 32467.38, 32311.59, -187500.02, -187500.02, -187500.02, -148288.08, -187500.02, -187500.02, 0.000, 0.000, 0.000, 15:06:49.973
219, 32472.37, 32106.02, -187500.02, -187500.02, -187500.02, -148338.95, -187500.02, -187500.02, 0.000, 0.000, 0.000, 15:06:49.973
220, 32618.66, 31998.13, -187500.02, -187500.02, -187500.02, -148655.17, -187500.02, -187500.02, 0.000, 0.000, 0.000, 15:06:49.973
221, 32649.57, 32144.18, -187500.02, -187500.02, -187500.02, -148755.64, -187500.02, -187500.02, 0.000, 0.000, 0.000, 15:06:49.973
222, 32569.26, 32255.76, -187500.02, -187500.02, -187500.02, -148622.53, -187500.02, -187500.02, 0.000, 0.000, 0.000, 15:06:49.973
223, 32461.26, 32307.17, -187500.02, -187500.02, -187500.02, -148348.13, -187500.02, -187500.02, 0.000, 0.000, 0.000, 15:06:49.974
224, 32495.03, 32126.52, -187500.02, -187500.02, -187500.02, -148432.52, -187500.02, -187500.02, 0.000, 0.000, 0.000, 15:06:49.974
225, 32647.43, 32017.11, -187500.02, -187500.02, -187500.02, -148784.00, -187500.02, -187500.02, 0.004, -0.276, 0.988, 15:06:49.974
226, 32670.13, 32158.55, -187500.02, -187500.02, -187500.02, -148882.89, -187500.02, -187500.02, 0.000, 0.000, 0.000, 15:06:49.974
227, 32587.41, 32272.77, -187500.02, -187500.02, -187500.02, -148695.28, -187500.02, -187500.02, 0.000, 0.000, 0.000, 15:06:49.974
228, 32467.61, 32316.55, -187500.02, -187500.02, -187500.02, -148330.78, -187500.02, -187500.02, 0.000, 0.000, 0.000, 15:06:49.974
229, 32479.74, 32116.06, -187500.02, -187500.02, -187500.02, -148367.50, -187500.02, -187500.02, 0.000, 0.000, 0.000, 15:06:49.974
230, 32621.65, 31997.50, -187500.02, -187500.02, -187500.02, -148659.84, -187500.02, -187500.02, 0.000, 0.000, 0.000, 15:06:49.974
231, 32646.51, 32141.34, -187500.02, -187500.02, -187500.02, -148739.80, -187500.02, -187500.02, 0.000, 0.000, 0.000, 15:06:49.974
232, 32577.35, 32269.39, -187500.02, -187500.02, -187500.02, -148585.70, -187500.02, -187500.02, 0.000, 0.000, 0.000, 15:06:49.975
233, 32474.65, 32328.82, -187500.02, -187500.02, -187500.02, -148276.94, -187500.02, -187500.02, 0.000, 0.000, 0.000, 15:06:49.975
234, 32495.93, 32141.40, -187500.02, -187500.02, -187500.02, -148338.83, -187500.02, -187500.02, 0.000, 0.000, 0.000, 15:06:49.975
235, 32628.38, 32014.13, -187500.02, -187500.02, -187500.02, -148648.08, -187500.02, -187500.02, 0.004, -0.282, 0.986, 15:06:49.975
236, 32649.46, 32149.74, -187500.02, -187500.02, -187500.02, -148743.72, -187500.02, -187500.02, 0.000, 0.000, 0.000, 15:06:49.975
237, 32581.44, 32275.96, -187500.02, -187500.02, -187500.02, -148623.94, -187500.02, -187500.02, 0.000, 0.000, 0.000, 15:06:49.975
238, 32479.95, 32338.01, -187500.02, -187500.02, -187500.02, -148372.55, -187500.02, -187500.02, 0.000, 0.000, 0.000, 15:06:49.975
239, 32496.11, 32145.88, -187500.02, -187500.02, -187500.02, -148449.89, -187500.02, -187500.02, 0.000, 0.000, 0.000, 15:06:49.975
240, 32628.43, 32014.92, -187500.02, -187500.02, -187500.02, -148755.02, -187500.02, -187500.02, 0.000, 0.000, 0.000, 15:06:49.976
241, 32657.22, 32158.26, -187500.02, -187500.02, -187500.02, -148796.50, -187500.02, -187500.02, 0.000, 0.000, 0.000, 15:06:50.436
242, 32588.69, 32284.37, -187500.02, -187500.02, -187500.02, -148640.80, -187500.02, -187500.02, 0.000, 0.000, 0.000, 15:06:50.436
243, 32473.46, 32335.71, -187500.02, -187500.02, -187500.02, -148336.88, -187500.02, -187500.02, 0.000, 0.000, 0.000, 15:06:50.437
244, 32479.63, 32129.65, -187500.02, -187500.02, -187500.02, -148351.47, -187500.02, -187500.02, 0.000, 0.000, 0.000, 15:06:50.437
245, 32633.97, 32005.86, -187500.02, -187500.02, -187500.02, -148677.97, -187500.02, -187500.02, -0.002, -0.278, 0.984, 15:06:50.437
246, 32660.30, 32147.24, -187500.02, -187500.02, -187500.02, -148760.94, -187500.02, -187500.02, 0.000, 0.000, 0.000, 15:06:50.437
247, 32578.09, 32270.40, -187500.02, -187500.02, -187500.02, -148602.64, -187500.02, -187500.02, 0.000, 0.000, 0.000, 15:06:50.437
248, 32466.04, 32329.74, -187500.02, -187500.02, -187500.02, -148291.69, -187500.02, -187500.02, 0.000, 0.000, 0.000, 15:06:50.437
249, 32488.97, 32142.86, -187500.02, -187500.02, -187500.02, -148342.11, -187500.02, -187500.02, 0.000, 0.000, 0.000, 15:06:50.438
250, 32643.00, 32024.10, -187500.02, -187500.02, -187500.02, -148705.14, -187500.02, -187500.02, 0.000, 0.000, 0.000, 15:06:50.438
251, 32667.68, 32159.42, -187500.02, -187500.02, -187500.02, -148794.64, -187500.02, -187500.02, 0.000, 0.000, 0.000, 15:06:50.438
252, 32591.17, 32283.83, -187500.02, -187500.02, -187500.02, -148659.19, -187500.02, -187500.02, 0.000, 0.000, 0.000, 15:06:50.438
253, 32472.90, 32341.01, -187500.02, -187500.02, -187500.02, -148381.16, -187500.02, -187500.02, 0.000, 0.000, 0.000, 15:06:50.438
254, 32489.76, 32145.56, -187500.02, -187500.02, -187500.02, -148422.53, -187500.02, -187500.02, 0.000, 0.000, 0.000, 15:06:50.438
255, 32637.77, 32017.33, -187500.02, -187500.02, -187500.02, -148746.63, -187500.02, -187500.02, 0.000, -0.276, 0.990, 15:06:50.439
0, 32666.56, 32161.72, -187500.02, -187500.02, -187500.02, -148831.14, -187500.02, -187500.02, 0.000, 0.000, 0.000, 15:06:50.439
1, 32594.10, 32290.58, -187500.02, -187500.02, -187500.02, -148690.81, -187500.02, -187500.02, 0.000, 0.000, 0.000, 15:06:50.439
2, 32478.45, 32345.10, -187500.02, -187500.02, -187500.02, -148359.66, -187500.02, -187500.02, 0.000, 0.000, 0.000, 15:06:50.439
3, 32490.47, 32144.87, -187500.02, -187500.02, -187500.02, -148350.84, -187500.02, -187500.02, 0.000, 0.000, 0.000, 15:06:50.439
4, 32639.45, 32011.34, -187500.02, -187500.02, -187500.02, -148701.39, -187500.02, -187500.02, 0.000, 0.000, 0.000, 15:06:50.439
5, 32669.46, 32157.97, -187500.02, -187500.02, -187500.02, -148796.08, -187500.02, -187500.02, 0.000, 0.000, 0.000, 15:06:50.439
6, 32595.57, 32294.31, -187500.02, -187500.02, -187500.02, -148645.84, -187500.02, -187500.02, 0.000, 0.000, 0.000, 15:06:50.439
7, 32481.40, 32356.21, -187500.02, -187500.02, -187500.02, -148307.47, -187500.02, -187500.02, 0.000, 0.000, 0.000, 15:06:50.440
8, 32494.47, 32164.47, -187500.02, -187500.02, -187500.02, -148352.39, -187500.02, -187500.02, 0.000, -0.278, 0.988, 15:06:50.440
9, 32657.71, 32042.07, -187500.02, -187500.02, -187500.02, -148720.17, -187500.02, -187500.02, 0.000, 0.000, 0.000, 15:06:50.440
10, 32692.40, 32180.23, -187500.02, -187500.02, -187500.02, -148817.44, -187500.02, -187500.02, 0.000, 0.000, 0.000, 15:06:50.440
11, 32612.27, 32306.90, -187500.02, -187500.02, -187500.02, -148708.45, -187500.02, -187500.02, 0.000, 0.000, 0.000, 15:06:50.440
12, 32485.87, 32360.74, -187500.02, -187500.02, -187500.02, -148390.44, -187500.02, -187500.02, 0.000, 0.000, 0.000, 15:06:50.440
13, 32490.23, 32156.87, -187500.02, -187500.02, -187500.02, -148371.23, -187500.02, -187500.02, 0.000, 0.000, 0.000, 15:06:50.441
14, 32646.35, 32020.79, -187500.02, -187500.02, -187500.02, -148692.94, -187500.02, -187500.02, 0.000, 0.000, 0.000, 15:06:50.441
15, 32681.78, 32169.61, -187500.02, -187500.02, -187500.02, -148811.03, -187500.02, -187500.02, 0.000, 0.000, 0.000, 15:06:50.441
16, 32612.49, 32307.86, -187500.02, -187500.02, -187500.02, -148670.66, -187500.02, -187500.02, 0.000, 0.000, 0.000, 15:06:50.441
17, 32507.10, 32389.51, -187500.02, -187500.02, -187500.02, -148343.45, -187500.02, -187500.02, 0.000, 0.000, 0.000, 15:06:50.441
18, 32514.63, 32193.11, -187500.02, -187500.02, -187500.02, -148362.16, -187500.02, -187500.02, 0.006, -0.276, 0.988, 15:06:50.441
19, 32672.79, 32048.62, -187500.02, -187500.02, -187500.02, -148677.58, -187500.02, -187500.02, 0.000, 0.000, 0.000, 15:06:50.442
20, 32693.81, 32176.54, -187500.02, -187500.02, -187500.02, -148766.48, -187500.02, -187500.02, 0.000, 0.000, 0.000, 15:06:50.442
21, 32609.27, 32300.26, -187500.02, -187500.02, -187500.02, -148619.84, -187500.02, -187500.02, 0.000, 0.000, 0.000, 15:06:50.442
22, 32475.61, 32353.95, -187500.02, -187500.02, -187500.02, -148305.34, -187500.02, -187500.02, 0.000, 0.000, 0.000, 15:06:50.442
23, 32496.60, 32169.37, -187500.02, -187500.02, -187500.02, -148323.83, -187500.02, -187500.02, 0.000, 0.000, 0.000, 15:06:50.442
24, 32665.60, 32033.38, -187500.02, -187500.02, -187500.02, -148679.16, -187500.02, -187500.02, 0.000, 0.000, 0.000, 15:06:50.443
25, 32707.33, 32175.74, -187500.02, -187500.02, -187500.02, -148811.70, -187500.02, -187500.02, 0.000, 0.000, 0.000, 15:06:50.443
26, 32634.19, 32314.27, -187500.02, -187500.02, -187500.02, -148667.13, -187500.02, -187500.02, 0.000, 0.000, 0.000, 15:06:50.443
27, 32514.21, 32386.29, -187500.02, -187500.02, -187500.02, -148366.05, -187500.02, -187500.02, 0.000, 0.000, 0.000, 15:06:50.443
28, 32504.96, 32177.12, -187500.02, -187500.02, -187500.02, -148395.94, -187500.02, -187500.02, 0.008, -0.282, 0.980, 15:06:50.443
29, 32664.88, 32031.66, -187500.02, -187500.02, -187500.02, -148733.95, -187500.02, -187500.02, 0.000, 0.000, 0.000, 15:06:50.443
30, 32708.83, 32182.91, -187500.02, -187500.02, -187500.02, -148802.95, -187500.02, -187500.02, 0.000, 0.000, 0.000, 15:06:50.444
31, 32632.65, 32315.82, -187500.02, -187500.02, -187500.02, -148683.00, -187500.02, -187500.02, 0.000, 0.000, 0.000, 15:06:50.444
32, 32502.79, 32374.42, -187500.02, -187500.02, -187500.02, -148365.05, -187500.02, -187500.02, 0.000, 0.000, 0.000, 15:06:50.444
33, 32502.18, 32175.38, -187500.02, -187500.02, -187500.02, -148377.00, -187500.02, -187500.02, 0.000, 0.000, 0.000, 15:06:50.444
34, 32656.19, 32025.49, -187500.02, -187500.02, -187500.02, -148682.88, -187500.02, -187500.02, 0.000, 0.000, 0.000, 15:06:50.444
35, 32710.12, 32182.04, -187500.02, -187500.02, -187500.02, -148767.86, -187500.02, -187500.02, 0.000, 0.000, 0.000, 15:06:50.445
36, 32637.88, 32317.09, -187500.02, -187500.02, -187500.02, -148610.13, -187500.02, -187500.02, 0.000, 0.000, 0.000, 15:06:50.445
37, 32509.18, 32382.96, -187500.02, -187500.02, -187500.02, -148291.61, -187500.02, -187500.02, 0.000, 0.000, 0.000, 15:06:50.445
38, 32510.63, 32187.99, -187500.02, -187500.02, -187500.02, -148319.47, -187500.02, -187500.02, 0.002, -0.284, 0.984, 15:06:50.445
39, 32675.75, 32043.28, -187500.02, -187500.02, -187500.02, -148665.14, -187500.02, -187500.02, 0.000, 0.000, 0.000, 15:06:50.445
40, 32719.29, 32187.20, -187500.02, -187500.02, -187500.02, -148774.91, -187500.02, -187500.02, 0.000, 0.000, 0.000, 15:06:50.446
41, 32640.03, 32322.86, -187500.02, -187500.02, -187500.02, -148657.56, -187500.02, -187500.02, 0.000, 0.000, 0.000, 15:06:50.446
42, 32515.84, 32393.46, -187500.02, -187500.02, -187500.02, -148346.38, -187500.02, -187500.02, 0.000, 0.000, 0.000, 15:06:50.446
43, 32519.06, 32195.36, -187500.02, -187500.02, -187500.02, -148403.38, -187500.02, -187500.02, 0.000, 0.000, 0.000, 15:06:50.446
44, 32673.91, 32042.30, -187500.02, -187500.02, -187500.02, -148736.89, -187500.02, -187500.02, 0.000, 0.000, 0.000, 15:06:50.446
45, 32719.44, 32188.37, -187500.02, -187500.02, -187500.02, -148833.91, -187500.02, -187500.02, 0.000, 0.000, 0.000, 15:06:50.446
46, 32639.54, 32322.19, -187500.02, -187500.02, -187500.02, -148682.81, -187500.02, -187500.02, 0.000, 0.000, 0.000, 15:06:50.447
47, 32524.00, 32408.22, -187500.02, -187500.02, -187500.02, -148369.41, -187500.02, -187500.02, 0.000, 0.000, 0.000, 15:06:50.447
48, 32518.46, 32205.80, -187500.02, -187500.02, -187500.02, -148370.70, -187500.02, -187500.02, 0.002, -0.280, 0.986, 15:06:50.447
49, 32660.05, 32024.93, -187500.02, -187500.02, -187500.02, -148642.11, -187500.02, -187500.02, 0.000, 0.000, 0.000, 15:06:50.447
50, 32705.21, 32171.60, -187500.02, -187500.02, -187500.02, -148745.31, -187500.02, -187500.02, 0.000, 0.000, 0.000, 15:06:50.448
51, 32617.74, 32290.38, -187500.02, -187500.02, -187500.02, -148624.66, -187500.02, -187500.02, 0.000, 0.000, 0.000, 15:06:50.448
52, 32503.97, 32361.35, -187500.02, -187500.02, -187500.02, -148332.92, -187500.02, -187500.02, 0.000, 0.000, 0.000, 15:06:50.448
53, 32494.25, 32157.50, -187500.02, -187500.02, -187500.02, -148337.06, -187500.02, -187500.02, 0.000, 0.000, 0.000, 15:06:50.448
54, 32659.96, 32001.39, -187500.02, -187500.02, -187500.02, -148644.58, -187500.02, -187500.02, 0.000, 0.000, 0.000, 15:06:50.448
55, 32695.08, 32131.88, -187500.02, -187500.02, -187500.02, -148741.63, -187500.02, -187500.02, 0.000, 0.000, 0.000, 15:06:50.449
56, 32623.31, 32275.47, -187500.02, -187500.02, -187500.02, -148659.80, -187500.02, -187500.02, 0.000, 0.000, 0.000, 15:06:50.449
57, 32493.74, 32336.11, -187500.02, -187500.02, -187500.02, -148359.47, -187500.02, -187500.02, 0.000, 0.000, 0.000, 15:06:50.449
58, 32483.39, 32137.98, -187500.02, -187500.02, -187500.02, -148365.78, -187500.02, -187500.02, 0.000, -0.286, 0.992, 15:06:50.449
59, 32653.17, 31986.80, -187500.02, -187500.02, -187500.02, -148701.72, -187500.02, -187500.02, 0.000, 0.000, 0.000, 15:06:50.449
60, 32700.33, 32130.88, -187500.02, -187500.02, -187500.02, -148825.39, -187500.02, -187500.02, 0.000, 0.000, 0.000, 15:06:50.449
61, 32621.39, 32263.38, -187500.02, -187500.02, -187500.02, -148707.16, -187500.02, -187500.02, 0.000, 0.000, 0.000, 15:06:50.450
62, 32495.17, 32333.63, -187500.02, -187500.02, -187500.02, -148372.34, -187500.02, -187500.02, 0.000, 0.000, 0.000, 15:06:50.450
63, 32483.90, 32137.07, -187500.02, -187500.02, -187500.02, -148347.89, -187500.02, -187500.02, 0.000, 0.000, 0.000, 15:06:50.450
64, 32633.61, 31969.95, -187500.02, -187500.02, -187500.02, -148644.38, -187500.02, -187500.02, 0.000, 0.000, 0.000, 15:06:50.450
65, 32682.36, 32110.72, -187500.02, -187500.02, -187500.02, -148739.70, -187500.02, -187500.02, 0.000, 0.000, 0.000, 15:06:50.450
66, 32615.73, 32262.57, -187500.02, -187500.02, -187500.02, -148616.98, -187500.02, -187500.02, 0.000, 0.000, 0.000, 15:06:50.450
67, 32496.08, 32336.78, -187500.02, -187500.02, -187500.02, -148300.05, -187500.02, -187500.02, 0.000, 0.000, 0.000, 15:06:50.450
68, 32480.75, 32138.79, -187500.02, -187500.02, -187500.02, -148303.97, -187500.02, -187500.02, 0.002, -0.284, 0.988, 15:06:50.450
69, 32651.14, 31989.21, -187500.02, -187500.02, -187500.02, -148623.53, -187500.02, -187500.02, 0.000, 0.000, 0.000, 15:06:50.451
70, 32715.15, 32147.69, -187500.02, -187500.02, -187500.02, -148753.33, -187500.02, -187500.02, 0.000, 0.000, 0.000, 15:06:50.451
71, 32651.43, 32290.94, -187500.02, -187500.02, -187500.02, -148636.23, -187500.02, -187500.02, 0.000, 0.000, 0.000, 15:06:50.451
72, 32517.67, 32355.91, -187500.02, -187500.02, -187500.02, -148362.02, -187500.02, -187500.02, 0.000, 0.000, 0.000, 15:06:50.451
73, 32481.20, 32138.75, -187500.02, -187500.02, -187500.02, -148366.34, -187500.02, -187500.02, 0.000, 0.000, 0.000, 15:06:50.451
74, 32647.70, 31979.67, -187500.02, -187500.02, -187500.02, -148710.64, -187500.02, -187500.02, 0.000, 0.000, 0.000, 15:06:50.451
75, 32704.71, 32128.08, -187500.02, -187500.02, -187500.02, -148818.84, -187500.02, -187500.02, 0.000, 0.000, 0.000, 15:06:50.451
76, 32619.75, 32259.27, -187500.02, -187500.02, -187500.02, -148661.38, -187500.02, -187500.02, 0.000, 0.000, 0.000, 15:06:50.451
77, 32499.37, 32335.35, -187500.02, -187500.02, -187500.02, -148336.77, -187500.02, -187500.02, 0.000, 0.000, 0.000, 15:06:50.452
78, 32482.72, 32140.87, -187500.02, -187500.02, -187500.02, -148327.05, -187500.02, -187500.02, 0.004, -0.280, 0.988, 15:06:50.452
79, 32648.92, 31979.60, -187500.02, -187500.02, -187500.02, -148658.70, -187500.02, -187500.02, 0.000, 0.000, 0.000, 15:06:50.452
80, 32706.72, 32127.68, -187500.02, -187500.02, -187500.02, -148766.95, -187500.02, -187500.02, 0.000, 0.000, 0.000, 15:06:50.452
81, 32637.26, 32272.99, -187500.02, -187500.02, -187500.02, -148632.53, -187500.02, -187500.02, 0.000, 0.000, 0.000, 15:06:50.452
82, 32512.40, 32346.91, -187500.02, -187500.02, -187500.02, -148334.67, -187500.02, -187500.02, 0.000, 0.000, 0.000, 15:06:50.452
83, 32484.46, 32143.84, -187500.02, -187500.02, -187500.02, -148322.42, -187500.02, -187500.02, 0.000, 0.000, 0.000, 15:06:50.452
84, 32657.82, 31986.60, -187500.02, -187500.02, -187500.02, -148657.52, -187500.02, -187500.02, 0.000, 0.000, 0.000, 15:06:50.452
85, 32717.79, 32130.92, -187500.02, -187500.02, -187500.02, -148792.03, -187500.02, -187500.02, 0.000, 0.000, 0.000, 15:06:50.453
86, 32648.63, 32282.85, -187500.02, -187500.02, -187500.02, -148657.98, -187500.02, -187500.02, 0.000, 0.000, 0.000, 15:06:50.453
87, 32524.54, 32360.61, -187500.02, -187500.02, -187500.02, -148356.22, -187500.02, -187500.02, 0.000, 0.000, 0.000, 15:06:50.453
88, 32499.23, 32155.78, -187500.02, -187500.02, -187500.02, -148359.45, -187500.02, -187500.02, 0.000, -0.278, 0.982, 15:06:50.453
89, 32660.19, 31990.33, -187500.02, -187500.02, -187500.02, -148726.17, -187500.02, -187500.02, 0.000, 0.000, 0.000, 15:06:50.453
90, 32722.15, 32132.20, -187500.02, -187500.02, -187500.02, -148876.97, -187500.02, -187500.02, 0.000, 0.000, 0.000, 15:06:50.453
91, 32636.18, 32266.37, -187500.02, -187500.02, -187500.02, -148751.50, -187500.02, -187500.02, 0.000, 0.000, 0.000, 15:06:50.453
92, 32494.74, 32332.71, -187500.02, -187500.02, -187500.02, -148417.34, -187500.02, -187500.02, 0.000, 0.000, 0.000, 15:06:50.453
93, 32470.78, 32133.87, -187500.02, -187500.02, -187500.02, -148392.41, -187500.02, -187500.02, 0.000, 0.000, 0.000, 15:06:50.454
94, 32638.35, 31971.29, -187500.02, -187500.02, -187500.02, -148708.56, -187500.02, -187500.02, 0.000, 0.000, 0.000, 15:06:50.454
95, 32700.47, 32117.53, -187500.02, -187500.02, -187500.02, -148799.48, -187500.02, -187500.02, 0.000, 0.000, 0.000, 15:06:50.454
96, 32634.64, 32265.88, -187500.02, -187500.02, -187500.02, -148664.33, -187500.02, -187500.02, 0.000, 0.000, 0.000, 15:06:50.454
97, 32496.51, 32327.86, -187500.02, -187500.02, -187500.02, -148334.36, -187500.02, -187500.02, 0.000, 0.000, 0.000, 15:06:50.454
98, 32475.94, 32140.36, -187500.02, -187500.02, -187500.02, -148363.47, -187500.02, -187500.02, 0.002, -0.280, 0.976, 15:06:50.454
99, 32644.07, 31981.08, -187500.02, -187500.02, -187500.02, -148711.09, -187500.02, -187500.02, 0.000, 0.000, 0.000, 15:06:50.454
100, 32703.24, 32123.43, -187500.02, -187500.02, -187500.02, -148827.14, -187500.02, -187500.02, 0.000, 0.000, 0.000, 15:06:50.454
101, 32641.73, 32274.64, -187500.02, -187500.02, -187500.02, -148697.75, -187500.02, -187500.02, 0.000, 0.000, 0.000, 15:06:50.454
102, 32511.73, 32344.94, -187500.02, -187500.02, -187500.02, -148389.05, -187500.02, -187500.02, 0.000, 0.000, 0.000, 15:06:50.455
103, 32470.98, 32146.37, -187500.02, -187500.02, -187500.02, -148394.50, -187500.02, -187500.02, 0.000, 0.000, 0.000, 15:06:50.455
104, 32644.10, 31977.50, -187500.02, -187500.02, -187500.02, -148756.08, -187500.02, -187500.02, 0.000, 0.000, 0.000, 15:06:50.455
105, 32717.50, 32118.49, -187500.02, -187500.02, -187500.02, -148854.28, -187500.02, -187500.02, 0.000, 0.000, 0.000, 15:06:50.917
106, 32643.45, 32262.06, -187500.02, -187500.02, -187500.02, -148708.81, -187500.02, -187500.02, 0.000, 0.000, 0.000, 15:06:50.917
107, 32495.93, 32324.55, -187500.02, -187500.02, -187500.02, -148372.78, -187500.02, -187500.02, 0.000, 0.000, 0.000, 15:06:50.917
108, 32482.58, 32141.07, -187500.02, -187500.02, -187500.02, -148340.56, -187500.02, -187500.02, 0.002, -0.280, 0.984, 15:06:50.917
109, 32654.98, 31988.72, -187500.02, -187500.02, -187500.02, -148685.16, -187500.02, -187500.02, 0.000, 0.000, 0.000, 15:06:50.917
110, 32695.26, 32103.16, -187500.02, -187500.02, -187500.02, -148796.05, -187500.02, -187500.02, 0.000, 0.000, 0.000, 15:06:50.918
111, 32615.62, 32242.48, -187500.02, -187500.02, -187500.02, -148680.88, -187500.02, -187500.02, 0.000, 0.000, 0.000, 15:06:50.918
112, 32485.94, 32313.71, -187500.02, -187500.02, -187500.02, -148359.34, -187500.02, -187500.02, 0.000, 0.000, 0.000, 15:06:50.918
113, 32454.71, 32125.02, -187500.02, -187500.02, -187500.02, -148327.88, -187500.02, -187500.02, 0.000, 0.000, 0.000, 15:06:50.918
114, 32614.30, 31952.78, -187500.02, -187500.02, -187500.02, -148639.39, -187500.02, -187500.02, 0.000, 0.000, 0.000, 15:06:50.918
115, 32676.08, 32080.74, -187500.02, -187500.02, -187500.02, -148801.06, -187500.02, -187500.02, 0.000, 0.000, 0.000, 15:06:50.918
116, 32596.75, 32218.50, -187500.02, -187500.02, -187500.02, -148699.52, -187500.02, -187500.02, 0.000, 0.000, 0.000, 15:06:50.919
117, 32465.77, 32293.98, -187500.02, -187500.02, -187500.02, -148385.69, -187500.02, -187500.02, 0.000, 0.000, 0.000, 15:06:50.919
118, 32428.56, 32101.62, -187500.02, -187500.02, -187500.02, -148374.83, -187500.02, -187500.02, 0.004, -0.282, 0.992, 15:06:50.919
119, 32607.01, 31940.53, -187500.02, -187500.02, -187500.02, -148786.48, -187500.02, -187500.02, 0.000, 0.000, 0.000, 15:06:50.919
120, 32665.80, 32074.37, -187500.02, -187500.02, -187500.02, -148905.80, -187500.02, -187500.02, 0.000, 0.000, 0.000, 15:06:50.919
121, 32587.59, 32208.01, -187500.02, -187500.02, -187500.02, -148797.84, -187500.02, -187500.02, 0.000, 0.000, 0.000, 15:06:50.919
122, 32462.73, 32284.26, -187500.02, -187500.02, -187500.02, -148467.20, -187500.02, -187500.02, 0.000, 0.000, 0.000, 15:06:50.920
123, 32425.76, 32106.22, -187500.02, -187500.02, -187500.02, -148396.00, -187500.02, -187500.02, 0.000, 0.000, 0.000, 15:06:50.920
124, 32598.90, 31945.00, -187500.02, -187500.02, -187500.02, -148719.66, -187500.02, -187500.02, 0.000, 0.000, 0.000, 15:06:50.920
125, 32668.44, 32086.73, -187500.02, -187500.02, -187500.02, -148835.17, -187500.02, -187500.02, 0.000, 0.000, 0.000, 15:06:50.920
126, 32609.96, 32233.72, -187500.02, -187500.02, -187500.02, -148667.28, -187500.02, -187500.02, 0.000, 0.000, 0.000, 15:06:50.920
127, 32480.68, 32303.63, -187500.02, -187500.02, -187500.02, -148337.77, -187500.02, -187500.02, 0.000, 0.000, 0.000, 15:06:50.921
128, 32441.30, 32114.36, -187500.02, -187500.02, -187500.02, -148313.81, -187500.02, -187500.02, 0.002, -0.280, 0.994, 15:06:50.921
129, 32631.22, 31968.71, -187500.02, -187500.02, -187500.02, -148677.67, -187500.02, -187500.02, 0.000, 0.000, 0.000, 15:06:50.921
130, 32701.56, 32115.25, -187500.02, -187500.02, -187500.02, -148837.25, -187500.02, -187500.02, 0.000, 0.000, 0.000, 15:06:50.921
131, 32630.60, 32254.59, -187500.02, -187500.02, -187500.02, -148724.91, -187500.02, -187500.02, 0.000, 0.000, 0.000, 15:06:50.921
132, 32498.25, 32320.76, -187500.02, -187500.02, -187500.02, -148439.41, -187500.02, -187500.02, 0.000, 0.000, 0.000, 15:06:50.921
133, 32460.52, 32138.70, -187500.02, -187500.02, -187500.02, -148390.45, -187500.02, -187500.02, 0.000, 0.000, 0.000, 15:06:50.922
134, 32633.50, 31977.90, -187500.02, -187500.02, -187500.02, -148740.94, -187500.02, -187500.02, 0.000, 0.000, 0.000, 15:06:50.922
135, 32701.90, 32115.23, -187500.02, -187500.02, -187500.02, -148879.41, -187500.02, -187500.02, 0.000, 0.000, 0.000, 15:06:50.922
136, 32625.70, 32252.58, -187500.02, -187500.02, -187500.02, -148748.00, -187500.02, -187500.02, 0.000, 0.000, 0.000, 15:06:50.922
137, 32499.59, 32318.74, -187500.02, -187500.02, -187500.02, -148417.39, -187500.02, -187500.02, 0.004, -0.282, 0.992, 15:06:50.922
138, 32461.30, 32136.53, -187500.02, -187500.02, -187500.02, -148355.66, -187500.02, -187500.02, 0.000, 0.000, 0.000, 15:06:50.922
139, 32636.09, 31977.79, -187500.02, -187500.02, -187500.02, -148677.11, -187500.02, -187500.02, 0.000, 0.000, 0.000, 15:06:50.923
140, 32701.85, 32106.80, -187500.02, -187500.02, -187500.02, -148796.97, -187500.02, -187500.02, 0.000, 0.000, 0.000, 15:06:50.923
141, 32632.90, 32253.88, -187500.02, -187500.02, -187500.02, -148659.02, -187500.02, -187500.02, 0.000, 0.000, 0.000, 15:06:50.923
142, 32504.33, 32331.64, -187500.02, -187500.02, -187500.02, -148340.86, -187500.02, -187500.02, 0.000, 0.000, 0.000, 15:06:50.923
143, 32467.72, 32157.25, -187500.02, -187500.02, -187500.02, -148324.25, -187500.02, -187500.02, 0.000, 0.000, 0.000, 15:06:50.923
144, 32652.72, 32002.47, -187500.02, -187500.02, -187500.02, -148685.03, -187500.02, -187500.02, 0.000, 0.000, 0.000, 15:06:50.924
145, 32735.43, 32135.84, -187500.02, -187500.02, -187500.02, -148855.92, -187500.02, -187500.02, 0.000, 0.000, 0.000, 15:06:50.924
146, 32664.79, 32280.08, -187500.02, -187500.02, -187500.02, -148734.09, -187500.02, -187500.02, 0.000, 0.000, 0.000, 15:06:50.924
147, 32523.69, 32348.45, -187500.02, -187500.02, -187500.02, -148403.48, -187500.02, -187500.02, 0.002, -0.282, 0.990, 15:06:50.924
148, 32490.67, 32182.46, -187500.02, -187500.02, -187500.02, -148395.63, -187500.02, -187500.02, 0.000, 0.000, 0.000, 15:06:50.924
149, 32667.81, 32019.45, -187500.02, -187500.02, -187500.02, -148741.33, -187500.02, -187500.02, 0.000, 0.000, 0.000, 15:06:50.924
150, 32740.12, 32145.79, -187500.02, -187500.02, -187500.02, -148892.67, -187500.02, -187500.02, 0.000, 0.000, 0.000, 15:06:50.925
151, 32664.99, 32280.12, -187500.02, -187500.02, -187500.02, -148785.25, -187500.02, -187500.02, 0.000, 0.000, 0.000, 15:06:50.925
152, 32524.34, 32345.32, -187500.02, -187500.02, -187500.02, -148444.59, -187500.02, -187500.02, 0.000, 0.000, 0.000, 15:06:50.925
153, 32487.34, 32176.10, -187500.02, -187500.02, -187500.02, -148398.39, -187500.02, -187500.02, 0.000, 0.000, 0.000, 15:06:50.925
154, 32659.85, 32009.55, -187500.02, -187500.02, -187500.02, -148740.44, -187500.02, -187500.02, 0.000, 0.000, 0.000, 15:06:50.925
155, 32730.66, 32142.79, -187500.02, -187500.02, -187500.02, -148856.78, -187500.02, -187500.02, 0.000, 0.000, 0.000, 15:06:50.925
156, 32657.04, 32279.11, -187500.02, -187500.02, -187500.02, -148742.78, -187500.02, -187500.02, 0.000, 0.000, 0.000, 15:06:50.926
157, 32528.45, 32348.76, -187500.02, -187500.02, -187500.02, -148416.72, -187500.02, -187500.02, -0.006, -0.280, 0.988, 15:06:50.926
158, 32479.92, 32174.42, -187500.02, -187500.02, -187500.02, -148346.91, -187500.02, -187500.02, 0.000, 0.000, 0.000, 15:06:50.926
159, 32663.56, 32015.99, -187500.02, -187500.02, -187500.02, -148662.83, -187500.02, -187500.02, 0.000, 0.000, 0.000, 15:06:50.926
160, 32742.69, 32153.30, -187500.02, -187500.02, -187500.02, -148826.38, -187500.02, -187500.02, 0.000, 0.000, 0.000, 15:06:50.926
161, 32661.60, 32291.65, -187500.02, -187500.02, -187500.02, -148741.56, -187500.02, -187500.02, 0.000, 0.000, 0.000, 15:06:50.927
162, 32522.30, 32345.14, -187500.02, -187500.02, -187500.02, -148450.42, -187500.02, -187500.02, 0.000, 0.000, 0.000, 15:06:50.927
163, 32482.63, 32173.05, -187500.02, -187500.02, -187500.02, -148400.13, -187500.02, -187500.02, 0.000, 0.000, 0.000, 15:06:50.927
164, 32665.58, 32033.27, -187500.02, -187500.02, -187500.02, -148734.77, -187500.02, -187500.02, 0.000, 0.000, 0.000, 15:06:50.927
165, 32739.13, 32162.35, -187500.02, -187500.02, -187500.02, -148867.69, -187500.02, -187500.02, 0.000, 0.000, 0.000, 15:06:50.927
166, 32686.88, 32296.53, -187500.02, -187500.02, -187500.02, -148758.70, -187500.02, -187500.02, 0.000, 0.000, 0.000, 15:06:50.927
167, 32544.68, 32359.56, -187500.02, -187500.02, -187500.02, -148438.95, -187500.02, -187500.02, 0.000, -0.288, 0.984, 15:06:50.928
168, 32485.76, 32194.47, -187500.02, -187500.02, -187500.02, -148395.73, -187500.02, -187500.02, 0.000, 0.000, 0.000, 15:06:50.928
169, 32655.21, 32021.89, -187500.02, -187500.02, -187500.02, -148700.20, -187500.02, -187500.02, 0.000, 0.000, 0.000, 15:06:50.928
170, 32729.41, 32136.62, -187500.02, -187500.02, -187500.02, -148811.47, -187500.02, -187500.02, 0.000, 0.000, 0.000, 15:06:50.928
171, 32645.82, 32264.99, -187500.02, -187500.02, -187500.02, -148690.75, -187500.02, -187500.02, 0.000, 0.000, 0.000, 15:06:50.928
172, 32508.94, 32337.54, -187500.02, -187500.02, -187500.02, -148370.27, -187500.02, -187500.02, 0.000, 0.000, 0.000, 15:06:50.928
173, 32474.24, 32186.40, -187500.02, -187500.02, -187500.02, -148340.14, -187500.02, -187500.02, 0.000, 0.000, 0.000, 15:06:50.929
174, 32662.65, 32035.70, -187500.02, -187500.02, -187500.02, -148713.02, -187500.02, -187500.02, 0.000, 0.000, 0.000, 15:06:50.929
175, 32743.11, 32159.60, -187500.02, -187500.02, -187500.02, -148876.31, -187500.02, -187500.02, 0.000, 0.000, 0.000, 15:06:50.929
176, 32659.23, 32283.72, -187500.02, -187500.02, -187500.02, -148758.86, -187500.02, -187500.02, 0.000, 0.000, 0.000, 15:06:50.929
177, 32523.04, 32346.97, -187500.02, -187500.02, -187500.02, -148444.50, -187500.02, -187500.02, 0.000, -0.280, 0.986, 15:06:50.929
178, 32467.88, 32171.89, -187500.02, -187500.02, -187500.02, -148384.91, -187500.02, -187500.02, 0.000, 0.000, 0.000, 15:06:50.930
179, 32660.88, 32017.44, -187500.02, -187500.02, -187500.02, -148735.47, -187500.02, -187500.02, 0.000, 0.000, 0.000, 15:06:50.930
180, 32745.68, 32147.96, -187500.02, -187500.02, -187500.02, -148851.73, -187500.02, -187500.02, 0.000, 0.000, 0.000, 15:06:50.930
181, 32674.74, 32287.43, -187500.02, -187500.02, -187500.02, -148750.34, -187500.02, -187500.02, 0.000, 0.000, 0.000, 15:06:50.930
182, 32521.41, 32342.77, -187500.02, -187500.02, -187500.02, -148456.28, -187500.02, -187500.02, 0.000, 0.000, 0.000, 15:06:50.930
183, 32475.36, 32182.13, -187500.02, -187500.02, -187500.02, -148382.66, -187500.02, -187500.02, 0.000, 0.000, 0.000, 15:06:50.931
184, 32655.58, 32017.40, -187500.02, -187500.02, -187500.02, -148680.16, -187500.02, -187500.02, 0.000, 0.000, 0.000, 15:06:50.931
185, 32725.14, 32131.28, -187500.02, -187500.02, -187500.02, -148834.27, -187500.02, -187500.02, 0.000, 0.000, 0.000, 15:06:50.931
186, 32640.16, 32252.13, -187500.02, -187500.02, -187500.02, -148726.88, -187500.02, -187500.02, 0.000, 0.000, 0.000, 15:06:50.931
187, 32495.55, 32310.00, -187500.02, -187500.02, -187500.02, -148379.09, -187500.02, -187500.02, 0.004, -0.284, 0.986, 15:06:50.931
188, 32452.36, 32155.31, -187500.02, -187500.02, -187500.02, -148320.52, -187500.02, -187500.02, 0.000, 0.000, 0.000, 15:06:50.931
189, 32632.50, 31989.01, -187500.02, -187500.02, -187500.02, -148664.17, -187500.02, -187500.02, 0.000, 0.000, 0.000, 15:06:50.932
190, 32709.43, 32105.55, -187500.02, -187500.02, -187500.02, -148826.17, -187500.02, -187500.02, 0.000, 0.000, 0.000, 15:06:50.932
191, 32634.80, 32236.31, -187500.02, -187500.02, -187500.02, -148765.77, -187500.02, -187500.02, 0.000, 0.000, 0.000, 15:06:50.932
192, 32494.54, 32292.99, -187500.02, -187500.02, -187500.02, -148471.56, -187500.02, -187500.02, 0.000, 0.000, 0.000, 15:06:50.932
193, 32443.76, 32131.95, -187500.02, -187500.02, -187500.02, -148404.20, -187500.02, -187500.02, 0.000, 0.000, 0.000, 15:06:50.932
194, 32616.16, 31963.91, -187500.02, -187500.02, -187500.02, -148746.73, -187500.02, -187500.02, 0.000, 0.000, 0.000, 15:06:50.933
195, 32683.19, 32071.69, -187500.02, -187500.02, -187500.02, -148917.17, -187500.02, -187500.02, 0.000, 0.000, 0.000, 15:06:50.933
196, 32600.76, 32197.15, -187500.02, -187500.02, -187500.02, -148801.48, -187500.02, -187500.02, 0.000, 0.000, 0.000, 15:06:50.933
197, 32472.75, 32278.82, -187500.02, -187500.02, -187500.02, -148460.66, -187500.02, -187500.02, 0.004, -0.282, 0.988, 15:06:50.933
198, 32424.96, 32126.70, -187500.02, -187500.02, -187500.02, -148385.61, -187500.02, -187500.02, 0.000, 0.000, 0.000, 15:06:50.933
199, 32606.12, 31954.61, -187500.02, -187500.02, -187500.02, -148701.33, -187500.02, -187500.02, 0.000, 0.000, 0.000, 15:06:50.934
200, 32700.73, 32086.73, -187500.02, -187500.02, -187500.02, -148876.83, -187500.02, -187500.02, 0.000, 0.000, 0.000, 15:06:50.934
201, 32627.96, 32231.62, -187500.02, -187500.02, -187500.02, -148774.25, -187500.02, -187500.02, 0.000, 0.000, 0.000, 15:06:50.934
202, 32481.33, 32295.43, -187500.02, -187500.02, -187500.02, -148416.16, -187500.02, -187500.02, 0.000, 0.000, 0.000, 15:06:50.934
203, 32452.23, 32157.30, -187500.02, -187500.02, -187500.02, -148346.89, -187500.02, -187500.02, 0.000, 0.000, 0.000, 15:06:50.934
204, 32640.61, 32003.70, -187500.02, -187500.02, -187500.02, -148701.55, -187500.02, -187500.02, 0.000, 0.000, 0.000, 15:06:50.935
205, 32725.03, 32130.52, -187500.02, -187500.02, -187500.02, -148851.03, -187500.02, -187500.02, 0.000, 0.000, 0.000, 15:06:50.935
206, 32645.91, 32258.62, -187500.02, -187500.02, -187500.02, -148723.52, -187500.02, -187500.02, 0.000, 0.000, 0.000, 15:06:50.935
207, 32529.30, 32342.17, -187500.02, -187500.02, -187500.02, -148439.53, -187500.02, -187500.02, 0.002, -0.284, 0.990, 15:06:50.935
208, 32489.56, 32199.18, -187500.02, -187500.02, -187500.02, -148399.42, -187500.02, -187500.02, 0.000, 0.000, 0.000, 15:06:50.935
209, 32669.38, 32033.65, -187500.02, -187500.02, -187500.02, -148704.78, -187500.02, -187500.02, 0.000, 0.000, 0.000, 15:06:50.935
210, 32738.42, 32137.83, -187500.02, -187500.02, -187500.02, -148842.63, -187500.02, -187500.02, 0.000, 0.000, 0.000, 15:06:50.935
211, 32661.20, 32268.23, -187500.02, -187500.02, -187500.02, -148744.48, -187500.02, -187500.02, 0.000, 0.000, 0.000, 15:06:50.935
212, 32534.46, 32339.13, -187500.02, -187500.02, -187500.02, -148426.94, -187500.02, -187500.02, 0.000, 0.000, 0.000, 15:06:50.935
213, 32481.29, 32187.65, -187500.02, -187500.02, -187500.02, -148334.53, -187500.02, -187500.02, 0.000, 0.000, 0.000, 15:06:50.936
214, 32658.45, 32025.64, -187500.02, -187500.02, -187500.02, -148631.77, -187500.02, -187500.02, 0.000, 0.000, 0.000, 15:06:50.936
215, 32750.94, 32150.70, -187500.02, -187500.02, -187500.02, -148805.89, -187500.02, -187500.02, 0.000, 0.000, 0.000, 15:06:50.936
216, 32683.30, 32288.68, -187500.02, -187500.02, -187500.02, -148706.63, -187500.02, -187500.02, 0.000, 0.000, 0.000, 15:06:50.936
217, 32543.27, 32355.69, -187500.02, -187500.02, -187500.02, -148366.84, -187500.02, -187500.02, 0.008, -0.280, 0.986, 15:06:50.936
218, 32490.16, 32207.19, -187500.02, -187500.02, -187500.02, -148306.34, -187500.02, -187500.02, 0.000, 0.000, 0.000, 15:06:50.936
219, 32675.14, 32045.87, -187500.02, -187500.02, -187500.02, -148649.25, -187500.02, -187500.02, 0.000, 0.000, 0.000, 15:06:50.936
220, 32765.44, 32163.67, -187500.02, -187500.02, -187500.02, -148815.73, -187500.02, -187500.02, 0.000, 0.000, 0.000, 15:06:50.937
221, 32694.32, 32298.38, -187500.02, -187500.02, -187500.02, -148750.08, -187500.02, -187500.02, 0.000, 0.000, 0.000, 15:06:50.937
222, 32557.46, 32370.55, -187500.02, -187500.02, -187500.02, -148438.33, -187500.02, -187500.02, 0.000, 0.000, 0.000, 15:06:50.937
223, 32515.71, 32230.77, -187500.02, -187500.02, -187500.02, -148377.38, -187500.02, -187500.02, 0.000, 0.000, 0.000, 15:06:50.937
224, 32686.99, 32061.07, -187500.02, -187500.02, -187500.02, -148730.00, -187500.02, -187500.02, 0.000, 0.000, 0.000, 15:06:50.937
225, 32770.43, 32175.54, -187500.02, -187500.02, -187500.02, -148876.67, -187500.02, -187500.02, 0.000, 0.000, 0.000, 15:06:51.397
226, 32699.62, 32306.07, -187500.02, -187500.02, -187500.02, -148771.19, -187500.02, -187500.02, 0.000, 0.000, 0.000, 15:06:51.397
227, 32564.72, 32372.43, -187500.02, -187500.02, -187500.02, -148417.95, -187500.02, -187500.02, 0.008, -0.276, 0.990, 15:06:51.397
228, 32502.83, 32226.43, -187500.02, -187500.02, -187500.02, -148321.30, -187500.02, -187500.02, 0.000, 0.000, 0.000, 15:06:51.397
229, 32682.79, 32054.32, -187500.02, -187500.02, -187500.02, -148637.44, -187500.02, -187500.02, 0.000, 0.000, 0.000, 15:06:51.397
230, 32773.00, 32168.94, -187500.02, -187500.02, -187500.02, -148771.95, -187500.02, -187500.02, 0.000, 0.000, 0.000, 15:06:51.397
231, 32696.09, 32303.72, -187500.02, -187500.02, -187500.02, -148681.78, -187500.02, -187500.02, 0.000, 0.000, 0.000, 15:06:51.397
232, 32555.63, 32367.18, -187500.02, -187500.02, -187500.02, -148416.20, -187500.02, -187500.02, 0.000, 0.000, 0.000, 15:06:51.397
233, 32498.83, 32207.97, -187500.02, -187500.02, -187500.02, -148347.20, -187500.02, -187500.02, 0.000, 0.000, 0.000, 15:06:51.398
234, 32669.64, 32025.78, -187500.02, -187500.02, -187500.02, -148645.41, -187500.02, -187500.02, 0.000, 0.000, 0.000, 15:06:51.398
235, 32757.75, 32147.13, -187500.02, -187500.02, -187500.02, -148805.91, -187500.02, -187500.02, 0.000, 0.000, 0.000, 15:06:51.398
236, 32683.64, 32280.63, -187500.02, -187500.02, -187500.02, -148730.52, -187500.02, -187500.02, 0.000, 0.000, 0.000, 15:06:51.398
237, 32547.85, 32346.50, -187500.02, -187500.02, -187500.02, -148434.44, -187500.02, -187500.02, 0.008, -0.274, 0.990, 15:06:51.398
238, 32480.01, 32189.06, -187500.02, -187500.02, -187500.02, -148323.73, -187500.02, -187500.02, 0.000, 0.000, 0.000, 15:06:51.398
239, 32653.48, 32000.39, -187500.02, -187500.02, -187500.02, -148677.86, -187500.02, -187500.02, 0.000, 0.000, 0.000, 15:06:51.398
240, 32738.67, 32109.11, -187500.02, -187500.02, -187500.02, -148867.17, -187500.02, -187500.02, 0.000, 0.000, 0.000, 15:06:51.398
241, 32662.69, 32246.03, -187500.02, -187500.02, -187500.02, -148796.50, -187500.02, -187500.02, 0.000, 0.000, 0.000, 15:06:51.398
242, 32508.51, 32307.95, -187500.02, -187500.02, -187500.02, -148475.17, -187500.02, -187500.02, 0.000, 0.000, 0.000, 15:06:51.399
243, 32439.89, 32148.07, -187500.02, -187500.02, -187500.02, -148400.36, -187500.02, -187500.02, 0.000, 0.000, 0.000, 15:06:51.399
244, 32619.82, 31966.95, -187500.02, -187500.02, -187500.02, -148713.17, -187500.02, -187500.02, 0.000, 0.000, 0.000, 15:06:51.399
245, 32711.67, 32082.87, -187500.02, -187500.02, -187500.02, -148820.59, -187500.02, -187500.02, 0.000, 0.000, 0.000, 15:06:51.399
246, 32649.15, 32229.76, -187500.02, -187500.02, -187500.02, -148709.97, -187500.02, -187500.02, 0.000, 0.000, 0.000, 15:06:51.399
247, 32512.60, 32301.87, -187500.02, -187500.02, -187500.02, -148396.44, -187500.02, -187500.02, 0.010, -0.276, 0.994, 15:06:51.399
248, 32446.26, 32151.71, -187500.02, -187500.02, -187500.02, -148287.14, -187500.02, -187500.02, 0.000, 0.000, 0.000, 15:06:51.400
249, 32632.43, 31977.70, -187500.02, -187500.02, -187500.02, -148661.11, -187500.02, -187500.02, 0.000, 0.000, 0.000, 15:06:51.400
250, 32733.21, 32098.06, -187500.02, -187500.02, -187500.02, -148872.66, -187500.02, -187500.02, 0.000, 0.000, 0.000, 15:06:51.400
251, 32664.70, 32250.57, -187500.02, -187500.02, -187500.02, -148781.86, -187500.02, -187500.02, 0.000, 0.000, 0.000, 15:06:51.400
252, 32526.55, 32328.27, -187500.02, -187500.02, -187500.02, -148469.61, -187500.02, -187500.02, 0.000, 0.000, 0.000, 15:06:51.400
253, 32457.77, 32173.12, -187500.02, -187500.02, -187500.02, -148376.81, -187500.02, -187500.02, 0.000, 0.000, 0.000, 15:06:51.400
254, 32632.16, 31984.03, -187500.02, -187500.02, -187500.02, -148718.88, -187500.02, -187500.02, 0.000, 0.000, 0.000, 15:06:51.400
255, 32726.48, 32096.48, -187500.02, -187500.02, -187500.02, -148860.17, -187500.02, -187500.02, 0.000, 0.000, 0.000, 15:06:51.400
0, 32661.02, 32246.77, -187500.02, -187500.02, -187500.02, -148759.08, -187500.02, -187500.02, 0.010, -0.282, 0.988, 15:06:51.401
1, 32522.44, 32323.10, -187500.02, -187500.02, -187500.02, -148452.61, -187500.02, -187500.02, 0.000, 0.000, 0.000, 15:06:51.401
2, 32457.03, 32175.94, -187500.02, -187500.02, -187500.02, -148354.02, -187500.02, -187500.02, 0.000, 0.000, 0.000, 15:06:51.401
3, 32632.85, 31986.17, -187500.02, -187500.02, -187500.02, -148642.02, -187500.02, -187500.02, 0.000, 0.000, 0.000, 15:06:51.401
4, 32726.17, 32094.31, -187500.02, -187500.02, -187500.02, -148759.80, -187500.02, -187500.02, 0.000, 0.000, 0.000, 15:06:51.401
5, 32658.24, 32252.65, -187500.02, -187500.02, -187500.02, -148654.77, -187500.02, -187500.02, 0.000, 0.000, 0.000, 15:06:51.401
6, 32531.31, 32342.93, -187500.02, -187500.02, -187500.02, -148331.45, -187500.02, -187500.02, 0.000, 0.000, 0.000, 15:06:51.401
7, 32473.91, 32202.80, -187500.02, -187500.02, -187500.02, -148248.00, -187500.02, -187500.02, 0.000, 0.000, 0.000, 15:06:51.401
8, 32661.62, 32017.26, -187500.02, -187500.02, -187500.02, -148635.39, -187500.02, -187500.02, 0.000, 0.000, 0.000, 15:06:51.402
9, 32757.98, 32127.95, -187500.02, -187500.02, -187500.02, -148823.98, -187500.02, -187500.02, 0.000, 0.000, 0.000, 15:06:51.402
10, 32687.97, 32276.39, -187500.02, -187500.02, -187500.02, -148725.86, -187500.02, -187500.02, 0.010, -0.282, 0.990, 15:06:51.402
11, 32558.09, 32362.60, -187500.02, -187500.02, -187500.02, -148405.70, -187500.02, -187500.02, 0.000, 0.000, 0.000, 15:06:51.402
12, 32487.95, 32211.12, -187500.02, -187500.02, -187500.02, -148319.16, -187500.02, -187500.02, 0.000, 0.000, 0.000, 15:06:51.402
13, 32665.15, 32021.98, -187500.02, -187500.02, -187500.02, -148653.33, -187500.02, -187500.02, 0.000, 0.000, 0.000, 15:06:51.402
14, 32762.65, 32133.85, -187500.02, -187500.02, -187500.02, -148823.59, -187500.02, -187500.02, 0.000, 0.000, 0.000, 15:06:51.402
15, 32693.98, 32282.06, -187500.02, -187500.02, -187500.02, -148737.33, -187500.02, -187500.02, 0.000, 0.000, 0.000, 15:06:51.402
16, 32550.71, 32357.72, -187500.02, -187500.02, -187500.02, -148430.89, -187500.02, -187500.02, 0.000, 0.000, 0.000, 15:06:51.402
17, 32479.97, 32203.81, -187500.02, -187500.02, -187500.02, -148341.70, -187500.02, -187500.02, 0.000, 0.000, 0.000, 15:06:51.403
18, 32651.49, 32002.78, -187500.02, -187500.02, -187500.02, -148673.50, -187500.02, -187500.02, 0.000, 0.000, 0.000, 15:06:51.403
19, 32762.02, 32124.24, -187500.02, -187500.02, -187500.02, -148849.56, -187500.02, -187500.02, 0.000, 0.000, 0.000, 15:06:51.403
20, 32688.96, 32275.65, -187500.02, -187500.02, -187500.02, -148753.41, -187500.02, -187500.02, 0.006, -0.280, 0.988, 15:06:51.403
21, 32547.00, 32354.08, -187500.02, -187500.02, -187500.02, -148408.42, -187500.02, -187500.02, 0.000, 0.000, 0.000, 15:06:51.403
22, 32485.44, 32216.31, -187500.02, -187500.02, -187500.02, -148299.44, -187500.02, -187500.02, 0.000, 0.000, 0.000, 15:06:51.403
23, 32664.82, 32020.06, -187500.02, -187500.02, -187500.02, -148637.63, -187500.02, -187500.02, 0.000, 0.000, 0.000, 15:06:51.403
24, 32767.39, 32132.82, -187500.02, -187500.02, -187500.02, -148807.83, -187500.02, -187500.02, 0.000, 0.000, 0.000, 15:06:51.403
25, 32703.02, 32286.04, -187500.02, -187500.02, -187500.02, -148749.47, -187500.02, -187500.02, 0.000, 0.000, 0.000, 15:06:51.404
26, 32562.76, 32359.83, -187500.02, -187500.02, -187500.02, -148460.89, -187500.02, -187500.02, 0.000, 0.000, 0.000, 15:06:51.404
27, 32492.48, 32220.73, -187500.02, -187500.02, -187500.02, -148365.95, -187500.02, -187500.02, 0.000, 0.000, 0.000, 15:06:51.404
28, 32676.26, 32028.60, -187500.02, -187500.02, -187500.02, -148691.67, -187500.02, -187500.02, 0.000, 0.000, 0.000, 15:06:51.404
29, 32788.22, 32143.89, -187500.02, -187500.02, -187500.02, -148845.45, -187500.02, -187500.02, 0.000, 0.000, 0.000, 15:06:51.404
30, 32718.77, 32295.61, -187500.02, -187500.02, -187500.02, -148744.64, -187500.02, -187500.02, 0.002, -0.278, 0.984, 15:06:51.404
31, 32571.36, 32376.57, -187500.02, -187500.02, -187500.02, -148469.94, -187500.02, -187500.02, 0.000, 0.000, 0.000, 15:06:51.404
32, 32486.16, 32220.98, -187500.02, -187500.02, -187500.02, -148336.36, -187500.02, -187500.02, 0.000, 0.000, 0.000, 15:06:51.404
33, 32664.48, 32021.73, -187500.02, -187500.02, -187500.02, -148677.86, -187500.02, -187500.02, 0.000, 0.000, 0.000, 15:06:51.404
34, 32765.33, 32132.64, -187500.02, -187500.02, -187500.02, -148852.42, -187500.02, -187500.02, 0.000, 0.000, 0.000, 15:06:51.405
35, 32699.64, 32286.74, -187500.02, -187500.02, -187500.02, -148736.30, -187500.02, -187500.02, 0.000, 0.000, 0.000, 15:06:51.405
36, 32564.23, 32374.78, -187500.02, -187500.02, -187500.02, -148403.48, -187500.02, -187500.02, 0.000, 0.000, 0.000, 15:06:51.405
37, 32490.27, 32230.72, -187500.02, -187500.02, -187500.02, -148290.66, -187500.02, -187500.02, 0.000, 0.000, 0.000, 15:06:51.405
38, 32665.31, 32030.23, -187500.02, -187500.02, -187500.02, -148641.83, -187500.02, -187500.02, 0.000, 0.000, 0.000, 15:06:51.405
39, 32775.57, 32142.79, -187500.02, -187500.02, -187500.02, -148854.28, -187500.02, -187500.02, 0.000, 0.000, 0.000, 15:06:51.406
40, 32714.04, 32301.71, -187500.02, -187500.02, -187500.02, -148801.91, -187500.02, -187500.02, 0.008, -0.284, 0.978, 15:06:51.406
41, 32564.68, 32371.00, -187500.02, -187500.02, -187500.02, -148465.89, -187500.02, -187500.02, 0.000, 0.000, 0.000, 15:06:51.406
42, 32492.24, 32225.67, -187500.02, -187500.02, -187500.02, -148350.58, -187500.02, -187500.02, 0.000, 0.000, 0.000, 15:06:51.406
43, 32675.66, 32031.46, -187500.02, -187500.02, -187500.02, -148734.78, -187500.02, -187500.02, 0.000, 0.000, 0.000, 15:06:51.406
44, 32786.25, 32143.62, -187500.02, -187500.02, -187500.02, -148908.20, -187500.02, -187500.02, 0.000, 0.000, 0.000, 15:06:51.406
45, 32710.62, 32295.56, -187500.02, -187500.02, -187500.02, -148772.36, -187500.02, -187500.02, 0.000, 0.000, 0.000, 15:06:51.407
46, 32565.33, 32368.07, -187500.02, -187500.02, -187500.02, -148437.84, -187500.02, -187500.02, 0.000, 0.000, 0.000, 15:06:51.407
47, 32488.37, 32227.28, -187500.02, -187500.02, -187500.02, -148304.09, -187500.02, -187500.02, 0.000, 0.000, 0.000, 15:06:51.407
48, 32666.69, 32020.84, -187500.02, -187500.02, -187500.02, -148634.94, -187500.02, -187500.02, 0.000, 0.000, 0.000, 15:06:51.407
49, 32770.29, 32124.91, -187500.02, -187500.02, -187500.02, -148802.22, -187500.02, -187500.02, 0.000, 0.000, 0.000, 15:06:51.407
50, 32708.60, 32283.16, -187500.02, -187500.02, -187500.02, -148715.14, -187500.02, -187500.02, 0.008, -0.278, 0.984, 15:06:51.407
51, 32560.72, 32357.37, -187500.02, -187500.02, -187500.02, -148411.31, -187500.02, -187500.02, 0.000, 0.000, 0.000, 15:06:51.408
52, 32485.78, 32218.50, -187500.02, -187500.02, -187500.02, -148305.58, -187500.02, -187500.02, 0.000, 0.000, 0.000, 15:06:51.408
53, 32658.65, 32017.53, -187500.02, -187500.02, -187500.02, -148642.72, -187500.02, -187500.02, 0.000, 0.000, 0.000, 15:06:51.408
54, 32756.17, 32112.46, -187500.02, -187500.02, -187500.02, -148823.67, -187500.02, -187500.02, 0.000, 0.000, 0.000, 15:06:51.408
55, 32687.19, 32264.50, -187500.02, -187500.02, -187500.02, -148755.33, -187500.02, -187500.02, 0.000, 0.000, 0.000, 15:06:51.408
56, 32549.44, 32347.22, -187500.02, -187500.02, -187500.02, -148460.11, -187500.02, -187500.02, 0.000, 0.000, 0.000, 15:06:51.409
57, 32464.52, 32207.88, -187500.02, -187500.02, -187500.02, -148341.13, -187500.02, -187500.02, 0.000, 0.000, 0.000, 15:06:51.409
58, 32641.62, 32000.72, -187500.02, -187500.02, -187500.02, -148667.22, -187500.02, -187500.02, 0.000, 0.000, 0.000, 15:06:51.409
59, 32751.67, 32103.88, -187500.02, -187500.02, -187500.02, -148824.77, -187500.02, -187500.02, 0.000, 0.000, 0.000, 15:06:51.409
60, 32681.49, 32254.08, -187500.02, -187500.02, -187500.02, -148730.48, -187500.02, -187500.02, 0.010, -0.278, 0.982, 15:06:51.409
61, 32549.28, 32343.42, -187500.02, -187500.02, -187500.02, -148423.48, -187500.02, -187500.02, 0.000, 0.000, 0.000, 15:06:51.409
62, 32473.26, 32212.24, -187500.02, -187500.02, -187500.02, -148292.33, -187500.02, -187500.02, 0.000, 0.000, 0.000, 15:06:51.410
63, 32644.23, 32001.68, -187500.02, -187500.02, -187500.02, -148583.64, -187500.02, -187500.02, 0.000, 0.000, 0.000, 15:06:51.410
64, 32771.30, 32117.53, -187500.02, -187500.02, -187500.02, -148784.97, -187500.02, -187500.02, 0.000, 0.000, 0.000, 15:06:51.410
65, 32718.79, 32287.09, -187500.02, -187500.02, -187500.02, -148703.88, -187500.02, -187500.02, 0.000, 0.000, 0.000, 15:06:51.410
66, 32572.55, 32373.73, -187500.02, -187500.02, -187500.02, -148393.77, -187500.02, -187500.02, 0.000, 0.000, 0.000, 15:06:51.410
67, 32492.80, 32241.68, -187500.02, -187500.02, -187500.02, -148292.13, -187500.02, -187500.02, 0.000, 0.000, 0.000, 15:06:51.410
68, 32667.54, 32031.12, -187500.02, -187500.02, -187500.02, -148609.28, -187500.02, -187500.02, 0.000, 0.000, 0.000, 15:06:51.410
69, 32784.82, 32137.96, -187500.02, -187500.02, -187500.02, -148807.50, -187500.02, -187500.02, 0.000, 0.000, 0.000, 15:06:51.410
70, 32723.91, 32298.56, -187500.02, -187500.02, -187500.02, -148734.09, -187500.02, -187500.02, 0.006, -0.278, 0.990, 15:06:51.411
71, 32586.74, 32386.16, -187500.02, -187500.02, -187500.02, -148404.31, -187500.02, -187500.02, 0.000, 0.000, 0.000, 15:06:51.411
72, 32510.63, 32255.64, -187500.02, -187500.02, -187500.02, -148304.92, -187500.02, -187500.02, 0.000, 0.000, 0.000, 15:06:51.411
73, 32675.84, 32042.65, -187500.02, -187500.02, -187500.02, -148649.09, -187500.02, -187500.02, 0.000, 0.000, 0.000, 15:06:51.411
74, 32784.82, 32141.70, -187500.02, -187500.02, -187500.02, -148858.80, -187500.02, -187500.02, 0.000, 0.000, 0.000, 15:06:51.411
75, 32715.69, 32296.50, -187500.02, -187500.02, -187500.02, -148765.36, -187500.02, -187500.02, 0.000, 0.000, 0.000, 15:06:51.411
76, 32579.32, 32376.59, -187500.02, -187500.02, -187500.02, -148410.34, -187500.02, -187500.02, 0.000, 0.000, 0.000, 15:06:51.411
77, 32498.21, 32244.22, -187500.02, -187500.02, -187500.02, -148257.02, -187500.02, -187500.02, 0.000, 0.000, 0.000, 15:06:51.411
78, 32665.51, 32025.38, -187500.02, -187500.02, -187500.02, -148593.98, -187500.02, -187500.02, 0.000, 0.000, 0.000, 15:06:51.412
79, 32781.61, 32134.14, -187500.02, -187500.02, -187500.02, -148813.86, -187500.02, -187500.02, 0.000, 0.000, 0.000, 15:06:51.412
80, 32724.65, 32298.85, -187500.02, -187500.02, -187500.02, -148728.14, -187500.02, -187500.02, 0.000, -0.278, 0.984, 15:06:51.412
81, 32579.21, 32378.42, -187500.02, -187500.02, -187500.02, -148391.06, -187500.02, -187500.02, 0.000, 0.000, 0.000, 15:06:51.412
82, 32502.30, 32256.61, -187500.02, -187500.02, -187500.02, -148263.78, -187500.02, -187500.02, 0.000, 0.000, 0.000, 15:06:51.412
83, 32683.26, 32048.13, -187500.02, -187500.02, -187500.02, -148620.23, -187500.02, -187500.02, 0.000, 0.000, 0.000, 15:06:51.412
84, 32803.62, 32156.13, -187500.02, -187500.02, -187500.02, -148833.28, -187500.02, -187500.02, 0.000, 0.000, 0.000, 15:06:51.412
85, 32746.94, 32321.67, -187500.02, -187500.02, -187500.02, -148757.27, -187500.02, -187500.02, 0.000, 0.000, 0.000, 15:06:51.412
86, 32610.21, 32400.44, -187500.02, -187500.02, -187500.02, -148483.81, -187500.02, -187500.02, 0.000, 0.000, 0.000, 15:06:51.412
87, 32517.70, 32259.56, -187500.02, -187500.02, -187500.02, -148360.95, -187500.02, -187500.02, 0.000, 0.000, 0.000, 15:06:51.413
88, 32696.42, 32055.35, -187500.02, -187500.02, -187500.02, -148719.81, -187500.02, -187500.02, 0.000, 0.000, 0.000, 15:06:51.413
89, 32803.06, 32156.80, -187500.02, -187500.02, -187500.02, -148912.34, -187500.02, -187500.02, 0.000, 0.000, 0.000, 15:06:51.413
90, 32732.18, 32309.00, -187500.02, -187500.02, -187500.02, -148800.52, -187500.02, -187500.02, 0.000, -0.282, 0.988, 15:06:51.878
91, 32592.62, 32388.64, -187500.02, -187500.02, -187500.02, -148469.13, -187500.02, -187500.02, 0.000, 0.000, 0.000, 15:06:51.878
92, 32521.03, 32266.60, -187500.02, -187500.02, -187500.02, -148329.56, -187500.02, -187500.02, 0.000, 0.000, 0.000, 15:06:51.878
93, 32695.21, 32049.52, -187500.02, -187500.02, -187500.02, -148665.69, -187500.02, -187500.02, 0.000, 0.000, 0.000, 15:06:51.878
94, 32802.55, 32147.31, -187500.02, -187500.02, -187500.02, -148841.25, -187500.02, -187500.02, 0.000, 0.000, 0.000, 15:06:51.878
95, 32745.73, 32310.32, -187500.02, -187500.02, -187500.02, -148734.06, -187500.02, -187500.02, 0.000, 0.000, 0.000, 15:06:51.878
96, 32609.61, 32392.77, -187500.02, -187500.02, -187500.02, -148416.50, -187500.02, -187500.02, 0.000, 0.000, 0.000, 15:06:51.879
97, 32534.59, 32273.75, -187500.02, -187500.02, -187500.02, -148313.72, -187500.02, -187500.02, 0.000, 0.000, 0.000, 15:06:51.879
98, 32710.93, 32062.37, -187500.02, -187500.02, -187500.02, -148657.06, -187500.02, -187500.02, 0.000, 0.000, 0.000, 15:06:51.879
99, 32825.73, 32163.09, -187500.02, -187500.02, -187500.02, -148871.98, -187500.02, -187500.02, 0.000, 0.000, 0.000, 15:06:51.879
100, 32759.05, 32314.54, -187500.02, -187500.02, -187500.02, -148777.09, -187500.02, -187500.02, 0.002, -0.282, 0.988, 15:06:51.879
101, 32622.15, 32397.09, -187500.02, -187500.02, -187500.02, -148482.83, -187500.02, -187500.02, 0.000, 0.000, 0.000, 15:06:51.879
102, 32539.47, 32276.39, -187500.02, -187500.02, -187500.02, -148334.03, -187500.02, -187500.02, 0.000, 0.000, 0.000, 15:06:51.879
103, 32701.90, 32054.50, -187500.02, -187500.02, -187500.02, -148647.05, -187500.02, -187500.02, 0.000, 0.000, 0.000, 15:06:51.879
104, 32807.20, 32140.94, -187500.02, -187500.02, -187500.02, -148845.22, -187500.02, -187500.02, 0.000, 0.000, 0.000, 15:06:51.880
105, 32731.71, 32287.70, -187500.02, -187500.02, -187500.02, -148761.94, -187500.02, -187500.02, 0.000, 0.000, 0.000, 15:06:51.880
106, 32594.30, 32367.89, -187500.02, -187500.02, -187500.02, -148491.44, -187500.02, -187500.02, 0.000, 0.000, 0.000, 15:06:51.880
107, 32501.76, 32236.91, -187500.02, -187500.02, -187500.02, -148350.75, -187500.02, -187500.02, 0.000, 0.000, 0.000, 15:06:51.880
108, 32667.70, 32006.80, -187500.02, -187500.02, -187500.02, -148629.73, -187500.02, -187500.02, 0.000, 0.000, 0.000, 15:06:51.880
109, 32777.20, 32096.23, -187500.02, -187500.02, -187500.02, -148800.67, -187500.02, -187500.02, 0.000, 0.000, 0.000, 15:06:51.880
110, 32709.05, 32256.99, -187500.02, -187500.02, -187500.02, -148714.48, -187500.02, -187500.02, 0.004, -0.280, 0.986, 15:06:51.880
111, 32561.15, 32342.48, -187500.02, -187500.02, -187500.02, -148430.63, -187500.02, -187500.02, 0.000, 0.000, 0.000, 15:06:51.880
112, 32464.88, 32217.36, -187500.02, -187500.02, -187500.02, -148292.00, -187500.02, -187500.02, 0.000, 0.000, 0.000, 15:06:51.881
113, 32645.66, 32006.91, -187500.02, -187500.02, -187500.02, -148647.44, -187500.02, -187500.02, 0.000, 0.000, 0.000, 15:06:51.881
114, 32778.79, 32109.69, -187500.02, -187500.02, -187500.02, -148886.00, -187500.02, -187500.02, 0.000, 0.000, 0.000, 15:06:51.881
115, 32705.92, 32264.14, -187500.02, -187500.02, -187500.02, -148792.88, -187500.02, -187500.02, 0.000, 0.000, 0.000, 15:06:51.881
116, 32547.04, 32334.41, -187500.02, -187500.02, -187500.02, -148491.28, -187500.02, -187500.02, 0.000, 0.000, 0.000, 15:06:51.881
117, 32450.11, 32204.57, -187500.02, -187500.02, -187500.02, -148362.58, -187500.02, -187500.02, 0.000, 0.000, 0.000, 15:06:51.881
118, 32621.92, 31983.96, -187500.02, -187500.02, -187500.02, -148717.45, -187500.02, -187500.02, 0.000, 0.000, 0.000, 15:06:51.881
119, 32727.63, 32072.14, -187500.02, -187500.02, -187500.02, -148926.72, -187500.02, -187500.02, 0.000, 0.000, 0.000, 15:06:51.881
120, 32671.74, 32239.51, -187500.02, -187500.02, -187500.02, -148810.53, -187500.02, -187500.02, 0.002, -0.282, 0.984, 15:06:51.882
121, 32540.56, 32334.61, -187500.02, -187500.02, -187500.02, -148492.78, -187500.02, -187500.02, 0.000, 0.000, 0.000, 15:06:51.882
122, 32466.00, 32232.76, -187500.02, -187500.02, -187500.02, -148348.83, -187500.02, -187500.02, 0.000, 0.000, 0.000, 15:06:51.882
123, 32634.46, 32008.68, -187500.02, -187500.02, -187500.02, -148613.72, -187500.02, -187500.02, 0.000, 0.000, 0.000, 15:06:51.882
124, 32750.80, 32106.74, -187500.02, -187500.02, -187500.02, -148817.64, -187500.02, -187500.02, 0.000, 0.000, 0.000, 15:06:51.882
125, 32694.77, 32280.37, -187500.02, -187500.02, -187500.02, -148766.23, -187500.02, -187500.02, 0.000, 0.000, 0.000, 15:06:51.882
126, 32561.73, 32362.44, -187500.02, -187500.02, -187500.02, -148443.09, -187500.02, -187500.02, 0.000, 0.000, 0.000, 15:06:51.882
127, 32472.81, 32245.83, -187500.02, -187500.02, -187500.02, -148278.83, -187500.02, -187500.02, 0.000, 0.000, 0.000, 15:06:51.882
128, 32645.01, 32030.41, -187500.02, -187500.02, -187500.02, -148589.03, -187500.02, -187500.02, 0.000, 0.000, 0.000, 15:06:51.883
129, 32779.93, 32138.30, -187500.02, -187500.02, -187500.02, -148824.70, -187500.02, -187500.02, 0.008, -0.282, 0.990, 15:06:51.883
130, 32729.05, 32314.83, -187500.02, -187500.02, -187500.02, -148791.73, -187500.02, -187500.02, 0.000, 0.000, 0.000, 15:06:51.883
131, 32589.69, 32399.50, -187500.02, -187500.02, -187500.02, -148529.17, -187500.02, -187500.02, 0.000, 0.000, 0.000, 15:06:51.883
132, 32501.20, 32281.04, -187500.02, -187500.02, -187500.02, -148377.95, -187500.02, -187500.02, 0.000, 0.000, 0.000, 15:06:51.883
133, 32675.97, 32062.50, -187500.02, -187500.02, -187500.02, -148697.14, -187500.02, -187500.02, 0.000, 0.000, 0.000, 15:06:51.883
134, 32793.43, 32152.27, -187500.02, -187500.02, -187500.02, -148876.52, -187500.02, -187500.02, 0.000, 0.000, 0.000, 15:06:51.883
135, 32726.66, 32314.83, -187500.02, -187500.02, -187500.02, -148786.64, -187500.02, -187500.02, 0.000, 0.000, 0.000, 15:06:51.885
136, 32577.20, 32392.77, -187500.02, -187500.02, -187500.02, -148484.11, -187500.02, -187500.02, 0.000, 0.000, 0.000, 15:06:51.885
137, 32492.71, 32280.48, -187500.02, -187500.02, -187500.02, -148306.86, -187500.02, -187500.02, 0.000, 0.000, 0.000, 15:06:51.885
138, 32667.36, 32058.55, -187500.02, -187500.02, -187500.02, -148638.33, -187500.02, -187500.02, 0.000, 0.000, 0.000, 15:06:51.885
139, 32797.14, 32161.39, -187500.02, -187500.02, -187500.02, -148844.06, -187500.02, -187500.02, 0.004, -0.278, 0.986, 15:06:51.885
140, 32742.24, 32333.88, -187500.02, -187500.02, -187500.02, -148773.14, -187500.02, -187500.02, 0.000, 0.000, 0.000, 15:06:51.885
141, 32605.96, 32414.70, -187500.02, -187500.02, -187500.02, -148457.13, -187500.02, -187500.02, 0.000, 0.000, 0.000, 15:06:51.885
142, 32524.27, 32306.49, -187500.02, -187500.02, -187500.02, -148264.06, -187500.02, -187500.02, 0.000, 0.000, 0.000, 15:06:51.886
143, 32701.45, 32094.78, -187500.02, -187500.02, -187500.02, -148592.84, -187500.02, -187500.02, 0.000, 0.000, 0.000, 15:06:51.886
144, 32826.46, 32191.27, -187500.02, -187500.02, -187500.02, -148840.42, -187500.02, -187500.02, 0.000, 0.000, 0.000, 15:06:51.886
145, 32750.85, 32340.16, -187500.02, -187500.02, -187500.02, -148793.03, -187500.02, -187500.02, 0.000, 0.000, 0.000, 15:06:51.886
146, 32610.79, 32428.07, -187500.02, -187500.02, -187500.02, -148511.06, -187500.02, -187500.02, 0.000, 0.000, 0.000, 15:06:51.886
147, 32524.60, 32316.73, -187500.02, -187500.02, -187500.02, -148359.83, -187500.02, -187500.02, 0.000, 0.000, 0.000, 15:06:51.886
148, 32697.90, 32091.36, -187500.02, -187500.02, -187500.02, -148663.92, -187500.02, -187500.02, 0.000, 0.000, 0.000, 15:06:51.886
149, 32815.46, 32178.49, -187500.02, -187500.02, -187500.02, -148896.25, -187500.02, -187500.02, 0.004, -0.284, 0.982, 15:06:51.886
150, 32749.89, 32341.03, -187500.02, -187500.02, -187500.02, -148806.22, -187500.02, -187500.02, 0.000, 0.000, 0.000, 15:06:51.887
151, 32616.54, 32429.94, -187500.02, -187500.02, -187500.02, -148477.84, -187500.02, -187500.02, 0.000, 0.000, 0.000, 15:06:51.887
152, 32534.71, 32331.44, -187500.02, -187500.02, -187500.02, -148301.41, -187500.02, -187500.02, 0.000, 0.000, 0.000, 15:06:51.887
153, 32694.88, 32095.29, -187500.02, -187500.02, -187500.02, -148588.61, -187500.02, -187500.02, 0.000, 0.000, 0.000, 15:06:51.887
154, 32808.31, 32170.71, -187500.02, -187500.02, -187500.02, -148811.81, -187500.02, -187500.02, 0.000, 0.000, 0.000, 15:06:51.887
155, 32760.75, 32344.00, -187500.02, -187500.02, -187500.02, -148745.59, -187500.02, -187500.02, 0.000, 0.000, 0.000, 15:06:51.887
156, 32629.70, 32439.98, -187500.02, -187500.02, -187500.02, -148474.05, -187500.02, -187500.02, 0.000, 0.000, 0.000, 15:06:51.887
157, 32528.49, 32324.62, -187500.02, -187500.02, -187500.02, -148329.95, -187500.02, -187500.02, 0.000, 0.000, 0.000, 15:06:51.887
158, 32702.03, 32101.53, -187500.02, -187500.02, -187500.02, -148649.42, -187500.02, -187500.02, 0.000, 0.000, 0.000, 15:06:51.887
159, 32825.08, 32182.29, -187500.02, -187500.02, -187500.02, -148838.39, -187500.02, -187500.02, 0.002, -0.290, 0.984, 15:06:51.888
160, 32780.69, 32364.41, -187500.02, -187500.02, -187500.02, -148775.08, -187500.02, -187500.02, 0.000, 0.000, 0.000, 15:06:51.888
161, 32650.64, 32461.19, -187500.02, -187500.02, -187500.02, -148513.05, -187500.02, -187500.02, 0.000, 0.000, 0.000, 15:06:51.888
162, 32545.14, 32344.72, -187500.02, -187500.02, -187500.02, -148393.36, -187500.02, -187500.02, 0.000, 0.000, 0.000, 15:06:51.888
163, 32708.96, 32111.95, -187500.02, -187500.02, -187500.02, -148685.81, -187500.02, -187500.02, 0.000, 0.000, 0.000, 15:06:51.888
164, 32836.30, 32197.26, -187500.02, -187500.02, -187500.02, -148876.53, -187500.02, -187500.02, 0.000, 0.000, 0.000, 15:06:51.888
165, 32756.88, 32352.16, -187500.02, -187500.02, -187500.02, -148766.77, -187500.02, -187500.02, 0.000, 0.000, 0.000, 15:06:51.888
166, 32617.56, 32439.78, -187500.02, -187500.02, -187500.02, -148496.61, -187500.02, -187500.02, 0.000, 0.000, 0.000, 15:06:51.888
167, 32529.12, 32335.84, -187500.02, -187500.02, -187500.02, -148351.58, -187500.02, -187500.02, 0.000, 0.000, 0.000, 15:06:51.889
168, 32706.57, 32111.30, -187500.02, -187500.02, -187500.02, -148654.27, -187500.02, -187500.02, 0.000, 0.000, 0.000, 15:06:51.889
169, 32835.88, 32196.81, -187500.02, -187500.02, -187500.02, -148880.53, -187500.02, -187500.02, 0.004, -0.286, 0.990, 15:06:51.889
170, 32763.88, 32356.92, -187500.02, -187500.02, -187500.02, -148816.05, -187500.02, -187500.02, 0.000, 0.000, 0.000, 15:06:51.889
171, 32618.57, 32438.17, -187500.02, -187500.02, -187500.02, -148499.36, -187500.02, -187500.02, 0.000, 0.000, 0.000, 15:06:51.889
172, 32531.78, 32339.71, -187500.02, -187500.02, -187500.02, -148283.34, -187500.02, -187500.02, 0.000, 0.000, 0.000, 15:06:51.889
173, 32702.23, 32115.41, -187500.02, -187500.02, -187500.02, -148629.11, -187500.02, -187500.02, 0.000, 0.000, 0.000, 15:06:51.889
174, 32827.40, 32193.57, -187500.02, -187500.02, -187500.02, -148877.16, -187500.02, -187500.02, 0.000, 0.000, 0.000, 15:06:51.889
175, 32774.83, 32361.64, -187500.02, -187500.02, -187500.02, -148828.58, -187500.02, -187500.02, 0.000, 0.000, 0.000, 15:06:51.890
176, 32639.74, 32447.96, -187500.02, -187500.02, -187500.02, -148585.23, -187500.02, -187500.02, 0.000, 0.000, 0.000, 15:06:51.890
177, 32531.87, 32335.48, -187500.02, -187500.02, -187500.02, -148420.73, -187500.02, -187500.02, 0.000, 0.000, 0.000, 15:06:51.890
178, 32692.91, 32098.31, -187500.02, -187500.02, -187500.02, -148719.88, -187500.02, -187500.02, 0.000, 0.000, 0.000, 15:06:51.890
179, 32816.59, 32172.94, -187500.02, -187500.02, -187500.02, -148916.91, -187500.02, -187500.02, 0.000, -0.282, 0.988, 15:06:51.890
180, 32754.60, 32338.53, -187500.02, -187500.02, -187500.02, -148828.28, -187500.02, -187500.02, 0.000, 0.000, 0.000, 15:06:51.890
181, 32616.76, 32423.86, -187500.02, -187500.02, -187500.02, -148547.86, -187500.02, -187500.02, 0.000, 0.000, 0.000, 15:06:51.890
182, 32518.59, 32322.14, -187500.02, -187500.02, -187500.02, -148369.06, -187500.02, -187500.02, 0.000, 0.000, 0.000, 15:06:51.890
183, 32678.16, 32087.38, -187500.02, -187500.02, -187500.02, -148655.34, -187500.02, -187500.02, 0.000, 0.000, 0.000, 15:06:51.891
184, 32810.88, 32169.43, -187500.02, -187500.02, -187500.02, -148903.22, -187500.02, -187500.02, 0.000, 0.000, 0.000, 15:06:51.891
185, 32741.19, 32323.77, -187500.02, -187500.02, -187500.02, -148850.25, -187500.02, -187500.02, 0.000, 0.000, 0.000, 15:06:51.891
186, 32600.76, 32404.96, -187500.02, -187500.02, -187500.02, -148510.39, -187500.02, -187500.02, 0.000, 0.000, 0.000, 15:06:51.891
187, 32507.84, 32308.13, -187500.02, -187500.02, -187500.02, -148321.72, -187500.02, -187500.02, 0.000, 0.000, 0.000, 15:06:51.891
188, 32665.06, 32066.44, -187500.02, -187500.02, -187500.02, -148637.59, -187500.02, -187500.02, 0.000, 0.000, 0.000, 15:06:51.891
189, 32792.71, 32144.18, -187500.02, -187500.02, -187500.02, -148868.69, -187500.02, -187500.02, -0.002, -0.278, 0.990, 15:06:51.891
190, 32739.25, 32320.31, -187500.02, -187500.02, -187500.02, -148823.63, -187500.02, -187500.02, 0.000, 0.000, 0.000, 15:06:51.892
191, 32597.65, 32405.02, -187500.02, -187500.02, -187500.02, -148556.59, -187500.02, -187500.02, 0.000, 0.000, 0.000, 15:06:51.892
192, 32499.86, 32304.60, -187500.02, -187500.02, -187500.02, -148395.73, -187500.02, -187500.02, 0.000, 0.000, 0.000, 15:06:51.892
193, 32658.49, 32063.53, -187500.02, -187500.02, -187500.02, -148698.44, -187500.02, -187500.02, 0.000, 0.000, 0.000, 15:06:51.892
194, 32772.89, 32125.04, -187500.02, -187500.02, -187500.02, -148903.05, -187500.02, -187500.02, 0.000, 0.000, 0.000, 15:06:51.892
195, 32717.12, 32292.82, -187500.02, -187500.02, -187500.02, -148817.73, -187500.02, -187500.02, 0.000, 0.000, 0.000, 15:06:51.892
196, 32592.93, 32390.27, -187500.02, -187500.02, -187500.02, -148580.06, -187500.02, -187500.02, 0.000, 0.000, 0.000, 15:06:51.892
197, 32476.81, 32284.84, -187500.02, -187500.02, -187500.02, -148424.36, -187500.02, -187500.02, 0.000, 0.000, 0.000, 15:06:51.892
198, 32627.20, 32040.24, -187500.02, -187500.02, -187500.02, -148704.67, -187500.02, -187500.02, 0.000, 0.000, 0.000, 15:06:51.892
199, 32755.05, 32106.16, -187500.02, -187500.02, -187500.02, -148913.86, -187500.02, -187500.02, 0.000, -0.278, 0.980, 15:06:51.893
200, 32700.45, 32274.96, -187500.02, -187500.02, -187500.02, -148849.56, -187500.02, -187500.02, 0.000, 0.000, 0.000, 15:06:51.893
201, 32559.36, 32359.78, -187500.02, -187500.02, -187500.02, -148522.84, -187500.02, -187500.02, 0.000, 0.000, 0.000, 15:06:51.893
202, 32457.10, 32262.15, -187500.02, -187500.02, -187500.02, -148335.16, -187500.02, -187500.02, 0.000, 0.000, 0.000, 15:06:51.893
203, 32623.35, 32029.98, -187500.02, -187500.02, -187500.02, -148630.47, -187500.02, -187500.02, 0.000, 0.000, 0.000, 15:06:51.893
204, 32765.67, 32111.03, -187500.02, -187500.02, -187500.02, -148885.45, -187500.02, -187500.02, 0.000, 0.000, 0.000, 15:06:51.893
205, 32716.16, 32288.35, -187500.02, -187500.02, -187500.02, -148878.39, -187500.02, -187500.02, 0.000, 0.000, 0.000, 15:06:51.893
206, 32588.04, 32390.20, -187500.02, -187500.02, -187500.02, -148616.97, -187500.02, -187500.02, 0.000, 0.000, 0.000, 15:06:51.893
207, 32473.06, 32290.31, -187500.02, -187500.02, -187500.02, -148427.77, -187500.02, -187500.02, 0.000, 0.000, 0.000, 15:06:51.894
208, 32627.09, 32047.17, -187500.02, -187500.02, -187500.02, -148716.23, -187500.02, -187500.02, 0.000, 0.000, 0.000, 15:06:51.894
209, 32759.52, 32107.68, -187500.02, -187500.02, -187500.02, -148971.67, -187500.02, -187500.02, 0.000, -0.276, 0.982, 15:06:51.894
210, 32708.78, 32274.42, -187500.02, -187500.02, -187500.02, -148928.08, -187500.02, -187500.02, 0.000, 0.000, 0.000, 15:06:52.357
211, 32589.27, 32380.64, -187500.02, -187500.02, -187500.02, -148641.83, -187500.02, -187500.02, 0.000, 0.000, 0.000, 15:06:52.357
212, 32480.30, 32278.35, -187500.02, -187500.02, -187500.02, -148412.09, -187500.02, -187500.02, 0.000, 0.000, 0.000, 15:06:52.358
213, 32628.38, 32034.07, -187500.02, -187500.02, -187500.02, -148681.47, -187500.02, -187500.02, 0.000, 0.000, 0.000, 15:06:52.358
214, 32760.53, 32099.52, -187500.02, -187500.02, -187500.02, -148910.69, -187500.02, -187500.02, 0.000, 0.000, 0.000, 15:06:52.358
215, 32701.72, 32268.07, -187500.02, -187500.02, -187500.02, -148867.91, -187500.02, -187500.02, 0.000, 0.000, 0.000, 15:06:52.358
216, 32568.26, 32356.90, -187500.02, -187500.02, -187500.02, -148559.36, -187500.02, -187500.02, 0.000, 0.000, 0.000, 15:06:52.358
217, 32460.32, 32254.37, -187500.02, -187500.02, -187500.02, -148355.19, -187500.02, -187500.02, 0.000, 0.000, 0.000, 15:06:52.358
218, 32613.65, 32015.95, -187500.02, -187500.02, -187500.02, -148642.53, -187500.02, -187500.02, 0.000, 0.000, 0.000, 15:06:52.359
219, 32747.74, 32084.05, -187500.02, -187500.02, -187500.02, -148880.00, -187500.02, -187500.02, 0.006, -0.282, 0.992, 15:06:52.359
220, 32698.61, 32258.44, -187500.02, -187500.02, -187500.02, -148827.75, -187500.02, -187500.02, 0.000, 0.000, 0.000, 15:06:52.359
221, 32572.75, 32352.99, -187500.02, -187500.02, -187500.02, -148587.13, -187500.02, -187500.02, 0.000, 0.000, 0.000, 15:06:52.359
222, 32461.06, 32257.68, -187500.02, -187500.02, -187500.02, -148402.81, -187500.02, -187500.02, 0.000, 0.000, 0.000, 15:06:52.359
223, 32615.80, 32026.34, -187500.02, -187500.02, -187500.02, -148719.83, -187500.02, -187500.02, 0.000, 0.000, 0.000, 15:06:52.360
224, 32739.34, 32080.81, -187500.02, -187500.02, -187500.02, -148956.67, -187500.02, -187500.02, 0.000, 0.000, 0.000, 15:06:52.360
225, 32680.39, 32242.35, -187500.02, -187500.02, -187500.02, -148873.56, -187500.02, -187500.02, 0.000, 0.000, 0.000, 15:06:52.360
226, 32554.46, 32330.37, -187500.02, -187500.02, -187500.02, -148601.75, -187500.02, -187500.02, 0.000, 0.000, 0.000, 15:06:52.360
227, 32450.75, 32246.46, -187500.02, -187500.02, -187500.02, -148411.27, -187500.02, -187500.02, 0.000, 0.000, 0.000, 15:06:52.360
228, 32596.53, 32013.08, -187500.02, -187500.02, -187500.02, -148690.81, -187500.02, -187500.02, 0.000, 0.000, 0.000, 15:06:52.360
229, 32732.63, 32082.42, -187500.02, -187500.02, -187500.02, -148897.48, -187500.02, -187500.02, 0.004, -0.284, 0.988, 15:06:52.361
230, 32689.71, 32251.98, -187500.02, -187500.02, -187500.02, -148833.16, -187500.02, -187500.02, 0.000, 0.000, 0.000, 15:06:52.361
231, 32561.10, 32343.98, -187500.02, -187500.02, -187500.02, -148550.14, -187500.02, -187500.02, 0.000, 0.000, 0.000, 15:06:52.361
232, 32450.28, 32263.09, -187500.02, -187500.02, -187500.02, -148353.08, -187500.02, -187500.02, 0.000, 0.000, 0.000, 15:06:52.361
233, 32606.03, 32027.32, -187500.02, -187500.02, -187500.02, -148638.64, -187500.02, -187500.02, 0.000, 0.000, 0.000, 15:06:52.361
234, 32753.84, 32094.11, -187500.02, -187500.02, -187500.02, -148904.39, -187500.02, -187500.02, 0.000, 0.000, 0.000, 15:06:52.362
235, 32712.31, 32270.53, -187500.02, -187500.02, -187500.02, -148878.33, -187500.02, -187500.02, 0.000, 0.000, 0.000, 15:06:52.362
236, 32577.53, 32361.73, -187500.02, -187500.02, -187500.02, -148610.11, -187500.02, -187500.02, 0.000, 0.000, 0.000, 15:06:52.362
237, 32473.28, 32287.76, -187500.02, -187500.02, -187500.02, -148430.33, -187500.02, -187500.02, 0.000, 0.000, 0.000, 15:06:52.362
238, 32618.26, 32041.43, -187500.02, -187500.02, -187500.02, -148746.45, -187500.02, -187500.02, 0.000, 0.000, 0.000, 15:06:52.362
239, 32764.06, 32106.13, -187500.02, -187500.02, -187500.02, -148981.41, -187500.02, -187500.02, 0.004, -0.280, 0.998, 15:06:52.362
240, 32711.87, 32272.92, -187500.02, -187500.02, -187500.02, -148917.94, -187500.02, -187500.02, 0.000, 0.000, 0.000, 15:06:52.363
241, 32576.86, 32358.46, -187500.02, -187500.02, -187500.02, -148641.17, -187500.02, -187500.02, 0.000, 0.000, 0.000, 15:06:52.363
242, 32452.70, 32262.75, -187500.02, -187500.02, -187500.02, -148408.11, -187500.02, -187500.02, 0.000, 0.000, 0.000, 15:06:52.363
243, 32596.49, 32020.68, -187500.02, -187500.02, -187500.02, -148695.67, -187500.02, -187500.02, 0.000, 0.000, 0.000, 15:06:52.363
244, 32749.24, 32089.46, -187500.02, -187500.02, -187500.02, -148922.05, -187500.02, -187500.02, 0.000, 0.000, 0.000, 15:06:52.363
245, 32705.27, 32263.80, -187500.02, -187500.02, -187500.02, -148838.20, -187500.02, -187500.02, 0.000, 0.000, 0.000, 15:06:52.363
246, 32567.92, 32349.25, -187500.02, -187500.02, -187500.02, -148531.78, -187500.02, -187500.02, 0.000, 0.000, 0.000, 15:06:52.363
247, 32466.53, 32277.06, -187500.02, -187500.02, -187500.02, -148351.55, -187500.02, -187500.02, 0.000, 0.000, 0.000, 15:06:52.363
248, 32618.93, 32039.88, -187500.02, -187500.02, -187500.02, -148677.52, -187500.02, -187500.02, 0.008, -0.280, 0.986, 15:06:52.364
249, 32758.92, 32104.61, -187500.02, -187500.02, -187500.02, -148909.80, -187500.02, -187500.02, 0.000, 0.000, 0.000, 15:06:52.364
250, 32711.26, 32274.64, -187500.02, -187500.02, -187500.02, -148881.14, -187500.02, -187500.02, 0.000, 0.000, 0.000, 15:06:52.364
251, 32582.58, 32365.12, -187500.02, -187500.02, -187500.02, -148633.19, -187500.02, -187500.02, 0.000, 0.000, 0.000, 15:06:52.364
252, 32478.38, 32295.70, -187500.02, -187500.02, -187500.02, -148465.63, -187500.02, -187500.02, 0.000, 0.000, 0.000, 15:06:52.364
253, 32612.42, 32040.64, -187500.02, -187500.02, -187500.02, -148764.22, -187500.02, -187500.02, 0.000, 0.000, 0.000, 15:06:52.364
254, 32748.97, 32096.08, -187500.02, -187500.02, -187500.02, -148964.06, -187500.02, -187500.02, 0.000, 0.000, 0.000, 15:06:52.364
255, 32712.65, 32278.22, -187500.02, -187500.02, -187500.02, -148919.45, -187500.02, -187500.02, 0.000, 0.000, 0.000, 15:06:52.364
0, 32593.04, 32378.49, -187500.02, -187500.02, -187500.02, -148674.55, -187500.02, -187500.02, 0.000, 0.000, 0.000, 15:06:52.365
1, 32472.95, 32290.74, -187500.02, -187500.02, -187500.02, -148472.44, -187500.02, -187500.02, 0.000, 0.000, 0.000, 15:06:52.365
2, 32612.07, 32041.69, -187500.02, -187500.02, -187500.02, -148734.30, -187500.02, -187500.02, -0.002, -0.274, 0.980, 15:06:52.365
3, 32758.67, 32109.49, -187500.02, -187500.02, -187500.02, -148954.88, -187500.02, -187500.02, 0.000, 0.000, 0.000, 15:06:52.365
4, 32717.61, 32280.97, -187500.02, -187500.02, -187500.02, -148872.14, -187500.02, -187500.02, 0.000, 0.000, 0.000, 15:06:52.365
5, 32593.78, 32375.41, -187500.02, -187500.02, -187500.02, -148582.59, -187500.02, -187500.02, 0.000, 0.000, 0.000, 15:06:52.365
6, 32485.11, 32310.21, -187500.02, -187500.02, -187500.02, -148394.02, -187500.02, -187500.02, 0.000, 0.000, 0.000, 15:06:52.365
7, 32623.24, 32060.04, -187500.02, -187500.02, -187500.02, -148700.45, -187500.02, -187500.02, 0.000, 0.000, 0.000, 15:06:52.365
8, 32766.40, 32112.88, -187500.02, -187500.02, -187500.02, -148933.28, -187500.02, -187500.02, 0.000, 0.000, 0.000, 15:06:52.366
9, 32725.43, 32288.61, -187500.02, -187500.02, -187500.02, -148897.23, -187500.02, -187500.02, 0.000, 0.000, 0.000, 15:06:52.366
10, 32603.88, 32383.12, -187500.02, -187500.02, -187500.02, -148638.02, -187500.02, -187500.02, 0.000, 0.000, 0.000, 15:06:52.366
11, 32498.88, 32311.75, -187500.02, -187500.02, -187500.02, -148488.59, -187500.02, -187500.02, 0.000, 0.000, 0.000, 15:06:52.366
12, 32623.13, 32046.21, -187500.02, -187500.02, -187500.02, -148762.95, -187500.02, -187500.02, -0.002, -0.280, 0.980, 15:06:52.366
13, 32753.93, 32088.81, -187500.02, -187500.02, -187500.02, -148965.39, -187500.02, -187500.02, 0.000, 0.000, 0.000, 15:06:52.366
14, 32716.20, 32271.74, -187500.02, -187500.02, -187500.02, -148928.78, -187500.02, -187500.02, 0.000, 0.000, 0.000, 15:06:52.366
15, 32589.24, 32369.95, -187500.02, -187500.02, -187500.02, -148635.56, -187500.02, -187500.02, 0.000, 0.000, 0.000, 15:06:52.366
16, 32483.70, 32303.66, -187500.02, -187500.02, -187500.02, -148422.31, -187500.02, -187500.02, 0.000, 0.000, 0.000, 15:06:52.367
17, 32618.86, 32052.82, -187500.02, -187500.02, -187500.02, -148693.39, -187500.02, -187500.02, 0.000, 0.000, 0.000, 15:06:52.367
18, 32750.63, 32095.45, -187500.02, -187500.02, -187500.02, -148907.83, -187500.02, -187500.02, 0.000, 0.000, 0.000, 15:06:52.367
19, 32709.72, 32267.71, -187500.02, -187500.02, -187500.02, -148847.50, -187500.02, -187500.02, 0.000, 0.000, 0.000, 15:06:52.367
20, 32585.89, 32366.87, -187500.02, -187500.02, -187500.02, -148556.23, -187500.02, -187500.02, 0.000, 0.000, 0.000, 15:06:52.367
21, 32473.13, 32301.13, -187500.02, -187500.02, -187500.02, -148354.61, -187500.02, -187500.02, 0.000, 0.000, 0.000, 15:06:52.367
22, 32625.57, 32062.32, -187500.02, -187500.02, -187500.02, -148665.16, -187500.02, -187500.02, 0.002, -0.280, 0.980, 15:06:52.367
23, 32760.68, 32104.61, -187500.02, -187500.02, -187500.02, -148904.39, -187500.02, -187500.02, 0.000, 0.000, 0.000, 15:06:52.368
24, 32725.48, 32286.11, -187500.02, -187500.02, -187500.02, -148882.69, -187500.02, -187500.02, 0.000, 0.000, 0.000, 15:06:52.368
25, 32607.30, 32390.61, -187500.02, -187500.02, -187500.02, -148672.17, -187500.02, -187500.02, 0.000, 0.000, 0.000, 15:06:52.368
26, 32490.52, 32314.09, -187500.02, -187500.02, -187500.02, -148459.00, -187500.02, -187500.02, 0.000, 0.000, 0.000, 15:06:52.368
27, 32634.64, 32065.65, -187500.02, -187500.02, -187500.02, -148748.13, -187500.02, -187500.02, 0.000, 0.000, 0.000, 15:06:52.368
28, 32774.16, 32112.79, -187500.02, -187500.02, -187500.02, -148969.66, -187500.02, -187500.02, 0.000, 0.000, 0.000, 15:06:52.368
29, 32737.06, 32298.56, -187500.02, -187500.02, -187500.02, -148923.92, -187500.02, -187500.02, 0.000, 0.000, 0.000, 15:06:52.368
30, 32611.33, 32390.20, -187500.02, -187500.02, -187500.02, -148641.94, -187500.02, -187500.02, 0.000, 0.000, 0.000, 15:06:52.368
31, 32491.54, 32312.42, -187500.02, -187500.02, -187500.02, -148417.14, -187500.02, -187500.02, 0.000, 0.000, 0.000, 15:06:52.369
32, 32621.86, 32060.34, -187500.02, -187500.02, -187500.02, -148705.80, -187500.02, -187500.02, 0.004, -0.280, 0.984, 15:06:52.369
33, 32771.86, 32116.75, -187500.02, -187500.02, -187500.02, -148934.45, -187500.02, -187500.02, 0.000, 0.000, 0.000, 15:06:52.369
34, 32723.47, 32278.76, -187500.02, -187500.02, -187500.02, -148896.77, -187500.02, -187500.02, 0.000, 0.000, 0.000, 15:06:52.369
35, 32605.29, 32381.82, -187500.02, -187500.02, -187500.02, -148648.58, -187500.02, -187500.02, 0.000, 0.000, 0.000, 15:06:52.369
36, 32489.51, 32316.22, -187500.02, -187500.02, -187500.02, -148371.45, -187500.02, -187500.02, 0.000, 0.000, 0.000, 15:06:52.369
37, 32626.10, 32065.95, -187500.02, -187500.02, -187500.02, -148637.75, -187500.02, -187500.02, 0.000, 0.000, 0.000, 15:06:52.369
38, 32770.05, 32111.19, -187500.02, -187500.02, -187500.02, -148938.88, -187500.02, -187500.02, 0.000, 0.000, 0.000, 15:06:52.369
39, 32730.93, 32283.38, -187500.02, -187500.02, -187500.02, -148899.56, -187500.02, -187500.02, 0.000, 0.000, 0.000, 15:06:52.370
40, 32609.43, 32391.88, -187500.02, -187500.02, -187500.02, -148654.52, -187500.02, -187500.02, 0.000, 0.000, 0.000, 15:06:52.370
41, 32496.60, 32331.30, -187500.02, -187500.02, -187500.02, -148473.73, -187500.02, -187500.02, 0.000, 0.000, 0.000, 15:06:52.370
42, 32630.75, 32073.59, -187500.02, -187500.02, -187500.02, -148734.89, -187500.02, -187500.02, 0.004, -0.282, 0.990, 15:06:52.370
43, 32770.59, 32111.72, -187500.02, -187500.02, -187500.02, -148961.23, -187500.02, -187500.02, 0.000, 0.000, 0.000, 15:06:52.370
44, 32729.41, 32283.52, -187500.02, -187500.02, -187500.02, -148938.98, -187500.02, -187500.02, 0.000, 0.000, 0.000, 15:06:52.370
45, 32609.99, 32382.65, -187500.02, -187500.02, -187500.02, -148673.55, -187500.02, -187500.02, 0.000, 0.000, 0.000, 15:06:52.370
46, 32479.05, 32298.43, -187500.02, -187500.02, -187500.02, -148424.61, -187500.02, -187500.02, 0.000, 0.000, 0.000, 15:06:52.370
47, 32613.94, 32048.80, -187500.02, -187500.02, -187500.02, -148675.91, -187500.02, -187500.02, 0.000, 0.000, 0.000, 15:06:52.371
48, 32766.83, 32104.88, -187500.02, -187500.02, -187500.02, -148930.94, -187500.02, -187500.02, 0.000, 0.000, 0.000, 15:06:52.371
49, 32737.68, 32286.11, -187500.02, -187500.02, -187500.02, -148894.70, -187500.02, -187500.02, 0.000, 0.000, 0.000, 15:06:52.371
50, 32606.28, 32376.08, -187500.02, -187500.02, -187500.02, -148624.09, -187500.02, -187500.02, 0.000, 0.000, 0.000, 15:06:52.371
51, 32475.59, 32303.79, -187500.02, -187500.02, -187500.02, -148370.97, -187500.02, -187500.02, 0.000, 0.000, 0.000, 15:06:52.371
52, 32621.25, 32060.20, -187500.02, -187500.02, -187500.02, -148666.67, -187500.02, -187500.02, 0.002, -0.280, 0.986, 15:06:52.371
53, 32787.77, 32117.33, -187500.02, -187500.02, -187500.02, -148994.64, -187500.02, -187500.02, 0.000, 0.000, 0.000, 15:06:52.371
54, 32747.67, 32292.59, -187500.02, -187500.02, -187500.02, -148986.31, -187500.02, -187500.02, 0.000, 0.000, 0.000, 15:06:52.371
55, 32612.00, 32382.18, -187500.02, -187500.02, -187500.02, -148746.03, -187500.02, -187500.02, 0.000, 0.000, 0.000, 15:06:52.372
56, 32496.82, 32327.57, -187500.02, -187500.02, -187500.02, -148520.50, -187500.02, -187500.02, 0.000, 0.000, 0.000, 15:06:52.372
57, 32632.27, 32078.57, -187500.02, -187500.02, -187500.02, -148782.80, -187500.02, -187500.02, 0.000, 0.000, 0.000, 15:06:52.372
58, 32779.77, 32117.69, -187500.02, -187500.02, -187500.02, -149023.34, -187500.02, -187500.02, 0.000, 0.000, 0.000, 15:06:52.372
59, 32726.35, 32281.57, -187500.02, -187500.02, -187500.02, -148984.00, -187500.02, -187500.02, 0.000, 0.000, 0.000, 15:06:52.372
60, 32596.84, 32373.84, -187500.02, -187500.02, -187500.02, -148690.86, -187500.02, -187500.02, 0.000, 0.000, 0.000, 15:06:52.372
61, 32480.59, 32315.17, -187500.02, -187500.02, -187500.02, -148457.16, -187500.02, -187500.02, 0.000, 0.000, 0.000, 15:06:52.372
62, 32617.36, 32060.92, -187500.02, -187500.02, -187500.02, -148729.44, -187500.02, -187500.02, 0.006, -0.282, 0.984, 15:06:52.373
63, 32763.72, 32096.19, -187500.02, -187500.02, -187500.02, -148966.14, -187500.02, -187500.02, 0.000, 0.000, 0.000, 15:06:52.373
64, 32725.72, 32277.84, -187500.02, -187500.02, -187500.02, -148913.94, -187500.02, -187500.02, 0.000, 0.000, 0.000, 15:06:52.373
65, 32593.02, 32367.76, -187500.02, -187500.02, -187500.02, -148679.81, -187500.02, -187500.02, 0.000, 0.000, 0.000, 15:06:52.373
66, 32471.79, 32308.91, -187500.02, -187500.02, -187500.02, -148459.44, -187500.02, -187500.02, 0.000, 0.000, 0.000, 15:06:52.373
67, 32606.05, 32056.22, -187500.02, -187500.02, -187500.02, -148748.86, -187500.02, -187500.02, 0.000, 0.000, 0.000, 15:06:52.373
68, 32761.35, 32100.97, -187500.02, -187500.02, -187500.02, -148978.42, -187500.02, -187500.02, 0.000, 0.000, 0.000, 15:06:52.373
69, 32729.30, 32282.04, -187500.02, -187500.02, -187500.02, -148960.31, -187500.02, -187500.02, 0.000, 0.000, 0.000, 15:06:52.373
70, 32601.58, 32375.14, -187500.02, -187500.02, -187500.02, -148734.77, -187500.02, -187500.02, 0.000, 0.000, 0.000, 15:06:52.373
71, 32468.34, 32302.70, -187500.02, -187500.02, -187500.02, -148518.19, -187500.02, -187500.02, 0.000, 0.000, 0.000, 15:06:52.374
72, 32596.64, 32039.01, -187500.02, -187500.02, -187500.02, -148765.86, -187500.02, -187500.02, 0.004, -0.280, 0.986, 15:06:52.374
73, 32745.21, 32076.72, -187500.02, -187500.02, -187500.02, -149015.92, -187500.02, -187500.02, 0.000, 0.000, 0.000, 15:06:52.374
74, 32708.22, 32259.02, -187500.02, -187500.02, -187500.02, -148986.03, -187500.02, -187500.02, 0.000, 0.000, 0.000, 15:06:52.838
75, 32578.76, 32354.84, -187500.02, -187500.02, -187500.02, -148737.38, -187500.02, -187500.02, 0.000, 0.000, 0.000, 15:06:52.839
76, 32452.34, 32289.84, -187500.02, -187500.02, -187500.02, -148492.28, -187500.02, -187500.02, 0.000, 0.000, 0.000, 15:06:52.839
77, 32592.26, 32041.25, -187500.02, -187500.02, -187500.02, -148754.28, -187500.02, -187500.02, 0.000, 0.000, 0.000, 15:06:52.839
78, 32743.34, 32068.92, -187500.02, -187500.02, -187500.02, -149042.19, -187500.02, -187500.02, 0.000, 0.000, 0.000, 15:06:52.839
79, 32702.21, 32240.54, -187500.02, -187500.02, -187500.02, -148982.89, -187500.02, -187500.02, 0.000, 0.000, 0.000, 15:06:52.839
80, 32583.99, 32352.43, -187500.02, -187500.02, -187500.02, -148683.08, -187500.02, -187500.02, 0.000, 0.000, 0.000, 15:06:52.839
81, 32468.39, 32295.05, -187500.02, -187500.02, -187500.02, -148442.75, -187500.02, -187500.02, 0.000, 0.000, 0.000, 15:06:52.840
82, 32603.66, 32042.97, -187500.02, -187500.02, -187500.02, -148726.69, -187500.02, -187500.02, 0.000, -0.280, 0.978, 15:06:52.840
83, 32765.18, 32094.49, -187500.02, -187500.02, -187500.02, -148995.97, -187500.02, -187500.02, 0.000, 0.000, 0.000, 15:06:52.840
84, 32736.23, 32280.52, -187500.02, -187500.02, -187500.02, -148984.77, -187500.02, -187500.02, 0.000, 0.000, 0.000, 15:06:52.840
85, 32618.41, 32383.85, -187500.02, -187500.02, -187500.02, -148757.42, -187500.02, -187500.02, 0.000, 0.000, 0.000, 15:06:52.840
86, 32489.69, 32320.69, -187500.02, -187500.02, -187500.02, -148506.86, -187500.02, -187500.02, 0.000, 0.000, 0.000, 15:06:52.840
87, 32628.05, 32067.80, -187500.02, -187500.02, -187500.02, -148741.63, -187500.02, -187500.02, 0.000, 0.000, 0.000, 15:06:52.840
88, 32782.05, 32106.85, -187500.02, -187500.02, -187500.02, -149015.30, -187500.02, -187500.02, 0.000, 0.000, 0.000, 15:06:52.840
89, 32736.23, 32281.82, -187500.02, -187500.02, -187500.02, -148957.14, -187500.02, -187500.02, 0.000, 0.000, 0.000, 15:06:52.840
90, 32609.12, 32379.32, -187500.02, -187500.02, -187500.02, -148714.63, -187500.02, -187500.02, 0.000, 0.000, 0.000, 15:06:52.841
91, 32492.60, 32325.49, -187500.02, -187500.02, -187500.02, -148474.23, -187500.02, -187500.02, 0.000, 0.000, 0.000, 15:06:52.841
92, 32624.74, 32061.19, -187500.02, -187500.02, -187500.02, -148710.16, -187500.02, -187500.02, 0.000, -0.280, 0.984, 15:06:52.841
93, 32775.59, 32096.95, -187500.02, -187500.02, -187500.02, -148947.27, -187500.02, -187500.02, 0.000, 0.000, 0.000, 15:06:52.841
94, 32745.21, 32286.49, -187500.02, -187500.02, -187500.02, -148935.41, -187500.02, -187500.02, 0.000, 0.000, 0.000, 15:06:52.841
95, 32621.95, 32386.07, -187500.02, -187500.02, -187500.02, -148654.92, -187500.02, -187500.02, 0.000, 0.000, 0.000, 15:06:52.841
96, 32495.86, 32329.03, -187500.02, -187500.02, -187500.02, -148402.55, -187500.02, -187500.02, 0.000, 0.000, 0.000, 15:06:52.841
97, 32640.38, 32086.17, -187500.02, -187500.02, -187500.02, -148715.36, -187500.02, -187500.02, 0.000, 0.000, 0.000, 15:06:52.841
98, 32803.82, 32124.62, -187500.02, -187500.02, -187500.02, -149027.91, -187500.02, -187500.02, 0.000, 0.000, 0.000, 15:06:52.842
99, 32770.65, 32313.76, -187500.02, -187500.02, -187500.02, -149006.47, -187500.02, -187500.02, 0.000, 0.000, 0.000, 15:06:52.842
100, 32650.55, 32420.04, -187500.02, -187500.02, -187500.02, -148750.55, -187500.02, -187500.02, 0.000, 0.000, 0.000, 15:06:52.842
101, 32525.47, 32364.83, -187500.02, -187500.02, -187500.02, -148525.19, -187500.02, -187500.02, 0.000, 0.000, 0.000, 15:06:52.842
102, 32656.97, 32100.99, -187500.02, -187500.02, -187500.02, -148763.48, -187500.02, -187500.02, 0.002, -0.282, 0.992, 15:06:52.842
103, 32811.76, 32129.80, -187500.02, -187500.02, -187500.02, -148990.05, -187500.02, -187500.02, 0.000, 0.000, 0.000, 15:06:52.842
104, 32770.03, 32306.07, -187500.02, -187500.02, -187500.02, -148924.64, -187500.02, -187500.02, 0.000, 0.000, 0.000, 15:06:52.842
105, 32646.13, 32409.42, -187500.02, -187500.02, -187500.02, -148652.39, -187500.02, -187500.02, 0.000, 0.000, 0.000, 15:06:52.842
106, 32532.65, 32368.50, -187500.02, -187500.02, -187500.02, -148452.09, -187500.02, -187500.02, 0.000, 0.000, 0.000, 15:06:52.843
107, 32655.07, 32102.65, -187500.02, -187500.02, -187500.02, -148708.61, -187500.02, -187500.02, 0.000, 0.000, 0.000, 15:06:52.843
108, 32799.38, 32121.82, -187500.02, -187500.02, -187500.02, -148940.73, -187500.02, -187500.02, 0.000, 0.000, 0.000, 15:06:52.843
109, 32767.01, 32304.71, -187500.02, -187500.02, -187500.02, -148919.19, -187500.02, -187500.02, 0.000, 0.000, 0.000, 15:06:52.843
110, 32642.46, 32404.42, -187500.02, -187500.02, -187500.02, -148708.20, -187500.02, -187500.02, 0.000, 0.000, 0.000, 15:06:52.843
111, 32515.19, 32354.73, -187500.02, -187500.02, -187500.02, -148454.72, -187500.02, -187500.02, 0.004, -0.278, 0.994, 15:06:52.843
112, 32650.13, 32093.24, -187500.02, -187500.02, -187500.02, -148716.23, -187500.02, -187500.02, 0.000, 0.000, 0.000, 15:06:52.843
113, 32812.23, 32123.23, -187500.02, -187500.02, -187500.02, -148983.17, -187500.02, -187500.02, 0.000, 0.000, 0.000, 15:06:52.843
114, 32780.82, 32311.48, -187500.02, -187500.02, -187500.02, -148939.92, -187500.02, -187500.02, 0.000, 0.000, 0.000, 15:06:52.844
115, 32648.95, 32410.21, -187500.02, -187500.02, -187500.02, -148708.67, -187500.02, -187500.02, 0.000, 0.000, 0.000, 15:06:52.844
116, 32519.26, 32358.17, -187500.02, -187500.02, -187500.02, -148472.91, -187500.02, -187500.02, 0.000, 0.000, 0.000, 15:06:52.844
117, 32656.10, 32100.99, -187500.02, -187500.02, -187500.02, -148735.59, -187500.02, -187500.02, 0.000, 0.000, 0.000, 15:06:52.844
118, 32809.99, 32126.85, -187500.02, -187500.02, -187500.02, -149010.52, -187500.02, -187500.02, 0.000, 0.000, 0.000, 15:06:52.844
119, 32773.11, 32314.92, -187500.02, -187500.02, -187500.02, -148975.89, -187500.02, -187500.02, 0.000, 0.000, 0.000, 15:06:52.844
120, 32654.89, 32417.81, -187500.02, -187500.02, -187500.02, -148717.70, -187500.02, -187500.02, 0.000, 0.000, 0.000, 15:06:52.844
121, 32535.33, 32378.29, -187500.02, -187500.02, -187500.02, -148465.72, -187500.02, -187500.02, 0.004, -0.282, 0.984, 15:06:52.844
122, 32644.56, 32097.37, -187500.02, -187500.02, -187500.02, -148722.53, -187500.02, -187500.02, 0.000, 0.000, 0.000, 15:06:52.845
123, 32792.55, 32114.14, -187500.02, -187500.02, -187500.02, -148975.02, -187500.02, -187500.02, 0.000, 0.000, 0.000, 15:06:52.845
124, 32767.30, 32311.05, -187500.02, -187500.02, -187500.02, -148934.45, -187500.02, -187500.02, 0.000, 0.000, 0.000, 15:06:52.845
125, 32659.56, 32421.45, -187500.02, -187500.02, -187500.02, -148681.88, -187500.02, -187500.02, 0.000, 0.000, 0.000, 15:06:52.845
126, 32537.63, 32382.85, -187500.02, -187500.02, -187500.02, -148424.19, -187500.02, -187500.02, 0.000, 0.000, 0.000, 15:06:52.845
127, 32657.64, 32115.28, -187500.02, -187500.02, -187500.02, -148712.77, -187500.02, -187500.02, 0.000, 0.000, 0.000, 15:06:52.845
128, 32806.86, 32128.75, -187500.02, -187500.02, -187500.02, -148988.77, -187500.02, -187500.02, 0.000, 0.000, 0.000, 15:06:52.845
129, 32777.76, 32315.48, -187500.02, -187500.02, -187500.02, -148987.36, -187500.02, -187500.02, 0.000, 0.000, 0.000, 15:06:52.845
130, 32655.25, 32416.82, -187500.02, -187500.02, -187500.02, -148754.03, -187500.02, -187500.02, 0.000, 0.000, 0.000, 15:06:52.846
131, 32532.02, 32379.63, -187500.02, -187500.02, -187500.02, -148514.95, -187500.02, -187500.02, 0.006, -0.286, 0.980, 15:06:52.846
132, 32656.50, 32118.99, -187500.02, -187500.02, -187500.02, -148752.02, -187500.02, -187500.02, 0.000, 0.000, 0.000, 15:06:52.846
133, 32818.64, 32146.97, -187500.02, -187500.02, -187500.02, -149011.25, -187500.02, -187500.02, 0.000, 0.000, 0.000, 15:06:52.846
134, 32780.89, 32323.28, -187500.02, -187500.02, -187500.02, -148961.05, -187500.02, -187500.02, 0.000, 0.000, 0.000, 15:06:52.846
135, 32653.84, 32417.25, -187500.02, -187500.02, -187500.02, -148760.11, -187500.02, -187500.02, 0.000, 0.000, 0.000, 15:06:52.846
136, 32521.63, 32370.44, -187500.02, -187500.02, -187500.02, -148506.66, -187500.02, -187500.02, 0.000, 0.000, 0.000, 15:06:52.846
137, 32642.17, 32102.76, -187500.02, -187500.02, -187500.02, -148707.52, -187500.02, -187500.02, 0.000, 0.000, 0.000, 15:06:52.846
138, 32806.84, 32129.31, -187500.02, -187500.02, -187500.02, -148948.80, -187500.02, -187500.02, 0.000, 0.000, 0.000, 15:06:52.846
139, 32782.95, 32320.53, -187500.02, -187500.02, -187500.02, -148912.70, -187500.02, -187500.02, 0.000, 0.000, 0.000, 15:06:52.847
140, 32655.07, 32416.20, -187500.02, -187500.02, -187500.02, -148666.30, -187500.02, -187500.02, 0.000, 0.000, 0.000, 15:06:52.847
141, 32522.86, 32375.72, -187500.02, -187500.02, -187500.02, -148414.92, -187500.02, -187500.02, 0.002, -0.278, 0.980, 15:06:52.847
142, 32653.46, 32117.56, -187500.02, -187500.02, -187500.02, -148675.47, -187500.02, -187500.02, 0.000, 0.000, 0.000, 15:06:52.847
143, 32818.17, 32141.23, -187500.02, -187500.02, -187500.02, -148990.89, -187500.02, -187500.02, 0.000, 0.000, 0.000, 15:06:52.847
144, 32792.46, 32330.54, -187500.02, -187500.02, -187500.02, -149002.78, -187500.02, -187500.02, 0.000, 0.000, 0.000, 15:06:52.847
145, 32677.02, 32431.29, -187500.02, -187500.02, -187500.02, -148794.42, -187500.02, -187500.02, 0.000, 0.000, 0.000, 15:06:52.847
146, 32542.57, 32388.41, -187500.02, -187500.02, -187500.02, -148537.86, -187500.02, -187500.02, 0.000, 0.000, 0.000, 15:06:52.847
147, 32663.97, 32130.05, -187500.02, -187500.02, -187500.02, -148788.67, -187500.02, -187500.02, 0.000, 0.000, 0.000, 15:06:52.848
148, 32833.23, 32155.11, -187500.02, -187500.02, -187500.02, -149055.94, -187500.02, -187500.02, 0.000, 0.000, 0.000, 15:06:52.848
