%OpenBCI Raw EEG Data
%
%Sample Rate = 250.0 Hz
%First Column = SampleIndex
%Last Column = Timestamp 
%Other Columns = EEG data in microvolts followed by Accel Data (in G) interleaved with Aux Data
0, -14809.06, 13921.05, -187500.02, -187500.02, -187500.02, -145652.80, -187500.02, -187500.02, 0.004, -0.010, 0.512, 17:34:25.545
1, -14390.34, 14349.77, -187500.02, -187500.02, -187500.02, -145909.72, -187500.02, -187500.02, 0.000, 0.000, 0.000, 17:34:25.546
2, -14532.03, 14393.12, -187500.02, -187500.02, -187500.02, -145881.38, -187500.02, -187500.02, 0.000, 0.000, 0.000, 17:34:25.546
3, -15034.39, 14245.82, -187500.02, -187500.02, -187500.02, -145542.13, -187500.02, -187500.02, 0.000, 0.000, 0.000, 17:34:25.546
4, -15420.22, 13825.54, -187500.02, -187500.02, -187500.02, -145332.88, -187500.02, -187500.02, 0.000, 0.000, 0.000, 17:34:25.546
5, -14814.22, 13917.69, -187500.02, -187500.02, -187500.02, -145685.84, -187500.02, -187500.02, 0.000, 0.000, 0.000, 17:34:25.546
6, -14397.21, 14345.21, -187500.02, -187500.02, -187500.02, -145887.17, -187500.02, -187500.02, 0.000, 0.000, 0.000, 17:34:25.546
7, -14520.41, 14406.21, -187500.02, -187500.02, -187500.02, -145889.39, -187500.02, -187500.02, -0.004, -0.020, 1.028, 17:34:25.546
8, -15024.89, 14254.96, -187500.02, -187500.02, -187500.02, -145565.89, -187500.02, -187500.02, 0.000, 0.000, 0.000, 17:34:25.546
9, -15425.23, 13820.87, -187500.02, -187500.02, -187500.02, -145318.67, -187500.02, -187500.02, 0.000, 0.000, 0.000, 17:34:25.547
10, -14810.76, 13917.78, -187500.02, -187500.02, -187500.02, -145646.73, -187500.02, -187500.02, 0.000, 0.000, 0.000, 17:34:25.547
11, -14391.26, 14342.80, -187500.02, -187500.02, -187500.02, -145877.66, -187500.02, -187500.02, 0.000, 0.000, 0.000, 17:34:25.547
12, -14525.55, 14395.66, -187500.02, -187500.02, -187500.02, -145844.13, -187500.02, -187500.02, 0.000, 0.000, 0.000, 17:34:25.547
13, -15017.62, 14255.81, -187500.02, -187500.02, -187500.02, -145504.48, -187500.02, -187500.02, 0.000, 0.000, 0.000, 17:34:25.547
14, -15409.07, 13833.34, -187500.02, -187500.02, -187500.02, -145277.77, -187500.02, -187500.02, 0.000, 0.000, 0.000, 17:34:25.547
15, -14800.48, 13929.41, -187500.02, -187500.02, -187500.02, -145633.97, -187500.02, -187500.02, 0.000, 0.000, 0.000, 17:34:25.547
16, -14376.31, 14356.66, -187500.02, -187500.02, -187500.02, -145906.23, -187500.02, -187500.02, -0.018, -0.068, 1.024, 17:34:25.547
17, -14502.06, 14413.39, -187500.02, -187500.02, -187500.02, -145908.94, -187500.02, -187500.02, 0.000, 0.000, 0.000, 17:34:25.548
18, -15010.45, 14259.34, -187500.02, -187500.02, -187500.02, -145537.92, -187500.02, -187500.02, 0.000, 0.000, 0.000, 17:34:25.548
19, -15420.74, 13821.87, -187500.02, -187500.02, -187500.02, -145294.92, -187500.02, -187500.02, 0.000, 0.000, 0.000, 17:34:25.548
20, -14806.33, 13922.01, -187500.02, -187500.02, -187500.02, -145650.42, -187500.02, -187500.02, 0.000, 0.000, 0.000, 17:34:25.548
21, -14369.13, 14361.06, -187500.02, -187500.02, -187500.02, -145929.19, -187500.02, -187500.02, 0.000, 0.000, 0.000, 17:34:25.548
22, -14508.25, 14405.32, -187500.02, -187500.02, -187500.02, -145926.63, -187500.02, -187500.02, 0.000, 0.000, 0.000, 17:34:25.548
23, -15014.47, 14250.49, -187500.02, -187500.02, -187500.02, -145575.61, -187500.02, -187500.02, 0.000, 0.000, 0.000, 17:34:25.548
24, -15431.67, 13808.48, -187500.02, -187500.02, -187500.02, -145312.47, -187500.02, -187500.02, 0.000, 0.000, 0.000, 17:34:25.548
25, -14819.74, 13906.52, -187500.02, -187500.02, -187500.02, -145650.09, -187500.02, -187500.02, 0.000, 0.000, 0.000, 17:34:25.548
26, -14382.12, 14348.12, -187500.02, -187500.02, -187500.02, -145928.86, -187500.02, -187500.02, -0.010, -0.032, 1.016, 17:34:25.549
27, -14509.66, 14403.26, -187500.02, -187500.02, -187500.02, -145918.16, -187500.02, -187500.02, 0.000, 0.000, 0.000, 17:34:25.549
28, -15014.31, 14250.11, -187500.02, -187500.02, -187500.02, -145533.81, -187500.02, -187500.02, 0.000, 0.000, 0.000, 17:34:25.549
29, -15418.17, 13827.55, -187500.02, -187500.02, -187500.02, -145324.20, -187500.02, -187500.02, 0.000, 0.000, 0.000, 17:34:25.549
30, -14810.42, 13922.14, -187500.02, -187500.02, -187500.02, -145702.13, -187500.02, -187500.02, 0.000, 0.000, 0.000, 17:34:25.549
31, -14381.29, 14350.69, -187500.02, -187500.02, -187500.02, -145933.22, -187500.02, -187500.02, 0.000, 0.000, 0.000, 17:34:25.549
32, -14501.83, 14410.08, -187500.02, -187500.02, -187500.02, -145910.38, -187500.02, -187500.02, 0.000, 0.000, 0.000, 17:34:25.549
33, -15000.03, 14261.62, -187500.02, -187500.02, -187500.02, -145561.58, -187500.02, -187500.02, 0.000, 0.000, 0.000, 17:34:25.549
34, -15417.65, 13834.17, -187500.02, -187500.02, -187500.02, -145333.19, -187500.02, -187500.02, 0.000, 0.000, 0.000, 17:34:25.549
35, -14817.69, 13912.69, -187500.02, -187500.02, -187500.02, -145685.63, -187500.02, -187500.02, 0.000, 0.000, 0.000, 17:34:25.550
36, -14374.72, 14345.17, -187500.02, -187500.02, -187500.02, -145915.33, -187500.02, -187500.02, 0.000, -0.024, 1.024, 17:34:25.550
37, -14491.95, 14409.30, -187500.02, -187500.02, -187500.02, -145961.78, -187500.02, -187500.02, 0.000, 0.000, 0.000, 17:34:25.550
38, -15005.66, 14247.27, -187500.02, -187500.02, -187500.02, -145633.28, -187500.02, -187500.02, 0.000, 0.000, 0.000, 17:34:25.550
39, -15426.59, 13816.64, -187500.02, -187500.02, -187500.02, -145363.16, -187500.02, -187500.02, 0.000, 0.000, 0.000, 17:34:25.550
40, -14826.13, 13901.58, -187500.02, -187500.02, -187500.02, -145698.70, -187500.02, -187500.02, 0.000, 0.000, 0.000, 17:34:25.550
41, -14370.41, 14347.23, -187500.02, -187500.02, -187500.02, -145962.14, -187500.02, -187500.02, 0.000, 0.000, 0.000, 17:34:25.550
42, -14507.42, 14388.40, -187500.02, -187500.02, -187500.02, -145968.20, -187500.02, -187500.02, 0.000, 0.000, 0.000, 17:34:25.550
43, -15009.75, 14241.84, -187500.02, -187500.02, -187500.02, -145601.25, -187500.02, -187500.02, 0.000, 0.000, 0.000, 17:34:25.551
44, -15437.41, 13804.46, -187500.02, -187500.02, -187500.02, -145356.39, -187500.02, -187500.02, 0.000, 0.000, 0.000, 17:34:25.551
45, -14836.55, 13888.99, -187500.02, -187500.02, -187500.02, -145715.73, -187500.02, -187500.02, 0.000, 0.000, 0.000, 17:34:25.551
46, -14392.78, 14326.82, -187500.02, -187500.02, -187500.02, -145956.97, -187500.02, -187500.02, 0.004, -0.022, 1.022, 17:34:25.551
47, -14516.50, 14387.06, -187500.02, -187500.02, -187500.02, -145952.34, -187500.02, -187500.02, 0.000, 0.000, 0.000, 17:34:25.551
48, -15019.83, 14233.28, -187500.02, -187500.02, -187500.02, -145586.67, -187500.02, -187500.02, 0.000, 0.000, 0.000, 17:34:25.551
49, -15439.56, 13804.86, -187500.02, -187500.02, -187500.02, -145317.47, -187500.02, -187500.02, 0.000, 0.000, 0.000, 17:34:25.551
50, -14826.83, 13898.85, -187500.02, -187500.02, -187500.02, -145679.70, -187500.02, -187500.02, 0.000, 0.000, 0.000, 17:34:25.551
51, -14389.78, 14323.67, -187500.02, -187500.02, -187500.02, -145908.56, -187500.02, -187500.02, 0.000, 0.000, 0.000, 17:34:25.551
52, -14517.21, 14374.12, -187500.02, -187500.02, -187500.02, -145927.42, -187500.02, -187500.02, 0.000, 0.000, 0.000, 17:34:25.552
53, -15009.80, 14231.38, -187500.02, -187500.02, -187500.02, -145590.39, -187500.02, -187500.02, 0.000, 0.000, 0.000, 17:34:25.552
54, -15434.35, 13802.72, -187500.02, -187500.02, -187500.02, -145337.50, -187500.02, -187500.02, 0.000, 0.000, 0.000, 17:34:25.552
55, -14834.94, 13881.35, -187500.02, -187500.02, -187500.02, -145686.08, -187500.02, -187500.02, 0.000, 0.000, 0.000, 17:34:25.552
56, -14386.74, 14320.16, -187500.02, -187500.02, -187500.02, -145915.06, -187500.02, -187500.02, 0.000, -0.020, 1.028, 17:34:25.552
57, -14505.12, 14387.28, -187500.02, -187500.02, -187500.02, -145905.20, -187500.02, -187500.02, 0.000, 0.000, 0.000, 17:34:25.552
58, -14986.11, 14257.19, -187500.02, -187500.02, -187500.02, -145597.67, -187500.02, -187500.02, 0.000, 0.000, 0.000, 17:34:25.552
59, -15417.90, 13820.64, -187500.02, -187500.02, -187500.02, -145364.00, -187500.02, -187500.02, 0.000, 0.000, 0.000, 17:34:25.552
60, -14837.42, 13879.52, -187500.02, -187500.02, -187500.02, -145667.83, -187500.02, -187500.02, 0.000, 0.000, 0.000, 17:34:25.553
61, -14387.06, 14318.37, -187500.02, -187500.02, -187500.02, -145908.06, -187500.02, -187500.02, 0.000, 0.000, 0.000, 17:34:25.553
62, -14505.19, 14377.76, -187500.02, -187500.02, -187500.02, -145920.97, -187500.02, -187500.02, 0.000, 0.000, 0.000, 17:34:25.553
63, -14991.67, 14239.51, -187500.02, -187500.02, -187500.02, -145584.53, -187500.02, -187500.02, 0.000, 0.000, 0.000, 17:34:25.554
64, -15425.45, 13809.42, -187500.02, -187500.02, -187500.02, -145323.64, -187500.02, -187500.02, 0.000, 0.000, 0.000, 17:34:25.554
65, -14829.29, 13878.58, -187500.02, -187500.02, -187500.02, -145673.06, -187500.02, -187500.02, 0.000, 0.000, 0.000, 17:34:25.554
66, -14372.42, 14320.40, -187500.02, -187500.02, -187500.02, -145942.47, -187500.02, -187500.02, 0.004, -0.018, 1.024, 17:34:25.554
67, -14491.69, 14384.60, -187500.02, -187500.02, -187500.02, -145963.30, -187500.02, -187500.02, 0.000, 0.000, 0.000, 17:34:25.554
68, -14981.79, 14244.83, -187500.02, -187500.02, -187500.02, -145646.98, -187500.02, -187500.02, 0.000, 0.000, 0.000, 17:34:25.554
69, -15418.14, 13817.58, -187500.02, -187500.02, -187500.02, -145397.41, -187500.02, -187500.02, 0.000, 0.000, 0.000, 17:34:25.554
70, -14832.55, 13877.95, -187500.02, -187500.02, -187500.02, -145709.59, -187500.02, -187500.02, 0.000, 0.000, 0.000, 17:34:25.554
71, -14370.27, 14322.33, -187500.02, -187500.02, -187500.02, -145952.75, -187500.02, -187500.02, 0.000, 0.000, 0.000, 17:34:25.555
72, -14494.82, 14385.16, -187500.02, -187500.02, -187500.02, -145964.64, -187500.02, -187500.02, 0.000, 0.000, 0.000, 17:34:25.555
73, -14987.20, 14245.06, -187500.02, -187500.02, -187500.02, -145645.81, -187500.02, -187500.02, 0.000, 0.000, 0.000, 17:34:25.555
74, -15427.71, 13814.00, -187500.02, -187500.02, -187500.02, -145372.25, -187500.02, -187500.02, 0.000, 0.000, 0.000, 17:34:25.555
75, -14828.88, 13885.71, -187500.02, -187500.02, -187500.02, -145728.20, -187500.02, -187500.02, 0.000, 0.000, 0.000, 17:34:25.555
76, -14365.93, 14327.00, -187500.02, -187500.02, -187500.02, -145991.28, -187500.02, -187500.02, -0.004, -0.016, 1.026, 17:34:25.555
77, -14483.86, 14392.53, -187500.02, -187500.02, -187500.02, -145980.58, -187500.02, -187500.02, 0.000, 0.000, 0.000, 17:34:25.555
78, -14965.77, 14259.65, -187500.02, -187500.02, -187500.02, -145637.91, -187500.02, -187500.02, 0.000, 0.000, 0.000, 17:34:25.555
79, -15409.92, 13830.99, -187500.02, -187500.02, -187500.02, -145395.86, -187500.02, -187500.02, 0.000, 0.000, 0.000, 17:34:25.556
80, -14836.95, 13878.96, -187500.02, -187500.02, -187500.02, -145742.25, -187500.02, -187500.02, 0.000, 0.000, 0.000, 17:34:25.556
81, -14364.88, 14330.64, -187500.02, -187500.02, -187500.02, -145959.55, -187500.02, -187500.02, 0.000, 0.000, 0.000, 17:34:25.556
82, -14476.73, 14403.37, -187500.02, -187500.02, -187500.02, -145985.56, -187500.02, -187500.02, 0.000, 0.000, 0.000, 17:34:25.556
83, -14970.86, 14260.99, -187500.02, -187500.02, -187500.02, -145632.36, -187500.02, -187500.02, 0.000, 0.000, 0.000, 17:34:25.556
84, -15421.12, 13822.90, -187500.02, -187500.02, -187500.02, -145379.94, -187500.02, -187500.02, 0.000, 0.000, 0.000, 17:34:25.556
85, -14847.68, 13865.41, -187500.02, -187500.02, -187500.02, -145716.41, -187500.02, -187500.02, 0.000, 0.000, 0.000, 17:34:25.556
86, -14381.27, 14313.68, -187500.02, -187500.02, -187500.02, -145949.05, -187500.02, -187500.02, 0.006, -0.020, 1.028, 17:34:25.556
87, -14499.20, 14385.69, -187500.02, -187500.02, -187500.02, -145974.41, -187500.02, -187500.02, 0.000, 0.000, 0.000, 17:34:25.557
88, -14986.49, 14248.95, -187500.02, -187500.02, -187500.02, -145660.06, -187500.02, -187500.02, 0.000, 0.000, 0.000, 17:34:25.557
89, -15438.19, 13807.54, -187500.02, -187500.02, -187500.02, -145404.55, -187500.02, -187500.02, 0.000, 0.000, 0.000, 17:34:25.557
90, -14856.22, 13856.83, -187500.02, -187500.02, -187500.02, -145743.89, -187500.02, -187500.02, 0.000, 0.000, 0.000, 17:34:25.557
91, -14377.07, 14311.42, -187500.02, -187500.02, -187500.02, -145996.27, -187500.02, -187500.02, 0.000, 0.000, 0.000, 17:34:25.557
92, -14493.59, 14381.76, -187500.02, -187500.02, -187500.02, -146005.69, -187500.02, -187500.02, 0.000, 0.000, 0.000, 17:34:25.557
93, -14987.31, 14241.19, -187500.02, -187500.02, -187500.02, -145665.52, -187500.02, -187500.02, 0.000, 0.000, 0.000, 17:34:25.557
94, -15439.80, 13809.38, -187500.02, -187500.02, -187500.02, -145385.55, -187500.02, -187500.02, 0.000, 0.000, 0.000, 17:34:25.558
95, -14846.97, 13867.98, -187500.02, -187500.02, -187500.02, -145746.36, -187500.02, -187500.02, 0.000, 0.000, 0.000, 17:34:25.558
96, -14363.97, 14324.65, -187500.02, -187500.02, -187500.02, -146030.95, -187500.02, -187500.02, 0.010, -0.016, 1.024, 17:34:25.558
97, -14477.38, 14394.46, -187500.02, -187500.02, -187500.02, -146051.28, -187500.02, -187500.02, 0.000, 0.000, 0.000, 17:34:25.558
98, -14958.88, 14265.80, -187500.02, -187500.02, -187500.02, -145701.63, -187500.02, -187500.02, 0.000, 0.000, 0.000, 17:34:25.558
99, -15419.66, 13831.95, -187500.02, -187500.02, -187500.02, -145453.61, -187500.02, -187500.02, 0.000, 0.000, 0.000, 17:34:25.558
100, -14852.49, 13864.03, -187500.02, -187500.02, -187500.02, -145778.67, -187500.02, -187500.02, 0.000, 0.000, 0.000, 17:34:25.558
101, -14356.39, 14331.36, -187500.02, -187500.02, -187500.02, -146003.41, -187500.02, -187500.02, 0.000, 0.000, 0.000, 17:34:25.558
102, -14457.20, 14414.28, -187500.02, -187500.02, -187500.02, -145993.28, -187500.02, -187500.02, 0.000, 0.000, 0.000, 17:34:25.559
103, -14947.44, 14277.67, -187500.02, -187500.02, -187500.02, -145684.00, -187500.02, -187500.02, 0.000, 0.000, 0.000, 17:34:25.559
104, -15408.04, 13845.56, -187500.02, -187500.02, -187500.02, -145459.84, -187500.02, -187500.02, 0.000, 0.000, 0.000, 17:34:25.559
105, -14835.59, 13879.23, -187500.02, -187500.02, -187500.02, -145812.16, -187500.02, -187500.02, 0.000, 0.000, 0.000, 17:34:25.559
106, -14350.80, 14332.52, -187500.02, -187500.02, -187500.02, -146047.17, -187500.02, -187500.02, 0.008, -0.016, 1.032, 17:34:25.559
107, -14464.86, 14405.05, -187500.02, -187500.02, -187500.02, -146057.06, -187500.02, -187500.02, 0.000, 0.000, 0.000, 17:34:25.559
108, -14956.16, 14267.41, -187500.02, -187500.02, -187500.02, -145743.73, -187500.02, -187500.02, 0.000, 0.000, 0.000, 17:34:25.559
109, -15436.27, 13822.05, -187500.02, -187500.02, -187500.02, -145464.45, -187500.02, -187500.02, 0.000, 0.000, 0.000, 17:34:25.559
110, -14867.46, 13849.12, -187500.02, -187500.02, -187500.02, -145769.48, -187500.02, -187500.02, 0.000, 0.000, 0.000, 17:34:25.560
111, -14379.37, 14298.14, -187500.02, -187500.02, -187500.02, -145988.33, -187500.02, -187500.02, 0.000, 0.000, 0.000, 17:34:25.560
112, -14480.67, 14383.35, -187500.02, -187500.02, -187500.02, -146023.20, -187500.02, -187500.02, 0.000, 0.000, 0.000, 17:34:25.560
113, -14973.08, 14249.26, -187500.02, -187500.02, -187500.02, -145709.92, -187500.02, -187500.02, 0.000, 0.000, 0.000, 17:34:25.560
114, -15453.86, 13800.95, -187500.02, -187500.02, -187500.02, -145433.55, -187500.02, -187500.02, 0.000, 0.000, 0.000, 17:34:25.560
115, -14878.44, 13831.68, -187500.02, -187500.02, -187500.02, -145768.39, -187500.02, -187500.02, 0.000, 0.000, 0.000, 17:34:25.560
116, -14376.60, 14296.60, -187500.02, -187500.02, -187500.02, -146017.50, -187500.02, -187500.02, 0.004, -0.020, 1.028, 17:34:25.560
117, -14480.38, 14373.76, -187500.02, -187500.02, -187500.02, -146023.42, -187500.02, -187500.02, 0.000, 0.000, 0.000, 17:34:25.560
118, -14962.03, 14245.62, -187500.02, -187500.02, -187500.02, -145706.97, -187500.02, -187500.02, 0.000, 0.000, 0.000, 17:34:25.560
119, -15432.09, 13817.92, -187500.02, -187500.02, -187500.02, -145447.77, -187500.02, -187500.02, 0.000, 0.000, 0.000, 17:34:25.561
120, -14857.94, 13854.79, -187500.02, -187500.02, -187500.02, -145800.47, -187500.02, -187500.02, 0.000, 0.000, 0.000, 17:34:26.029
121, -14353.04, 14319.73, -187500.02, -187500.02, -187500.02, -146046.61, -187500.02, -187500.02, 0.000, 0.000, 0.000, 17:34:26.030
122, -14457.35, 14403.24, -187500.02, -187500.02, -187500.02, -146053.80, -187500.02, -187500.02, 0.000, 0.000, 0.000, 17:34:26.030
123, -14927.03, 14288.42, -187500.02, -187500.02, -187500.02, -145754.11, -187500.02, -187500.02, 0.000, 0.000, 0.000, 17:34:26.030
124, -15411.75, 13848.72, -187500.02, -187500.02, -187500.02, -145487.34, -187500.02, -187500.02, 0.000, 0.000, 0.000, 17:34:26.030
125, -14853.45, 13864.79, -187500.02, -187500.02, -187500.02, -145795.53, -187500.02, -187500.02, 0.000, 0.000, 0.000, 17:34:26.030
126, -14344.54, 14330.73, -187500.02, -187500.02, -187500.02, -146061.63, -187500.02, -187500.02, 0.004, -0.018, 1.026, 17:34:26.030
127, -14449.98, 14406.35, -187500.02, -187500.02, -187500.02, -146060.38, -187500.02, -187500.02, 0.000, 0.000, 0.000, 17:34:26.030
128, -14931.84, 14280.37, -187500.02, -187500.02, -187500.02, -145709.20, -187500.02, -187500.02, 0.000, 0.000, 0.000, 17:34:26.030
129, -15411.06, 13849.23, -187500.02, -187500.02, -187500.02, -145394.20, -187500.02, -187500.02, 0.000, 0.000, 0.000, 17:34:26.031
130, -14838.27, 13877.01, -187500.02, -187500.02, -187500.02, -145793.47, -187500.02, -187500.02, 0.000, 0.000, 0.000, 17:34:26.031
131, -14334.40, 14334.51, -187500.02, -187500.02, -187500.02, -146102.44, -187500.02, -187500.02, 0.000, 0.000, 0.000, 17:34:26.031
132, -14447.14, 14409.92, -187500.02, -187500.02, -187500.02, -146121.39, -187500.02, -187500.02, 0.000, 0.000, 0.000, 17:34:26.031
133, -14942.30, 14270.54, -187500.02, -187500.02, -187500.02, -145780.31, -187500.02, -187500.02, 0.000, 0.000, 0.000, 17:34:26.031
134, -15434.28, 13826.57, -187500.02, -187500.02, -187500.02, -145509.61, -187500.02, -187500.02, 0.000, 0.000, 0.000, 17:34:26.031
135, -14857.81, 13853.57, -187500.02, -187500.02, -187500.02, -145850.20, -187500.02, -187500.02, 0.000, 0.000, 0.000, 17:34:26.031
136, -14347.94, 14316.47, -187500.02, -187500.02, -187500.02, -146129.13, -187500.02, -187500.02, 0.008, -0.018, 1.024, 17:34:26.031
137, -14457.15, 14394.50, -187500.02, -187500.02, -187500.02, -146138.97, -187500.02, -187500.02, 0.000, 0.000, 0.000, 17:34:26.032
138, -14947.73, 14255.00, -187500.02, -187500.02, -187500.02, -145780.69, -187500.02, -187500.02, 0.000, 0.000, 0.000, 17:34:26.032
139, -15441.46, 13817.80, -187500.02, -187500.02, -187500.02, -145488.22, -187500.02, -187500.02, 0.000, 0.000, 0.000, 17:34:26.032
140, -14873.21, 13844.42, -187500.02, -187500.02, -187500.02, -145798.92, -187500.02, -187500.02, 0.000, 0.000, 0.000, 17:34:26.032
141, -14353.66, 14315.60, -187500.02, -187500.02, -187500.02, -146061.20, -187500.02, -187500.02, 0.000, 0.000, 0.000, 17:34:26.032
142, -14449.78, 14406.44, -187500.02, -187500.02, -187500.02, -146105.03, -187500.02, -187500.02, 0.000, 0.000, 0.000, 17:34:26.032
143, -14938.88, 14270.34, -187500.02, -187500.02, -187500.02, -145764.97, -187500.02, -187500.02, 0.000, 0.000, 0.000, 17:34:26.032
144, -15427.42, 13838.66, -187500.02, -187500.02, -187500.02, -145473.02, -187500.02, -187500.02, 0.000, 0.000, 0.000, 17:34:26.032
145, -14838.70, 13882.87, -187500.02, -187500.02, -187500.02, -145805.77, -187500.02, -187500.02, 0.006, -0.012, 1.030, 17:34:26.032
146, -14320.40, 14346.44, -187500.02, -187500.02, -187500.02, -146106.70, -187500.02, -187500.02, 0.000, 0.000, 0.000, 17:34:26.033
147, -14417.86, 14432.92, -187500.02, -187500.02, -187500.02, -146118.47, -187500.02, -187500.02, 0.000, 0.000, 0.000, 17:34:26.033
148, -14917.02, 14282.36, -187500.02, -187500.02, -187500.02, -145762.41, -187500.02, -187500.02, 0.000, 0.000, 0.000, 17:34:26.033
149, -15417.09, 13844.58, -187500.02, -187500.02, -187500.02, -145453.86, -187500.02, -187500.02, 0.000, 0.000, 0.000, 17:34:26.033
150, -14844.55, 13874.96, -187500.02, -187500.02, -187500.02, -145800.52, -187500.02, -187500.02, 0.000, 0.000, 0.000, 17:34:26.033
151, -14330.40, 14333.32, -187500.02, -187500.02, -187500.02, -146073.94, -187500.02, -187500.02, 0.000, 0.000, 0.000, 17:34:26.033
152, -14433.39, 14414.39, -187500.02, -187500.02, -187500.02, -146093.64, -187500.02, -187500.02, 0.000, 0.000, 0.000, 17:34:26.033
153, -14923.12, 14273.33, -187500.02, -187500.02, -187500.02, -145783.44, -187500.02, -187500.02, 0.000, 0.000, 0.000, 17:34:26.033
154, -15431.13, 13829.58, -187500.02, -187500.02, -187500.02, -145511.27, -187500.02, -187500.02, 0.000, 0.000, 0.000, 17:34:26.034
155, -14863.17, 13857.99, -187500.02, -187500.02, -187500.02, -145823.80, -187500.02, -187500.02, 0.004, -0.014, 1.032, 17:34:26.034
156, -14351.05, 14310.12, -187500.02, -187500.02, -187500.02, -146067.28, -187500.02, -187500.02, 0.000, 0.000, 0.000, 17:34:26.034
157, -14447.56, 14396.45, -187500.02, -187500.02, -187500.02, -146070.34, -187500.02, -187500.02, 0.000, 0.000, 0.000, 17:34:26.034
158, -14929.51, 14262.71, -187500.02, -187500.02, -187500.02, -145751.72, -187500.02, -187500.02, 0.000, 0.000, 0.000, 17:34:26.034
159, -15437.01, 13821.42, -187500.02, -187500.02, -187500.02, -145449.23, -187500.02, -187500.02, 0.000, 0.000, 0.000, 17:34:26.034
160, -14860.76, 13853.63, -187500.02, -187500.02, -187500.02, -145797.83, -187500.02, -187500.02, 0.000, 0.000, 0.000, 17:34:26.034
161, -14327.45, 14330.60, -187500.02, -187500.02, -187500.02, -146124.33, -187500.02, -187500.02, 0.000, 0.000, 0.000, 17:34:26.034
162, -14428.10, 14413.72, -187500.02, -187500.02, -187500.02, -146171.55, -187500.02, -187500.02, 0.000, 0.000, 0.000, 17:34:26.034
163, -14920.75, 14266.22, -187500.02, -187500.02, -187500.02, -145831.47, -187500.02, -187500.02, 0.000, 0.000, 0.000, 17:34:26.035
164, -15432.11, 13824.33, -187500.02, -187500.02, -187500.02, -145528.94, -187500.02, -187500.02, 0.000, 0.000, 0.000, 17:34:26.035
165, -14872.27, 13843.26, -187500.02, -187500.02, -187500.02, -145825.64, -187500.02, -187500.02, 0.000, -0.012, 1.030, 17:34:26.035
166, -14342.67, 14315.40, -187500.02, -187500.02, -187500.02, -146056.02, -187500.02, -187500.02, 0.000, 0.000, 0.000, 17:34:26.035
167, -14426.89, 14417.43, -187500.02, -187500.02, -187500.02, -146109.53, -187500.02, -187500.02, 0.000, 0.000, 0.000, 17:34:26.035
168, -14900.48, 14286.00, -187500.02, -187500.02, -187500.02, -145818.00, -187500.02, -187500.02, 0.000, 0.000, 0.000, 17:34:26.035
169, -15405.58, 13856.00, -187500.02, -187500.02, -187500.02, -145549.33, -187500.02, -187500.02, 0.000, 0.000, 0.000, 17:34:26.035
170, -14846.61, 13877.71, -187500.02, -187500.02, -187500.02, -145862.83, -187500.02, -187500.02, 0.000, 0.000, 0.000, 17:34:26.035
171, -14307.82, 14348.75, -187500.02, -187500.02, -187500.02, -146132.09, -187500.02, -187500.02, 0.000, 0.000, 0.000, 17:34:26.035
172, -14404.76, 14432.39, -187500.02, -187500.02, -187500.02, -146156.47, -187500.02, -187500.02, 0.000, 0.000, 0.000, 17:34:26.035
173, -14886.66, 14294.52, -187500.02, -187500.02, -187500.02, -145839.19, -187500.02, -187500.02, 0.000, 0.000, 0.000, 17:34:26.035
174, -15406.41, 13848.98, -187500.02, -187500.02, -187500.02, -145519.63, -187500.02, -187500.02, 0.000, 0.000, 0.000, 17:34:26.035
175, -14850.32, 13870.91, -187500.02, -187500.02, -187500.02, -145839.58, -187500.02, -187500.02, 0.004, -0.018, 1.022, 17:34:26.035
176, -14327.98, 14330.64, -187500.02, -187500.02, -187500.02, -146106.33, -187500.02, -187500.02, 0.000, 0.000, 0.000, 17:34:26.036
177, -14421.97, 14416.43, -187500.02, -187500.02, -187500.02, -146129.70, -187500.02, -187500.02, 0.000, 0.000, 0.000, 17:34:26.036
178, -14906.47, 14273.15, -187500.02, -187500.02, -187500.02, -145848.30, -187500.02, -187500.02, 0.000, 0.000, 0.000, 17:34:26.036
179, -15438.75, 13821.45, -187500.02, -187500.02, -187500.02, -145536.72, -187500.02, -187500.02, 0.000, 0.000, 0.000, 17:34:26.036
180, -14886.53, 13838.75, -187500.02, -187500.02, -187500.02, -145861.58, -187500.02, -187500.02, 0.000, 0.000, 0.000, 17:34:26.036
181, -14354.13, 14302.34, -187500.02, -187500.02, -187500.02, -146126.00, -187500.02, -187500.02, 0.000, 0.000, 0.000, 17:34:26.036
182, -14443.38, 14389.05, -187500.02, -187500.02, -187500.02, -146137.42, -187500.02, -187500.02, 0.000, 0.000, 0.000, 17:34:26.036
183, -14914.11, 14258.11, -187500.02, -187500.02, -187500.02, -145836.44, -187500.02, -187500.02, 0.000, 0.000, 0.000, 17:34:26.036
184, -15438.66, 13818.16, -187500.02, -187500.02, -187500.02, -145531.27, -187500.02, -187500.02, 0.000, 0.000, 0.000, 17:34:26.037
185, -14881.84, 13838.68, -187500.02, -187500.02, -187500.02, -145823.47, -187500.02, -187500.02, 0.006, -0.012, 1.024, 17:34:26.037
186, -14339.34, 14312.13, -187500.02, -187500.02, -187500.02, -146065.16, -187500.02, -187500.02, 0.000, 0.000, 0.000, 17:34:26.037
187, -14422.84, 14409.90, -187500.02, -187500.02, -187500.02, -146124.48, -187500.02, -187500.02, 0.000, 0.000, 0.000, 17:34:26.037
188, -14894.13, 14278.43, -187500.02, -187500.02, -187500.02, -145828.16, -187500.02, -187500.02, 0.000, 0.000, 0.000, 17:34:26.037
189, -15418.21, 13840.22, -187500.02, -187500.02, -187500.02, -145504.58, -187500.02, -187500.02, 0.000, 0.000, 0.000, 17:34:26.037
190, -14859.77, 13864.92, -187500.02, -187500.02, -187500.02, -145804.22, -187500.02, -187500.02, 0.000, 0.000, 0.000, 17:34:26.037
191, -14315.22, 14338.15, -187500.02, -187500.02, -187500.02, -146085.34, -187500.02, -187500.02, 0.000, 0.000, 0.000, 17:34:26.038
192, -14403.91, 14432.23, -187500.02, -187500.02, -187500.02, -146100.14, -187500.02, -187500.02, 0.000, 0.000, 0.000, 17:34:26.038
193, -14870.75, 14300.91, -187500.02, -187500.02, -187500.02, -145816.56, -187500.02, -187500.02, 0.000, 0.000, 0.000, 17:34:26.038
194, -15394.79, 13864.16, -187500.02, -187500.02, -187500.02, -145510.95, -187500.02, -187500.02, 0.000, 0.000, 0.000, 17:34:26.038
195, -14832.15, 13894.13, -187500.02, -187500.02, -187500.02, -145830.86, -187500.02, -187500.02, 0.010, -0.016, 1.026, 17:34:26.038
196, -14281.78, 14371.61, -187500.02, -187500.02, -187500.02, -146162.97, -187500.02, -187500.02, 0.000, 0.000, 0.000, 17:34:26.038
197, -14381.47, 14452.97, -187500.02, -187500.02, -187500.02, -146194.00, -187500.02, -187500.02, 0.000, 0.000, 0.000, 17:34:26.038
198, -14867.20, 14305.29, -187500.02, -187500.02, -187500.02, -145909.50, -187500.02, -187500.02, 0.000, 0.000, 0.000, 17:34:26.038
199, -15418.41, 13845.65, -187500.02, -187500.02, -187500.02, -145602.59, -187500.02, -187500.02, 0.000, 0.000, 0.000, 17:34:26.038
200, -14868.13, 13863.89, -187500.02, -187500.02, -187500.02, -145901.66, -187500.02, -187500.02, 0.000, 0.000, 0.000, 17:34:26.039
201, -14321.70, 14335.04, -187500.02, -187500.02, -187500.02, -146188.70, -187500.02, -187500.02, 0.000, 0.000, 0.000, 17:34:26.039
202, -14425.50, 14409.74, -187500.02, -187500.02, -187500.02, -146185.36, -187500.02, -187500.02, 0.000, 0.000, 0.000, 17:34:26.039
203, -14902.15, 14265.22, -187500.02, -187500.02, -187500.02, -145868.06, -187500.02, -187500.02, 0.000, 0.000, 0.000, 17:34:26.039
204, -15436.58, 13823.86, -187500.02, -187500.02, -187500.02, -145542.50, -187500.02, -187500.02, 0.000, 0.000, 0.000, 17:34:26.039
205, -14883.74, 13844.74, -187500.02, -187500.02, -187500.02, -145858.92, -187500.02, -187500.02, 0.008, -0.018, 1.024, 17:34:26.039
206, -14328.52, 14324.79, -187500.02, -187500.02, -187500.02, -146160.05, -187500.02, -187500.02, 0.000, 0.000, 0.000, 17:34:26.039
207, -14415.22, 14415.87, -187500.02, -187500.02, -187500.02, -146204.30, -187500.02, -187500.02, 0.000, 0.000, 0.000, 17:34:26.039
208, -14892.47, 14267.61, -187500.02, -187500.02, -187500.02, -145882.72, -187500.02, -187500.02, 0.000, 0.000, 0.000, 17:34:26.040
209, -15427.98, 13827.57, -187500.02, -187500.02, -187500.02, -145538.17, -187500.02, -187500.02, 0.000, 0.000, 0.000, 17:34:26.040
210, -14872.18, 13855.80, -187500.02, -187500.02, -187500.02, -145836.72, -187500.02, -187500.02, 0.000, 0.000, 0.000, 17:34:26.040
211, -14309.27, 14339.92, -187500.02, -187500.02, -187500.02, -146115.61, -187500.02, -187500.02, 0.000, 0.000, 0.000, 17:34:26.040
212, -14392.42, 14434.55, -187500.02, -187500.02, -187500.02, -146140.08, -187500.02, -187500.02, 0.000, 0.000, 0.000, 17:34:26.040
213, -14856.73, 14301.00, -187500.02, -187500.02, -187500.02, -145862.50, -187500.02, -187500.02, 0.000, 0.000, 0.000, 17:34:26.040
214, -15397.78, 13860.74, -187500.02, -187500.02, -187500.02, -145544.92, -187500.02, -187500.02, 0.000, 0.000, 0.000, 17:34:26.040
215, -14847.79, 13882.31, -187500.02, -187500.02, -187500.02, -145875.73, -187500.02, -187500.02, 0.006, -0.018, 1.022, 17:34:26.041
216, -14293.40, 14351.88, -187500.02, -187500.02, -187500.02, -146150.09, -187500.02, -187500.02, 0.000, 0.000, 0.000, 17:34:26.041
217, -14376.37, 14448.95, -187500.02, -187500.02, -187500.02, -146176.73, -187500.02, -187500.02, 0.000, 0.000, 0.000, 17:34:26.041
218, -14845.83, 14312.72, -187500.02, -187500.02, -187500.02, -145851.39, -187500.02, -187500.02, 0.000, 0.000, 0.000, 17:34:26.041
219, -15390.02, 13870.64, -187500.02, -187500.02, -187500.02, -145552.03, -187500.02, -187500.02, 0.000, 0.000, 0.000, 17:34:26.041
220, -14853.09, 13874.64, -187500.02, -187500.02, -187500.02, -145854.11, -187500.02, -187500.02, 0.000, 0.000, 0.000, 17:34:26.041
221, -14295.26, 14350.20, -187500.02, -187500.02, -187500.02, -146130.72, -187500.02, -187500.02, 0.000, 0.000, 0.000, 17:34:26.041
222, -14380.64, 14443.47, -187500.02, -187500.02, -187500.02, -146187.91, -187500.02, -187500.02, 0.000, 0.000, 0.000, 17:34:26.042
223, -14858.54, 14294.97, -187500.02, -187500.02, -187500.02, -145890.75, -187500.02, -187500.02, 0.000, 0.000, 0.000, 17:34:26.042
224, -15416.53, 13842.19, -187500.02, -187500.02, -187500.02, -145560.30, -187500.02, -187500.02, 0.000, 0.000, 0.000, 17:34:26.042
225, -14877.23, 13851.69, -187500.02, -187500.02, -187500.02, -145896.53, -187500.02, -187500.02, 0.004, -0.018, 1.024, 17:34:26.042
226, -14301.41, 14338.20, -187500.02, -187500.02, -187500.02, -146217.06, -187500.02, -187500.02, 0.000, 0.000, 0.000, 17:34:26.042
227, -14395.51, 14422.49, -187500.02, -187500.02, -187500.02, -146245.72, -187500.02, -187500.02, 0.000, 0.000, 0.000, 17:34:26.042
228, -14871.42, 14279.84, -187500.02, -187500.02, -187500.02, -145958.36, -187500.02, -187500.02, 0.000, 0.000, 0.000, 17:34:26.042
229, -15423.62, 13835.01, -187500.02, -187500.02, -187500.02, -145634.84, -187500.02, -187500.02, 0.000, 0.000, 0.000, 17:34:26.042
230, -14887.51, 13842.48, -187500.02, -187500.02, -187500.02, -145944.53, -187500.02, -187500.02, 0.000, 0.000, 0.000, 17:34:26.042
231, -14318.55, 14323.02, -187500.02, -187500.02, -187500.02, -146218.45, -187500.02, -187500.02, 0.000, 0.000, 0.000, 17:34:26.043
232, -14401.43, 14420.07, -187500.02, -187500.02, -187500.02, -146220.95, -187500.02, -187500.02, 0.000, 0.000, 0.000, 17:34:26.043
233, -14870.44, 14277.82, -187500.02, -187500.02, -187500.02, -145879.70, -187500.02, -187500.02, 0.000, 0.000, 0.000, 17:34:26.043
234, -15411.73, 13847.75, -187500.02, -187500.02, -187500.02, -145574.63, -187500.02, -187500.02, 0.000, 0.000, 0.000, 17:34:26.043
235, -14872.45, 13860.63, -187500.02, -187500.02, -187500.02, -145905.08, -187500.02, -187500.02, 0.006, -0.016, 1.026, 17:34:26.043
236, -14298.99, 14341.13, -187500.02, -187500.02, -187500.02, -146181.56, -187500.02, -187500.02, 0.000, 0.000, 0.000, 17:34:26.043
237, -14379.64, 14437.30, -187500.02, -187500.02, -187500.02, -146183.69, -187500.02, -187500.02, 0.000, 0.000, 0.000, 17:34:26.043
238, -14845.58, 14299.66, -187500.02, -187500.02, -187500.02, -145901.23, -187500.02, -187500.02, 0.000, 0.000, 0.000, 17:34:26.043
240, -14870.26, 13858.37, -187500.02, -187500.02, -187500.02, -145888.95, -187500.02, -187500.02, 0.000, 0.000, 0.000, 17:34:26.044
241, -14281.92, 14353.31, -187500.02, -187500.02, -187500.02, -146171.44, -187500.02, -187500.02, 0.000, 0.000, 0.000, 17:34:26.511
242, -14358.94, 14454.34, -187500.02, -187500.02, -187500.02, -146228.59, -187500.02, -187500.02, 0.000, 0.000, 0.000, 17:34:26.511
243, -14836.13, 14308.04, -187500.02, -187500.02, -187500.02, -145926.84, -187500.02, -187500.02, 0.000, 0.000, 0.000, 17:34:26.511
244, -15407.44, 13854.21, -187500.02, -187500.02, -187500.02, -145591.45, -187500.02, -187500.02, 0.000, 0.000, 0.000, 17:34:26.511
245, -14885.61, 13842.52, -187500.02, -187500.02, -187500.02, -145896.47, -187500.02, -187500.02, 0.004, -0.016, 1.028, 17:34:26.512
246, -14305.16, 14325.41, -187500.02, -187500.02, -187500.02, -146173.61, -187500.02, -187500.02, 0.000, 0.000, 0.000, 17:34:26.512
247, -14384.26, 14417.46, -187500.02, -187500.02, -187500.02, -146225.36, -187500.02, -187500.02, 0.000, 0.000, 0.000, 17:34:26.512
248, -14858.25, 14270.43, -187500.02, -187500.02, -187500.02, -145945.75, -187500.02, -187500.02, 0.000, 0.000, 0.000, 17:34:26.512
249, -15431.64, 13819.28, -187500.02, -187500.02, -187500.02, -145593.41, -187500.02, -187500.02, 0.000, 0.000, 0.000, 17:34:26.512
250, -14905.26, 13818.47, -187500.02, -187500.02, -187500.02, -145878.13, -187500.02, -187500.02, 0.000, 0.000, 0.000, 17:34:26.512
251, -14310.88, 14314.12, -187500.02, -187500.02, -187500.02, -146241.73, -187500.02, -187500.02, 0.000, 0.000, 0.000, 17:34:26.512
252, -14398.26, 14405.56, -187500.02, -187500.02, -187500.02, -146253.78, -187500.02, -187500.02, 0.000, 0.000, 0.000, 17:34:26.512
253, -14859.37, 14272.95, -187500.02, -187500.02, -187500.02, -145967.41, -187500.02, -187500.02, 0.000, 0.000, 0.000, 17:34:26.513
254, -15434.24, 13825.07, -187500.02, -187500.02, -187500.02, -145630.42, -187500.02, -187500.02, 0.000, 0.000, 0.000, 17:34:26.513
255, -14905.75, 13826.25, -187500.02, -187500.02, -187500.02, -145911.69, -187500.02, -187500.02, 0.012, -0.020, 1.028, 17:34:26.513
0, -14312.69, 14318.88, -187500.02, -187500.02, -187500.02, -146207.38, -187500.02, -187500.02, 0.000, 0.000, 0.000, 17:34:26.513
1, -14378.70, 14430.13, -187500.02, -187500.02, -187500.02, -146256.13, -187500.02, -187500.02, 0.000, 0.000, 0.000, 17:34:26.513
2, -14839.37, 14295.77, -187500.02, -187500.02, -187500.02, -145952.22, -187500.02, -187500.02, 0.000, 0.000, 0.000, 17:34:26.513
3, -15410.79, 13853.23, -187500.02, -187500.02, -187500.02, -145600.28, -187500.02, -187500.02, 0.000, 0.000, 0.000, 17:34:26.513
4, -14885.75, 13847.44, -187500.02, -187500.02, -187500.02, -145894.45, -187500.02, -187500.02, 0.000, 0.000, 0.000, 17:34:26.513
5, -14284.42, 14345.77, -187500.02, -187500.02, -187500.02, -146198.28, -187500.02, -187500.02, 0.000, 0.000, 0.000, 17:34:26.513
6, -14355.61, 14451.94, -187500.02, -187500.02, -187500.02, -146240.58, -187500.02, -187500.02, 0.000, 0.000, 0.000, 17:34:26.514
7, -14822.94, 14313.48, -187500.02, -187500.02, -187500.02, -145975.59, -187500.02, -187500.02, 0.000, 0.000, 0.000, 17:34:26.514
8, -15398.03, 13868.50, -187500.02, -187500.02, -187500.02, -145641.22, -187500.02, -187500.02, 0.006, -0.016, 1.030, 17:34:26.514
9, -14889.90, 13843.02, -187500.02, -187500.02, -187500.02, -145914.38, -187500.02, -187500.02, 0.000, 0.000, 0.000, 17:34:26.514
10, -14293.25, 14336.23, -187500.02, -187500.02, -187500.02, -146198.91, -187500.02, -187500.02, 0.000, 0.000, 0.000, 17:34:26.514
11, -14366.90, 14437.46, -187500.02, -187500.02, -187500.02, -146223.14, -187500.02, -187500.02, 0.000, 0.000, 0.000, 17:34:26.514
12, -14837.51, 14291.26, -187500.02, -187500.02, -187500.02, -145943.39, -187500.02, -187500.02, 0.000, 0.000, 0.000, 17:34:26.514
13, -15430.57, 13835.77, -187500.02, -187500.02, -187500.02, -145610.97, -187500.02, -187500.02, 0.000, 0.000, 0.000, 17:34:26.514
14, -14917.53, 13815.72, -187500.02, -187500.02, -187500.02, -145880.78, -187500.02, -187500.02, 0.000, 0.000, 0.000, 17:34:26.515
15, -14318.42, 14306.14, -187500.02, -187500.02, -187500.02, -146166.09, -187500.02, -187500.02, 0.000, 0.000, 0.000, 17:34:26.515
16, -14378.90, 14421.37, -187500.02, -187500.02, -187500.02, -146223.97, -187500.02, -187500.02, 0.000, 0.000, 0.000, 17:34:26.515
17, -14847.39, 14272.39, -187500.02, -187500.02, -187500.02, -145937.58, -187500.02, -187500.02, 0.000, 0.000, 0.000, 17:34:26.515
18, -15444.90, 13809.53, -187500.02, -187500.02, -187500.02, -145584.33, -187500.02, -187500.02, 0.002, -0.014, 1.030, 17:34:26.515
19, -14933.33, 13791.94, -187500.02, -187500.02, -187500.02, -145864.50, -187500.02, -187500.02, 0.000, 0.000, 0.000, 17:34:26.515
20, -14312.87, 14298.19, -187500.02, -187500.02, -187500.02, -146191.88, -187500.02, -187500.02, 0.000, 0.000, 0.000, 17:34:26.515
21, -14383.66, 14404.20, -187500.02, -187500.02, -187500.02, -146216.22, -187500.02, -187500.02, 0.000, 0.000, 0.000, 17:34:26.515
22, -14837.13, 14273.78, -187500.02, -187500.02, -187500.02, -145932.72, -187500.02, -187500.02, 0.000, 0.000, 0.000, 17:34:26.515
23, -15420.02, 13833.23, -187500.02, -187500.02, -187500.02, -145600.47, -187500.02, -187500.02, 0.000, 0.000, 0.000, 17:34:26.516
24, -14903.72, 13820.82, -187500.02, -187500.02, -187500.02, -145904.03, -187500.02, -187500.02, 0.000, 0.000, 0.000, 17:34:26.516
25, -14284.57, 14325.19, -187500.02, -187500.02, -187500.02, -146223.41, -187500.02, -187500.02, 0.000, 0.000, 0.000, 17:34:26.516
26, -14345.15, 14448.57, -187500.02, -187500.02, -187500.02, -146265.77, -187500.02, -187500.02, 0.000, 0.000, 0.000, 17:34:26.516
27, -14813.39, 14304.09, -187500.02, -187500.02, -187500.02, -145973.41, -187500.02, -187500.02, 0.000, 0.000, 0.000, 17:34:26.516
28, -15403.59, 13851.24, -187500.02, -187500.02, -187500.02, -145642.33, -187500.02, -187500.02, 0.006, -0.012, 1.030, 17:34:26.516
29, -14889.61, 13838.59, -187500.02, -187500.02, -187500.02, -145956.58, -187500.02, -187500.02, 0.000, 0.000, 0.000, 17:34:26.516
30, -14271.45, 14339.11, -187500.02, -187500.02, -187500.02, -146250.97, -187500.02, -187500.02, 0.000, 0.000, 0.000, 17:34:26.516
31, -14345.21, 14446.29, -187500.02, -187500.02, -187500.02, -146275.06, -187500.02, -187500.02, 0.000, 0.000, 0.000, 17:34:26.517
32, -14804.59, 14300.62, -187500.02, -187500.02, -187500.02, -145986.13, -187500.02, -187500.02, 0.000, 0.000, 0.000, 17:34:26.517
33, -15398.45, 13852.56, -187500.02, -187500.02, -187500.02, -145643.66, -187500.02, -187500.02, 0.000, 0.000, 0.000, 17:34:26.517
34, -14894.69, 13829.45, -187500.02, -187500.02, -187500.02, -145891.27, -187500.02, -187500.02, 0.000, 0.000, 0.000, 17:34:26.517
35, -14289.92, 14313.27, -187500.02, -187500.02, -187500.02, -146170.33, -187500.02, -187500.02, 0.000, 0.000, 0.000, 17:34:26.517
36, -14355.43, 14420.50, -187500.02, -187500.02, -187500.02, -146240.66, -187500.02, -187500.02, 0.000, 0.000, 0.000, 17:34:26.517
37, -14816.41, 14277.31, -187500.02, -187500.02, -187500.02, -145959.61, -187500.02, -187500.02, 0.000, 0.000, 0.000, 17:34:26.517
38, -15411.84, 13831.33, -187500.02, -187500.02, -187500.02, -145629.97, -187500.02, -187500.02, 0.008, -0.012, 1.030, 17:34:26.517
39, -14928.06, 13790.69, -187500.02, -187500.02, -187500.02, -145900.66, -187500.02, -187500.02, 0.000, 0.000, 0.000, 17:34:26.517
40, -14307.64, 14285.31, -187500.02, -187500.02, -187500.02, -146171.28, -187500.02, -187500.02, 0.000, 0.000, 0.000, 17:34:26.518
41, -14360.97, 14412.16, -187500.02, -187500.02, -187500.02, -146237.38, -187500.02, -187500.02, 0.000, 0.000, 0.000, 17:34:26.518
42, -14818.89, 14275.92, -187500.02, -187500.02, -187500.02, -145991.11, -187500.02, -187500.02, 0.000, 0.000, 0.000, 17:34:26.518
43, -15421.00, 13821.74, -187500.02, -187500.02, -187500.02, -145644.50, -187500.02, -187500.02, 0.000, 0.000, 0.000, 17:34:26.518
44, -14922.94, 13791.56, -187500.02, -187500.02, -187500.02, -145939.67, -187500.02, -187500.02, 0.000, 0.000, 0.000, 17:34:26.518
45, -14302.81, 14284.75, -187500.02, -187500.02, -187500.02, -146242.55, -187500.02, -187500.02, 0.000, 0.000, 0.000, 17:34:26.518
46, -14363.48, 14404.22, -187500.02, -187500.02, -187500.02, -146250.55, -187500.02, -187500.02, 0.000, 0.000, 0.000, 17:34:26.518
47, -14809.39, 14279.21, -187500.02, -187500.02, -187500.02, -145962.30, -187500.02, -187500.02, 0.000, 0.000, 0.000, 17:34:26.518
48, -15398.16, 13842.23, -187500.02, -187500.02, -187500.02, -145640.77, -187500.02, -187500.02, 0.006, -0.010, 1.034, 17:34:26.519
49, -14903.14, 13812.77, -187500.02, -187500.02, -187500.02, -145916.42, -187500.02, -187500.02, 0.000, 0.000, 0.000, 17:34:26.519
50, -14269.04, 14318.64, -187500.02, -187500.02, -187500.02, -146242.67, -187500.02, -187500.02, 0.000, 0.000, 0.000, 17:34:26.519
51, -14329.05, 14437.08, -187500.02, -187500.02, -187500.02, -146282.81, -187500.02, -187500.02, 0.000, 0.000, 0.000, 17:34:26.519
52, -14785.54, 14299.73, -187500.02, -187500.02, -187500.02, -146009.45, -187500.02, -187500.02, 0.000, 0.000, 0.000, 17:34:26.519
53, -15391.23, 13852.49, -187500.02, -187500.02, -187500.02, -145639.94, -187500.02, -187500.02, 0.000, 0.000, 0.000, 17:34:26.520
54, -14898.62, 13829.43, -187500.02, -187500.02, -187500.02, -145914.03, -187500.02, -187500.02, 0.000, 0.000, 0.000, 17:34:26.520
55, -14266.16, 14333.46, -187500.02, -187500.02, -187500.02, -146273.81, -187500.02, -187500.02, 0.000, 0.000, 0.000, 17:34:26.520
56, -14327.60, 14444.86, -187500.02, -187500.02, -187500.02, -146301.86, -187500.02, -187500.02, 0.000, 0.000, 0.000, 17:34:26.520
57, -14774.55, 14312.78, -187500.02, -187500.02, -187500.02, -146054.14, -187500.02, -187500.02, 0.000, 0.000, 0.000, 17:34:26.520
58, -15401.83, 13848.78, -187500.02, -187500.02, -187500.02, -145699.53, -187500.02, -187500.02, 0.006, -0.010, 1.036, 17:34:26.520
59, -14925.11, 13801.08, -187500.02, -187500.02, -187500.02, -145957.13, -187500.02, -187500.02, 0.000, 0.000, 0.000, 17:34:26.520
60, -14294.21, 14296.87, -187500.02, -187500.02, -187500.02, -146261.19, -187500.02, -187500.02, 0.000, 0.000, 0.000, 17:34:26.520
61, -14346.56, 14423.20, -187500.02, -187500.02, -187500.02, -146314.69, -187500.02, -187500.02, 0.000, 0.000, 0.000, 17:34:26.521
62, -14797.14, 14292.06, -187500.02, -187500.02, -187500.02, -146067.70, -187500.02, -187500.02, 0.000, 0.000, 0.000, 17:34:26.521
63, -15415.37, 13835.64, -187500.02, -187500.02, -187500.02, -145714.38, -187500.02, -187500.02, 0.000, 0.000, 0.000, 17:34:26.521
64, -14941.22, 13787.32, -187500.02, -187500.02, -187500.02, -145963.53, -187500.02, -187500.02, 0.000, 0.000, 0.000, 17:34:26.521
65, -14300.62, 14292.42, -187500.02, -187500.02, -187500.02, -146252.47, -187500.02, -187500.02, 0.000, 0.000, 0.000, 17:34:26.521
66, -14354.94, 14414.28, -187500.02, -187500.02, -187500.02, -146281.91, -187500.02, -187500.02, 0.000, 0.000, 0.000, 17:34:26.521
67, -14792.09, 14289.34, -187500.02, -187500.02, -187500.02, -146011.73, -187500.02, -187500.02, 0.000, 0.000, 0.000, 17:34:26.521
68, -15400.08, 13848.80, -187500.02, -187500.02, -187500.02, -145666.02, -187500.02, -187500.02, 0.006, -0.014, 1.036, 17:34:26.522
69, -14920.64, 13803.74, -187500.02, -187500.02, -187500.02, -145951.28, -187500.02, -187500.02, 0.000, 0.000, 0.000, 17:34:26.522
70, -14278.90, 14302.32, -187500.02, -187500.02, -187500.02, -146265.77, -187500.02, -187500.02, 0.000, 0.000, 0.000, 17:34:26.522
71, -14326.66, 14432.70, -187500.02, -187500.02, -187500.02, -146311.41, -187500.02, -187500.02, 0.000, 0.000, 0.000, 17:34:26.522
72, -14770.79, 14310.84, -187500.02, -187500.02, -187500.02, -146053.41, -187500.02, -187500.02, 0.000, 0.000, 0.000, 17:34:26.522
73, -15395.25, 13858.17, -187500.02, -187500.02, -187500.02, -145667.81, -187500.02, -187500.02, 0.000, 0.000, 0.000, 17:34:26.522
74, -14926.41, 13798.94, -187500.02, -187500.02, -187500.02, -145927.31, -187500.02, -187500.02, 0.000, 0.000, 0.000, 17:34:26.522
75, -14287.32, 14292.67, -187500.02, -187500.02, -187500.02, -146211.06, -187500.02, -187500.02, 0.000, 0.000, 0.000, 17:34:26.522
76, -14322.97, 14433.04, -187500.02, -187500.02, -187500.02, -146297.64, -187500.02, -187500.02, 0.000, 0.000, 0.000, 17:34:26.522
77, -14767.82, 14309.09, -187500.02, -187500.02, -187500.02, -146053.83, -187500.02, -187500.02, 0.000, 0.000, 0.000, 17:34:26.523
78, -15401.74, 13848.67, -187500.02, -187500.02, -187500.02, -145664.91, -187500.02, -187500.02, 0.006, -0.014, 1.032, 17:34:26.523
79, -14936.11, 13787.99, -187500.02, -187500.02, -187500.02, -145953.53, -187500.02, -187500.02, 0.000, 0.000, 0.000, 17:34:26.523
80, -14285.58, 14291.15, -187500.02, -187500.02, -187500.02, -146278.44, -187500.02, -187500.02, 0.000, 0.000, 0.000, 17:34:26.523
81, -14325.39, 14426.49, -187500.02, -187500.02, -187500.02, -146363.75, -187500.02, -187500.02, 0.000, 0.000, 0.000, 17:34:26.523
82, -14769.41, 14299.77, -187500.02, -187500.02, -187500.02, -146093.97, -187500.02, -187500.02, 0.000, 0.000, 0.000, 17:34:26.523
83, -15398.05, 13850.93, -187500.02, -187500.02, -187500.02, -145726.11, -187500.02, -187500.02, 0.000, 0.000, 0.000, 17:34:26.523
84, -14940.78, 13780.39, -187500.02, -187500.02, -187500.02, -145988.78, -187500.02, -187500.02, 0.000, 0.000, 0.000, 17:34:26.523
85, -14290.30, 14279.77, -187500.02, -187500.02, -187500.02, -146279.63, -187500.02, -187500.02, 0.000, 0.000, 0.000, 17:34:26.524
86, -14333.86, 14418.57, -187500.02, -187500.02, -187500.02, -146343.86, -187500.02, -187500.02, 0.000, 0.000, 0.000, 17:34:26.524
87, -14768.60, 14305.00, -187500.02, -187500.02, -187500.02, -146081.19, -187500.02, -187500.02, 0.000, 0.000, 0.000, 17:34:26.524
88, -15396.69, 13858.93, -187500.02, -187500.02, -187500.02, -145693.84, -187500.02, -187500.02, 0.006, -0.018, 1.028, 17:34:26.524
89, -14949.27, 13776.43, -187500.02, -187500.02, -187500.02, -145948.66, -187500.02, -187500.02, 0.000, 0.000, 0.000, 17:34:26.524
90, -14296.31, 14282.94, -187500.02, -187500.02, -187500.02, -146255.22, -187500.02, -187500.02, 0.000, 0.000, 0.000, 17:34:26.524
91, -14336.25, 14430.55, -187500.02, -187500.02, -187500.02, -146273.31, -187500.02, -187500.02, 0.000, 0.000, 0.000, 17:34:26.525
92, -14757.98, 14317.48, -187500.02, -187500.02, -187500.02, -146025.19, -187500.02, -187500.02, 0.000, 0.000, 0.000, 17:34:26.525
93, -15375.29, 13882.44, -187500.02, -187500.02, -187500.02, -145719.00, -187500.02, -187500.02, 0.000, 0.000, 0.000, 17:34:26.525
94, -14944.40, 13786.29, -187500.02, -187500.02, -187500.02, -145987.27, -187500.02, -187500.02, 0.000, 0.000, 0.000, 17:34:26.525
95, -14280.84, 14284.80, -187500.02, -187500.02, -187500.02, -146306.64, -187500.02, -187500.02, 0.000, 0.000, 0.000, 17:34:26.525
96, -14312.51, 14431.27, -187500.02, -187500.02, -187500.02, -146345.30, -187500.02, -187500.02, 0.000, 0.000, 0.000, 17:34:26.525
97, -14736.10, 14326.33, -187500.02, -187500.02, -187500.02, -146072.16, -187500.02, -187500.02, 0.000, 0.000, 0.000, 17:34:26.525
98, -15359.60, 13888.39, -187500.02, -187500.02, -187500.02, -145681.22, -187500.02, -187500.02, 0.008, -0.014, 1.028, 17:34:26.525
99, -14927.54, 13783.58, -187500.02, -187500.02, -187500.02, -145940.14, -187500.02, -187500.02, 0.000, 0.000, 0.000, 17:34:26.526
100, -14257.69, 14290.99, -187500.02, -187500.02, -187500.02, -146288.78, -187500.02, -187500.02, 0.000, 0.000, 0.000, 17:34:26.526
101, -14291.79, 14440.97, -187500.02, -187500.02, -187500.02, -146358.02, -187500.02, -187500.02, 0.000, 0.000, 0.000, 17:34:26.526
102, -14723.85, 14328.38, -187500.02, -187500.02, -187500.02, -146082.86, -187500.02, -187500.02, 0.000, 0.000, 0.000, 17:34:26.526
103, -15364.32, 13879.20, -187500.02, -187500.02, -187500.02, -145727.11, -187500.02, -187500.02, 0.000, 0.000, 0.000, 17:34:26.526
104, -14953.99, 13756.54, -187500.02, -187500.02, -187500.02, -145967.81, -187500.02, -187500.02, 0.000, 0.000, 0.000, 17:34:26.526
105, -14286.23, 14266.87, -187500.02, -187500.02, -187500.02, -146285.33, -187500.02, -187500.02, 0.000, 0.000, 0.000, 17:34:26.990
106, -14315.11, 14422.37, -187500.02, -187500.02, -187500.02, -146354.66, -187500.02, -187500.02, 0.000, 0.000, 0.000, 17:34:26.990
107, -14744.71, 14311.08, -187500.02, -187500.02, -187500.02, -146076.95, -187500.02, -187500.02, 0.000, 0.000, 0.000, 17:34:26.991
108, -15379.23, 13873.15, -187500.02, -187500.02, -187500.02, -145690.05, -187500.02, -187500.02, 0.010, -0.016, 1.032, 17:34:26.991
109, -14943.75, 13773.10, -187500.02, -187500.02, -187500.02, -145963.02, -187500.02, -187500.02, 0.000, 0.000, 0.000, 17:34:26.991
110, -14275.77, 14272.86, -187500.02, -187500.02, -187500.02, -146299.31, -187500.02, -187500.02, 0.000, 0.000, 0.000, 17:34:26.991
111, -14298.54, 14435.52, -187500.02, -187500.02, -187500.02, -146402.84, -187500.02, -187500.02, 0.000, 0.000, 0.000, 17:34:26.991
112, -14722.13, 14330.28, -187500.02, -187500.02, -187500.02, -146156.58, -187500.02, -187500.02, 0.000, 0.000, 0.000, 17:34:26.991
113, -15367.14, 13886.20, -187500.02, -187500.02, -187500.02, -145766.00, -187500.02, -187500.02, 0.000, 0.000, 0.000, 17:34:26.992
114, -14946.63, 13775.11, -187500.02, -187500.02, -187500.02, -146004.55, -187500.02, -187500.02, 0.000, 0.000, 0.000, 17:34:26.992
115, -14280.66, 14268.59, -187500.02, -187500.02, -187500.02, -146292.14, -187500.02, -187500.02, 0.000, 0.000, 0.000, 17:34:26.992
116, -14306.21, 14426.02, -187500.02, -187500.02, -187500.02, -146338.59, -187500.02, -187500.02, 0.000, 0.000, 0.000, 17:34:26.992
117, -14720.84, 14329.50, -187500.02, -187500.02, -187500.02, -146092.31, -187500.02, -187500.02, 0.000, 0.000, 0.000, 17:34:26.992
118, -15357.86, 13892.41, -187500.02, -187500.02, -187500.02, -145719.08, -187500.02, -187500.02, 0.008, -0.014, 1.026, 17:34:26.993
119, -14945.63, 13767.42, -187500.02, -187500.02, -187500.02, -145977.31, -187500.02, -187500.02, 0.000, 0.000, 0.000, 17:34:26.993
120, -14272.24, 14267.27, -187500.02, -187500.02, -187500.02, -146268.45, -187500.02, -187500.02, 0.000, 0.000, 0.000, 17:34:26.993
121, -14287.32, 14435.96, -187500.02, -187500.02, -187500.02, -146329.48, -187500.02, -187500.02, 0.000, 0.000, 0.000, 17:34:26.993
122, -14717.19, 14325.95, -187500.02, -187500.02, -187500.02, -146079.86, -187500.02, -187500.02, 0.000, 0.000, 0.000, 17:34:26.993
123, -15358.53, 13892.19, -187500.02, -187500.02, -187500.02, -145726.78, -187500.02, -187500.02, 0.000, 0.000, 0.000, 17:34:26.994
124, -14951.75, 13767.80, -187500.02, -187500.02, -187500.02, -145961.45, -187500.02, -187500.02, 0.000, 0.000, 0.000, 17:34:26.994
125, -14274.40, 14273.13, -187500.02, -187500.02, -187500.02, -146297.91, -187500.02, -187500.02, 0.000, 0.000, 0.000, 17:34:26.994
126, -14306.88, 14428.45, -187500.02, -187500.02, -187500.02, -146357.78, -187500.02, -187500.02, 0.000, 0.000, 0.000, 17:34:26.994
127, -14729.96, 14319.44, -187500.02, -187500.02, -187500.02, -146083.55, -187500.02, -187500.02, 0.004, -0.016, 1.024, 17:34:26.994
128, -15364.75, 13888.95, -187500.02, -187500.02, -187500.02, -145688.89, -187500.02, -187500.02, 0.000, 0.000, 0.000, 17:34:26.994
129, -14961.27, 13762.88, -187500.02, -187500.02, -187500.02, -145924.72, -187500.02, -187500.02, 0.000, 0.000, 0.000, 17:34:26.994
130, -14294.57, 14258.20, -187500.02, -187500.02, -187500.02, -146251.23, -187500.02, -187500.02, 0.000, 0.000, 0.000, 17:34:26.995
131, -14306.30, 14427.89, -187500.02, -187500.02, -187500.02, -146307.81, -187500.02, -187500.02, 0.000, 0.000, 0.000, 17:34:26.995
132, -14718.13, 14333.75, -187500.02, -187500.02, -187500.02, -146050.88, -187500.02, -187500.02, 0.000, 0.000, 0.000, 17:34:26.995
133, -15358.58, 13904.59, -187500.02, -187500.02, -187500.02, -145652.59, -187500.02, -187500.02, 0.000, 0.000, 0.000, 17:34:26.995
134, -14951.19, 13778.46, -187500.02, -187500.02, -187500.02, -145963.61, -187500.02, -187500.02, 0.000, 0.000, 0.000, 17:34:26.995
135, -14276.53, 14272.48, -187500.02, -187500.02, -187500.02, -146311.47, -187500.02, -187500.02, 0.000, 0.000, 0.000, 17:34:26.995
136, -14297.83, 14435.43, -187500.02, -187500.02, -187500.02, -146348.69, -187500.02, -187500.02, 0.000, 0.000, 0.000, 17:34:26.995
137, -14708.03, 14347.45, -187500.02, -187500.02, -187500.02, -146124.95, -187500.02, -187500.02, 0.006, -0.012, 1.026, 17:34:26.995
138, -15360.99, 13913.04, -187500.02, -187500.02, -187500.02, -145744.19, -187500.02, -187500.02, 0.000, 0.000, 0.000, 17:34:26.995
139, -14971.29, 13772.32, -187500.02, -187500.02, -187500.02, -145982.45, -187500.02, -187500.02, 0.000, 0.000, 0.000, 17:34:26.996
140, -14301.16, 14256.68, -187500.02, -187500.02, -187500.02, -146311.08, -187500.02, -187500.02, 0.000, 0.000, 0.000, 17:34:26.996
141, -14317.59, 14422.06, -187500.02, -187500.02, -187500.02, -146364.05, -187500.02, -187500.02, 0.000, 0.000, 0.000, 17:34:26.996
142, -14723.67, 14330.73, -187500.02, -187500.02, -187500.02, -146148.31, -187500.02, -187500.02, 0.000, 0.000, 0.000, 17:34:26.996
143, -15378.13, 13896.79, -187500.02, -187500.02, -187500.02, -145808.67, -187500.02, -187500.02, 0.000, 0.000, 0.000, 17:34:26.996
144, -14999.00, 13745.83, -187500.02, -187500.02, -187500.02, -146057.31, -187500.02, -187500.02, 0.000, 0.000, 0.000, 17:34:26.996
145, -14329.41, 14236.07, -187500.02, -187500.02, -187500.02, -146344.95, -187500.02, -187500.02, 0.000, 0.000, 0.000, 17:34:26.996
146, -14336.83, 14417.23, -187500.02, -187500.02, -187500.02, -146398.25, -187500.02, -187500.02, 0.000, 0.000, 0.000, 17:34:26.996
147, -14734.69, 14334.80, -187500.02, -187500.02, -187500.02, -146157.77, -187500.02, -187500.02, 0.004, -0.012, 1.028, 17:34:26.997
148, -15380.66, 13908.46, -187500.02, -187500.02, -187500.02, -145752.50, -187500.02, -187500.02, 0.000, 0.000, 0.000, 17:34:26.997
149, -15005.28, 13742.88, -187500.02, -187500.02, -187500.02, -146015.05, -187500.02, -187500.02, 0.000, 0.000, 0.000, 17:34:26.997
150, -14329.14, 14230.51, -187500.02, -187500.02, -187500.02, -146321.42, -187500.02, -187500.02, 0.000, 0.000, 0.000, 17:34:26.997
151, -14329.39, 14417.95, -187500.02, -187500.02, -187500.02, -146382.22, -187500.02, -187500.02, 0.000, 0.000, 0.000, 17:34:26.997
152, -14720.34, 14342.47, -187500.02, -187500.02, -187500.02, -146146.78, -187500.02, -187500.02, 0.000, 0.000, 0.000, 17:34:26.997
153, -15366.51, 13921.54, -187500.02, -187500.02, -187500.02, -145783.48, -187500.02, -187500.02, 0.000, 0.000, 0.000, 17:34:26.997
154, -14995.83, 13752.80, -187500.02, -187500.02, -187500.02, -146016.61, -187500.02, -187500.02, 0.000, 0.000, 0.000, 17:34:26.997
155, -14315.40, 14240.41, -187500.02, -187500.02, -187500.02, -146342.86, -187500.02, -187500.02, 0.000, 0.000, 0.000, 17:34:26.998
156, -14313.63, 14429.39, -187500.02, -187500.02, -187500.02, -146417.48, -187500.02, -187500.02, 0.000, 0.000, 0.000, 17:34:26.998
157, -14714.94, 14343.23, -187500.02, -187500.02, -187500.02, -146173.83, -187500.02, -187500.02, 0.004, -0.014, 1.024, 17:34:26.998
158, -15359.20, 13923.42, -187500.02, -187500.02, -187500.02, -145777.25, -187500.02, -187500.02, 0.000, 0.000, 0.000, 17:34:26.998
159, -14988.88, 13754.95, -187500.02, -187500.02, -187500.02, -146020.28, -187500.02, -187500.02, 0.000, 0.000, 0.000, 17:34:26.998
160, -14305.61, 14243.98, -187500.02, -187500.02, -187500.02, -146332.39, -187500.02, -187500.02, 0.000, 0.000, 0.000, 17:34:26.998
161, -14298.41, 14432.32, -187500.02, -187500.02, -187500.02, -146408.17, -187500.02, -187500.02, 0.000, 0.000, 0.000, 17:34:26.998
162, -14701.26, 14344.03, -187500.02, -187500.02, -187500.02, -146181.80, -187500.02, -187500.02, 0.000, 0.000, 0.000, 17:34:26.998
163, -15361.15, 13916.55, -187500.02, -187500.02, -187500.02, -145787.59, -187500.02, -187500.02, 0.000, 0.000, 0.000, 17:34:26.999
164, -15011.32, 13731.75, -187500.02, -187500.02, -187500.02, -145990.28, -187500.02, -187500.02, 0.000, 0.000, 0.000, 17:34:26.999
165, -14308.83, 14230.71, -187500.02, -187500.02, -187500.02, -146339.75, -187500.02, -187500.02, 0.000, 0.000, 0.000, 17:34:26.999
166, -14321.90, 14404.22, -187500.02, -187500.02, -187500.02, -146391.88, -187500.02, -187500.02, 0.000, 0.000, 0.000, 17:34:26.999
167, -14716.21, 14329.86, -187500.02, -187500.02, -187500.02, -146175.08, -187500.02, -187500.02, 0.000, -0.016, 1.028, 17:34:26.999
168, -15369.39, 13909.62, -187500.02, -187500.02, -187500.02, -145787.55, -187500.02, -187500.02, 0.000, 0.000, 0.000, 17:34:26.999
169, -15008.30, 13737.40, -187500.02, -187500.02, -187500.02, -146025.63, -187500.02, -187500.02, 0.000, 0.000, 0.000, 17:34:26.999
170, -14312.96, 14231.42, -187500.02, -187500.02, -187500.02, -146360.77, -187500.02, -187500.02, 0.000, 0.000, 0.000, 17:34:26.999
171, -14308.00, 14419.51, -187500.02, -187500.02, -187500.02, -146447.58, -187500.02, -187500.02, 0.000, 0.000, 0.000, 17:34:27.000
172, -14702.73, 14340.81, -187500.02, -187500.02, -187500.02, -146205.53, -187500.02, -187500.02, 0.000, 0.000, 0.000, 17:34:27.000
173, -15359.69, 13921.43, -187500.02, -187500.02, -187500.02, -145789.41, -187500.02, -187500.02, 0.000, 0.000, 0.000, 17:34:27.000
174, -14998.89, 13750.23, -187500.02, -187500.02, -187500.02, -146047.28, -187500.02, -187500.02, 0.000, 0.000, 0.000, 17:34:27.000
175, -14305.16, 14241.99, -187500.02, -187500.02, -187500.02, -146364.45, -187500.02, -187500.02, 0.000, 0.000, 0.000, 17:34:27.000
176, -14300.87, 14434.71, -187500.02, -187500.02, -187500.02, -146404.30, -187500.02, -187500.02, 0.000, 0.000, 0.000, 17:34:27.000
177, -14681.07, 14366.54, -187500.02, -187500.02, -187500.02, -146176.53, -187500.02, -187500.02, 0.004, -0.020, 1.028, 17:34:27.000
178, -15338.26, 13948.27, -187500.02, -187500.02, -187500.02, -145814.03, -187500.02, -187500.02, 0.000, 0.000, 0.000, 17:34:27.001
179, -14995.25, 13760.99, -187500.02, -187500.02, -187500.02, -146034.52, -187500.02, -187500.02, 0.000, 0.000, 0.000, 17:34:27.001
180, -14304.02, 14248.37, -187500.02, -187500.02, -187500.02, -146342.03, -187500.02, -187500.02, 0.000, 0.000, 0.000, 17:34:27.001
181, -14302.52, 14439.83, -187500.02, -187500.02, -187500.02, -146392.39, -187500.02, -187500.02, 0.000, 0.000, 0.000, 17:34:27.001
182, -14688.14, 14368.80, -187500.02, -187500.02, -187500.02, -146172.00, -187500.02, -187500.02, 0.000, 0.000, 0.000, 17:34:27.001
183, -15343.67, 13948.38, -187500.02, -187500.02, -187500.02, -145793.94, -187500.02, -187500.02, 0.000, 0.000, 0.000, 17:34:27.002
184, -14997.08, 13759.46, -187500.02, -187500.02, -187500.02, -146035.20, -187500.02, -187500.02, 0.000, 0.000, 0.000, 17:34:27.002
185, -14305.94, 14241.73, -187500.02, -187500.02, -187500.02, -146361.55, -187500.02, -187500.02, 0.000, 0.000, 0.000, 17:34:27.002
186, -14302.90, 14435.65, -187500.02, -187500.02, -187500.02, -146430.31, -187500.02, -187500.02, 0.000, 0.000, 0.000, 17:34:27.002
187, -14699.27, 14354.36, -187500.02, -187500.02, -187500.02, -146200.91, -187500.02, -187500.02, 0.006, -0.018, 1.022, 17:34:27.002
188, -15363.58, 13930.05, -187500.02, -187500.02, -187500.02, -145762.11, -187500.02, -187500.02, 0.000, 0.000, 0.000, 17:34:27.002
189, -15020.80, 13742.28, -187500.02, -187500.02, -187500.02, -146001.56, -187500.02, -187500.02, 0.000, 0.000, 0.000, 17:34:27.003
190, -14319.47, 14231.11, -187500.02, -187500.02, -187500.02, -146335.80, -187500.02, -187500.02, 0.000, 0.000, 0.000, 17:34:27.003
191, -14308.22, 14428.05, -187500.02, -187500.02, -187500.02, -146408.02, -187500.02, -187500.02, 0.000, 0.000, 0.000, 17:34:27.003
192, -14688.49, 14359.63, -187500.02, -187500.02, -187500.02, -146200.05, -187500.02, -187500.02, 0.000, 0.000, 0.000, 17:34:27.003
193, -15350.31, 13940.56, -187500.02, -187500.02, -187500.02, -145825.56, -187500.02, -187500.02, 0.000, 0.000, 0.000, 17:34:27.003
194, -15014.07, 13742.39, -187500.02, -187500.02, -187500.02, -146052.13, -187500.02, -187500.02, 0.000, 0.000, 0.000, 17:34:27.003
195, -14317.54, 14221.27, -187500.02, -187500.02, -187500.02, -146349.89, -187500.02, -187500.02, 0.000, 0.000, 0.000, 17:34:27.004
196, -14301.23, 14425.68, -187500.02, -187500.02, -187500.02, -146416.17, -187500.02, -187500.02, 0.000, 0.000, 0.000, 17:34:27.004
197, -14678.10, 14358.33, -187500.02, -187500.02, -187500.02, -146201.34, -187500.02, -187500.02, 0.000, -0.020, 1.030, 17:34:27.004
198, -15342.39, 13947.85, -187500.02, -187500.02, -187500.02, -145775.70, -187500.02, -187500.02, 0.000, 0.000, 0.000, 17:34:27.004
199, -14991.18, 13771.16, -187500.02, -187500.02, -187500.02, -146041.67, -187500.02, -187500.02, 0.000, 0.000, 0.000, 17:34:27.004
200, -14285.78, 14260.66, -187500.02, -187500.02, -187500.02, -146413.64, -187500.02, -187500.02, 0.000, 0.000, 0.000, 17:34:27.004
201, -14271.10, 14455.90, -187500.02, -187500.02, -187500.02, -146469.50, -187500.02, -187500.02, 0.000, 0.000, 0.000, 17:34:27.005
202, -14653.83, 14380.08, -187500.02, -187500.02, -187500.02, -146286.63, -187500.02, -187500.02, 0.000, 0.000, 0.000, 17:34:27.005
203, -15329.45, 13959.31, -187500.02, -187500.02, -187500.02, -145868.94, -187500.02, -187500.02, 0.000, 0.000, 0.000, 17:34:27.005
204, -15003.14, 13758.75, -187500.02, -187500.02, -187500.02, -146084.45, -187500.02, -187500.02, 0.000, 0.000, 0.000, 17:34:27.005
205, -14300.58, 14238.93, -187500.02, -187500.02, -187500.02, -146399.58, -187500.02, -187500.02, 0.000, 0.000, 0.000, 17:34:27.005
206, -14280.69, 14442.65, -187500.02, -187500.02, -187500.02, -146462.75, -187500.02, -187500.02, 0.000, 0.000, 0.000, 17:34:27.005
207, -14655.12, 14372.24, -187500.02, -187500.02, -187500.02, -146258.80, -187500.02, -187500.02, 0.006, -0.018, 1.032, 17:34:27.006
208, -15324.02, 13962.20, -187500.02, -187500.02, -187500.02, -145846.20, -187500.02, -187500.02, 0.000, 0.000, 0.000, 17:34:27.006
209, -15003.09, 13761.79, -187500.02, -187500.02, -187500.02, -146049.48, -187500.02, -187500.02, 0.000, 0.000, 0.000, 17:34:27.006
210, -14297.74, 14243.42, -187500.02, -187500.02, -187500.02, -146350.09, -187500.02, -187500.02, 0.000, 0.000, 0.000, 17:34:27.006
211, -14276.24, 14447.68, -187500.02, -187500.02, -187500.02, -146442.86, -187500.02, -187500.02, 0.000, 0.000, 0.000, 17:34:27.006
212, -14665.11, 14363.63, -187500.02, -187500.02, -187500.02, -146235.33, -187500.02, -187500.02, 0.000, 0.000, 0.000, 17:34:27.006
213, -15335.15, 13954.04, -187500.02, -187500.02, -187500.02, -145783.77, -187500.02, -187500.02, 0.000, 0.000, 0.000, 17:34:27.007
214, -15013.93, 13750.90, -187500.02, -187500.02, -187500.02, -145995.13, -187500.02, -187500.02, 0.000, 0.000, 0.000, 17:34:27.007
215, -14301.29, 14238.13, -187500.02, -187500.02, -187500.02, -146356.63, -187500.02, -187500.02, 0.000, 0.000, 0.000, 17:34:27.007
216, -14282.45, 14445.37, -187500.02, -187500.02, -187500.02, -146449.66, -187500.02, -187500.02, 0.000, 0.000, 0.000, 17:34:27.007
217, -14657.94, 14370.70, -187500.02, -187500.02, -187500.02, -146248.55, -187500.02, -187500.02, 0.004, -0.016, 1.032, 17:34:27.007
218, -15334.30, 13952.72, -187500.02, -187500.02, -187500.02, -145825.55, -187500.02, -187500.02, 0.000, 0.000, 0.000, 17:34:27.008
219, -15023.52, 13744.83, -187500.02, -187500.02, -187500.02, -146019.78, -187500.02, -187500.02, 0.000, 0.000, 0.000, 17:34:27.008
220, -14303.69, 14233.72, -187500.02, -187500.02, -187500.02, -146349.42, -187500.02, -187500.02, 0.000, 0.000, 0.000, 17:34:27.008
221, -14280.82, 14439.56, -187500.02, -187500.02, -187500.02, -146418.73, -187500.02, -187500.02, 0.000, 0.000, 0.000, 17:34:27.008
222, -14657.31, 14366.87, -187500.02, -187500.02, -187500.02, -146194.42, -187500.02, -187500.02, 0.000, 0.000, 0.000, 17:34:27.008
223, -15322.10, 13957.90, -187500.02, -187500.02, -187500.02, -145787.38, -187500.02, -187500.02, 0.000, 0.000, 0.000, 17:34:27.008
224, -15004.05, 13760.52, -187500.02, -187500.02, -187500.02, -146016.77, -187500.02, -187500.02, 0.000, 0.000, 0.000, 17:34:27.008
225, -14282.70, 14256.08, -187500.02, -187500.02, -187500.02, -146376.92, -187500.02, -187500.02, 0.000, 0.000, 0.000, 17:34:27.471
226, -14251.38, 14469.09, -187500.02, -187500.02, -187500.02, -146476.28, -187500.02, -187500.02, 0.000, 0.000, 0.000, 17:34:27.472
227, -14625.01, 14396.71, -187500.02, -187500.02, -187500.02, -146268.63, -187500.02, -187500.02, 0.004, -0.014, 1.024, 17:34:27.472
228, -15302.05, 13983.38, -187500.02, -187500.02, -187500.02, -145840.30, -187500.02, -187500.02, 0.000, 0.000, 0.000, 17:34:27.472
229, -15008.88, 13761.43, -187500.02, -187500.02, -187500.02, -146024.83, -187500.02, -187500.02, 0.000, 0.000, 0.000, 17:34:27.472
230, -14293.98, 14243.11, -187500.02, -187500.02, -187500.02, -146383.58, -187500.02, -187500.02, 0.000, 0.000, 0.000, 17:34:27.472
231, -14268.17, 14453.73, -187500.02, -187500.02, -187500.02, -146426.03, -187500.02, -187500.02, 0.000, 0.000, 0.000, 17:34:27.472
232, -14640.53, 14380.80, -187500.02, -187500.02, -187500.02, -146229.31, -187500.02, -187500.02, 0.000, 0.000, 0.000, 17:34:27.472
233, -15321.56, 13964.99, -187500.02, -187500.02, -187500.02, -145846.48, -187500.02, -187500.02, 0.000, 0.000, 0.000, 17:34:27.472
234, -15022.56, 13755.51, -187500.02, -187500.02, -187500.02, -146057.09, -187500.02, -187500.02, 0.000, 0.000, 0.000, 17:34:27.472
235, -14305.18, 14236.07, -187500.02, -187500.02, -187500.02, -146393.95, -187500.02, -187500.02, 0.000, 0.000, 0.000, 17:34:27.473
236, -14274.23, 14445.44, -187500.02, -187500.02, -187500.02, -146463.80, -187500.02, -187500.02, 0.000, 0.000, 0.000, 17:34:27.473
237, -14631.27, 14382.99, -187500.02, -187500.02, -187500.02, -146277.48, -187500.02, -187500.02, 0.004, -0.010, 1.022, 17:34:27.473
238, -15305.83, 13975.96, -187500.02, -187500.02, -187500.02, -145874.39, -187500.02, -187500.02, 0.000, 0.000, 0.000, 17:34:27.473
239, -15015.43, 13756.69, -187500.02, -187500.02, -187500.02, -146074.64, -187500.02, -187500.02, 0.000, 0.000, 0.000, 17:34:27.473
240, -14296.89, 14237.64, -187500.02, -187500.02, -187500.02, -146432.22, -187500.02, -187500.02, 0.000, 0.000, 0.000, 17:34:27.473
241, -14265.82, 14453.15, -187500.02, -187500.02, -187500.02, -146496.41, -187500.02, -187500.02, 0.000, 0.000, 0.000, 17:34:27.474
242, -14639.70, 14376.51, -187500.02, -187500.02, -187500.02, -146268.22, -187500.02, -187500.02, 0.000, 0.000, 0.000, 17:34:27.474
243, -15317.52, 13970.24, -187500.02, -187500.02, -187500.02, -145825.38, -187500.02, -187500.02, 0.000, 0.000, 0.000, 17:34:27.474
244, -15030.41, 13748.71, -187500.02, -187500.02, -187500.02, -146004.88, -187500.02, -187500.02, 0.000, 0.000, 0.000, 17:34:27.474
245, -14297.34, 14237.35, -187500.02, -187500.02, -187500.02, -146351.73, -187500.02, -187500.02, 0.000, 0.000, 0.000, 17:34:27.474
246, -14265.80, 14448.39, -187500.02, -187500.02, -187500.02, -146437.52, -187500.02, -187500.02, 0.000, 0.000, 0.000, 17:34:27.474
247, -14625.35, 14384.84, -187500.02, -187500.02, -187500.02, -146250.08, -187500.02, -187500.02, 0.004, -0.012, 1.030, 17:34:27.474
248, -15303.93, 13981.37, -187500.02, -187500.02, -187500.02, -145827.56, -187500.02, -187500.02, 0.000, 0.000, 0.000, 17:34:27.474
249, -15021.65, 13759.49, -187500.02, -187500.02, -187500.02, -145990.77, -187500.02, -187500.02, 0.000, 0.000, 0.000, 17:34:27.474
250, -14279.75, 14256.75, -187500.02, -187500.02, -187500.02, -146373.98, -187500.02, -187500.02, 0.000, 0.000, 0.000, 17:34:27.475
251, -14238.53, 14477.40, -187500.02, -187500.02, -187500.02, -146515.39, -187500.02, -187500.02, 0.000, 0.000, 0.000, 17:34:27.475
252, -14619.29, 14394.05, -187500.02, -187500.02, -187500.02, -146302.58, -187500.02, -187500.02, 0.000, 0.000, 0.000, 17:34:27.475
253, -15301.67, 13984.35, -187500.02, -187500.02, -187500.02, -145841.70, -187500.02, -187500.02, 0.000, 0.000, 0.000, 17:34:27.475
254, -15021.31, 13759.13, -187500.02, -187500.02, -187500.02, -146012.13, -187500.02, -187500.02, 0.000, 0.000, 0.000, 17:34:27.475
255, -14291.75, 14242.44, -187500.02, -187500.02, -187500.02, -146363.84, -187500.02, -187500.02, 0.000, 0.000, 0.000, 17:34:27.475
0, -14248.92, 14466.79, -187500.02, -187500.02, -187500.02, -146460.56, -187500.02, -187500.02, 0.006, -0.016, 1.034, 17:34:27.475
1, -14613.41, 14399.28, -187500.02, -187500.02, -187500.02, -146259.91, -187500.02, -187500.02, 0.000, 0.000, 0.000, 17:34:27.475
2, -15289.80, 14003.01, -187500.02, -187500.02, -187500.02, -145825.59, -187500.02, -187500.02, 0.000, 0.000, 0.000, 17:34:27.476
3, -15014.38, 13774.71, -187500.02, -187500.02, -187500.02, -145999.64, -187500.02, -187500.02, 0.000, 0.000, 0.000, 17:34:27.476
4, -14276.91, 14261.71, -187500.02, -187500.02, -187500.02, -146363.39, -187500.02, -187500.02, 0.000, 0.000, 0.000, 17:34:27.476
5, -14229.70, 14489.25, -187500.02, -187500.02, -187500.02, -146467.31, -187500.02, -187500.02, 0.000, 0.000, 0.000, 17:34:27.476
6, -14598.39, 14411.69, -187500.02, -187500.02, -187500.02, -146263.00, -187500.02, -187500.02, 0.000, 0.000, 0.000, 17:34:27.476
7, -15284.77, 14002.99, -187500.02, -187500.02, -187500.02, -145781.58, -187500.02, -187500.02, 0.000, 0.000, 0.000, 17:34:27.476
8, -15012.17, 13775.22, -187500.02, -187500.02, -187500.02, -145996.53, -187500.02, -187500.02, 0.000, 0.000, 0.000, 17:34:27.476
9, -14273.04, 14258.31, -187500.02, -187500.02, -187500.02, -146369.44, -187500.02, -187500.02, 0.000, 0.000, 0.000, 17:34:27.476
10, -14224.40, 14482.23, -187500.02, -187500.02, -187500.02, -146470.28, -187500.02, -187500.02, 0.002, -0.014, 1.028, 17:34:27.477
11, -14581.36, 14414.73, -187500.02, -187500.02, -187500.02, -146297.17, -187500.02, -187500.02, 0.000, 0.000, 0.000, 17:34:27.477
12, -15268.01, 14012.04, -187500.02, -187500.02, -187500.02, -145881.56, -187500.02, -187500.02, 0.000, 0.000, 0.000, 17:34:27.477
13, -15011.16, 13769.48, -187500.02, -187500.02, -187500.02, -146033.42, -187500.02, -187500.02, 0.000, 0.000, 0.000, 17:34:27.477
14, -14271.41, 14252.28, -187500.02, -187500.02, -187500.02, -146388.34, -187500.02, -187500.02, 0.000, 0.000, 0.000, 17:34:27.477
15, -14231.53, 14470.09, -187500.02, -187500.02, -187500.02, -146470.03, -187500.02, -187500.02, 0.000, 0.000, 0.000, 17:34:27.477
16, -14596.72, 14403.78, -187500.02, -187500.02, -187500.02, -146275.08, -187500.02, -187500.02, 0.000, 0.000, 0.000, 17:34:27.477
17, -15278.74, 14008.58, -187500.02, -187500.02, -187500.02, -145856.17, -187500.02, -187500.02, 0.000, 0.000, 0.000, 17:34:27.477
18, -15021.87, 13765.61, -187500.02, -187500.02, -187500.02, -146024.08, -187500.02, -187500.02, 0.000, 0.000, 0.000, 17:34:27.477
19, -14284.93, 14239.04, -187500.02, -187500.02, -187500.02, -146386.38, -187500.02, -187500.02, 0.000, 0.000, 0.000, 17:34:27.478
20, -14245.84, 14459.39, -187500.02, -187500.02, -187500.02, -146466.19, -187500.02, -187500.02, 0.006, -0.014, 1.026, 17:34:27.478
21, -14604.32, 14393.38, -187500.02, -187500.02, -187500.02, -146268.61, -187500.02, -187500.02, 0.000, 0.000, 0.000, 17:34:27.478
22, -15286.60, 13998.90, -187500.02, -187500.02, -187500.02, -145816.77, -187500.02, -187500.02, 0.000, 0.000, 0.000, 17:34:27.478
23, -15016.84, 13774.87, -187500.02, -187500.02, -187500.02, -146024.86, -187500.02, -187500.02, 0.000, 0.000, 0.000, 17:34:27.478
24, -14272.77, 14257.80, -187500.02, -187500.02, -187500.02, -146448.20, -187500.02, -187500.02, 0.000, 0.000, 0.000, 17:34:27.478
25, -14235.18, 14476.42, -187500.02, -187500.02, -187500.02, -146512.38, -187500.02, -187500.02, 0.000, 0.000, 0.000, 17:34:27.478
26, -14592.47, 14411.09, -187500.02, -187500.02, -187500.02, -146310.25, -187500.02, -187500.02, 0.000, 0.000, 0.000, 17:34:27.478
27, -15275.49, 14019.24, -187500.02, -187500.02, -187500.02, -145914.91, -187500.02, -187500.02, 0.000, 0.000, 0.000, 17:34:27.479
28, -15039.62, 13762.35, -187500.02, -187500.02, -187500.02, -146086.39, -187500.02, -187500.02, 0.000, 0.000, 0.000, 17:34:27.479
29, -14297.05, 14236.32, -187500.02, -187500.02, -187500.02, -146417.48, -187500.02, -187500.02, 0.000, 0.000, 0.000, 17:34:27.479
30, -14242.60, 14468.19, -187500.02, -187500.02, -187500.02, -146464.42, -187500.02, -187500.02, 0.008, -0.010, 1.030, 17:34:27.479
31, -14591.49, 14408.85, -187500.02, -187500.02, -187500.02, -146226.67, -187500.02, -187500.02, 0.000, 0.000, 0.000, 17:34:27.479
32, -15261.19, 14033.74, -187500.02, -187500.02, -187500.02, -145834.33, -187500.02, -187500.02, 0.000, 0.000, 0.000, 17:34:27.479
33, -15019.08, 13780.03, -187500.02, -187500.02, -187500.02, -146012.36, -187500.02, -187500.02, 0.000, 0.000, 0.000, 17:34:27.479
34, -14278.96, 14248.43, -187500.02, -187500.02, -187500.02, -146353.11, -187500.02, -187500.02, 0.000, 0.000, 0.000, 17:34:27.479
35, -14222.10, 14484.02, -187500.02, -187500.02, -187500.02, -146465.77, -187500.02, -187500.02, 0.000, 0.000, 0.000, 17:34:27.479
36, -14578.52, 14417.81, -187500.02, -187500.02, -187500.02, -146277.56, -187500.02, -187500.02, 0.000, 0.000, 0.000, 17:34:27.480
37, -15261.41, 14033.30, -187500.02, -187500.02, -187500.02, -145879.75, -187500.02, -187500.02, 0.000, 0.000, 0.000, 17:34:27.480
38, -15032.98, 13767.58, -187500.02, -187500.02, -187500.02, -146067.02, -187500.02, -187500.02, 0.000, 0.000, 0.000, 17:34:27.480
39, -14298.32, 14227.06, -187500.02, -187500.02, -187500.02, -146395.89, -187500.02, -187500.02, 0.000, 0.000, 0.000, 17:34:27.480
40, -14228.83, 14473.63, -187500.02, -187500.02, -187500.02, -146489.50, -187500.02, -187500.02, 0.008, -0.014, 1.032, 17:34:27.480
41, -14585.90, 14407.17, -187500.02, -187500.02, -187500.02, -146270.77, -187500.02, -187500.02, 0.000, 0.000, 0.000, 17:34:27.480
42, -15267.85, 14024.45, -187500.02, -187500.02, -187500.02, -145883.11, -187500.02, -187500.02, 0.000, 0.000, 0.000, 17:34:27.480
43, -15033.18, 13767.00, -187500.02, -187500.02, -187500.02, -146086.70, -187500.02, -187500.02, 0.000, 0.000, 0.000, 17:34:27.480
44, -14298.46, 14223.89, -187500.02, -187500.02, -187500.02, -146413.33, -187500.02, -187500.02, 0.000, 0.000, 0.000, 17:34:27.481
45, -14236.54, 14468.78, -187500.02, -187500.02, -187500.02, -146494.61, -187500.02, -187500.02, 0.000, 0.000, 0.000, 17:34:27.481
46, -14587.22, 14409.10, -187500.02, -187500.02, -187500.02, -146302.58, -187500.02, -187500.02, 0.000, 0.000, 0.000, 17:34:27.481
47, -15264.97, 14031.33, -187500.02, -187500.02, -187500.02, -145867.69, -187500.02, -187500.02, 0.000, 0.000, 0.000, 17:34:27.481
48, -15039.28, 13766.04, -187500.02, -187500.02, -187500.02, -146065.67, -187500.02, -187500.02, 0.000, 0.000, 0.000, 17:34:27.481
49, -14286.21, 14235.49, -187500.02, -187500.02, -187500.02, -146406.88, -187500.02, -187500.02, 0.000, 0.000, 0.000, 17:34:27.481
50, -14222.12, 14479.79, -187500.02, -187500.02, -187500.02, -146450.02, -187500.02, -187500.02, 0.006, -0.016, 1.034, 17:34:27.481
51, -14559.81, 14434.35, -187500.02, -187500.02, -187500.02, -146285.92, -187500.02, -187500.02, 0.000, 0.000, 0.000, 17:34:27.481
52, -15239.02, 14058.08, -187500.02, -187500.02, -187500.02, -145867.30, -187500.02, -187500.02, 0.000, 0.000, 0.000, 17:34:27.482
53, -15006.11, 13798.31, -187500.02, -187500.02, -187500.02, -146063.58, -187500.02, -187500.02, 0.000, 0.000, 0.000, 17:34:27.482
54, -14256.14, 14271.75, -187500.02, -187500.02, -187500.02, -146446.59, -187500.02, -187500.02, 0.000, 0.000, 0.000, 17:34:27.482
55, -14200.29, 14510.33, -187500.02, -187500.02, -187500.02, -146554.80, -187500.02, -187500.02, 0.000, 0.000, 0.000, 17:34:27.482
56, -14554.83, 14443.65, -187500.02, -187500.02, -187500.02, -146350.20, -187500.02, -187500.02, 0.000, 0.000, 0.000, 17:34:27.482
57, -15247.15, 14057.30, -187500.02, -187500.02, -187500.02, -145876.13, -187500.02, -187500.02, 0.000, 0.000, 0.000, 17:34:27.482
58, -15029.11, 13785.17, -187500.02, -187500.02, -187500.02, -146022.69, -187500.02, -187500.02, 0.000, 0.000, 0.000, 17:34:27.482
59, -14272.73, 14258.22, -187500.02, -187500.02, -187500.02, -146382.78, -187500.02, -187500.02, 0.000, 0.000, 0.000, 17:34:27.482
60, -14209.32, 14500.49, -187500.02, -187500.02, -187500.02, -146486.73, -187500.02, -187500.02, 0.006, -0.018, 1.038, 17:34:27.482
61, -14560.04, 14434.44, -187500.02, -187500.02, -187500.02, -146311.56, -187500.02, -187500.02, 0.000, 0.000, 0.000, 17:34:27.483
62, -15251.73, 14052.56, -187500.02, -187500.02, -187500.02, -145899.23, -187500.02, -187500.02, 0.000, 0.000, 0.000, 17:34:27.483
63, -15044.62, 13772.50, -187500.02, -187500.02, -187500.02, -146038.52, -187500.02, -187500.02, 0.000, 0.000, 0.000, 17:34:27.483
64, -14289.29, 14239.45, -187500.02, -187500.02, -187500.02, -146412.66, -187500.02, -187500.02, 0.000, 0.000, 0.000, 17:34:27.483
65, -14219.60, 14486.12, -187500.02, -187500.02, -187500.02, -146532.80, -187500.02, -187500.02, 0.000, 0.000, 0.000, 17:34:27.483
66, -14574.43, 14420.56, -187500.02, -187500.02, -187500.02, -146340.86, -187500.02, -187500.02, 0.000, 0.000, 0.000, 17:34:27.483
67, -15257.50, 14048.99, -187500.02, -187500.02, -187500.02, -145932.45, -187500.02, -187500.02, 0.000, 0.000, 0.000, 17:34:27.483
68, -15052.04, 13766.19, -187500.02, -187500.02, -187500.02, -146102.11, -187500.02, -187500.02, 0.000, 0.000, 0.000, 17:34:27.483
69, -14297.90, 14229.77, -187500.02, -187500.02, -187500.02, -146436.27, -187500.02, -187500.02, 0.000, 0.000, 0.000, 17:34:27.484
70, -14222.46, 14484.18, -187500.02, -187500.02, -187500.02, -146523.22, -187500.02, -187500.02, 0.006, -0.010, 1.030, 17:34:27.484
71, -14563.99, 14429.48, -187500.02, -187500.02, -187500.02, -146350.81, -187500.02, -187500.02, 0.000, 0.000, 0.000, 17:34:27.484
72, -15251.91, 14055.63, -187500.02, -187500.02, -187500.02, -145920.14, -187500.02, -187500.02, 0.000, 0.000, 0.000, 17:34:27.484
73, -15043.75, 13778.53, -187500.02, -187500.02, -187500.02, -146082.30, -187500.02, -187500.02, 0.000, 0.000, 0.000, 17:34:27.484
74, -14290.92, 14237.57, -187500.02, -187500.02, -187500.02, -146432.11, -187500.02, -187500.02, 0.000, 0.000, 0.000, 17:34:27.484
75, -14201.54, 14506.04, -187500.02, -187500.02, -187500.02, -146531.81, -187500.02, -187500.02, 0.000, 0.000, 0.000, 17:34:27.484
76, -14529.77, 14462.90, -187500.02, -187500.02, -187500.02, -146388.97, -187500.02, -187500.02, 0.000, 0.000, 0.000, 17:34:27.484
77, -15222.92, 14088.10, -187500.02, -187500.02, -187500.02, -145960.00, -187500.02, -187500.02, 0.000, 0.000, 0.000, 17:34:27.484
78, -15027.99, 13803.63, -187500.02, -187500.02, -187500.02, -146078.61, -187500.02, -187500.02, 0.000, 0.000, 0.000, 17:34:27.485
79, -14272.42, 14263.41, -187500.02, -187500.02, -187500.02, -146425.52, -187500.02, -187500.02, 0.000, 0.000, 0.000, 17:34:27.485
80, -14193.83, 14517.97, -187500.02, -187500.02, -187500.02, -146538.23, -187500.02, -187500.02, 0.004, -0.012, 1.032, 17:34:27.485
81, -14527.90, 14465.89, -187500.02, -187500.02, -187500.02, -146352.36, -187500.02, -187500.02, 0.000, 0.000, 0.000, 17:34:27.485
82, -15215.64, 14097.11, -187500.02, -187500.02, -187500.02, -145885.30, -187500.02, -187500.02, 0.000, 0.000, 0.000, 17:34:27.485
83, -15020.51, 13809.15, -187500.02, -187500.02, -187500.02, -146067.27, -187500.02, -187500.02, 0.000, 0.000, 0.000, 17:34:27.485
84, -14256.81, 14267.52, -187500.02, -187500.02, -187500.02, -146460.69, -187500.02, -187500.02, 0.000, 0.000, 0.000, 17:34:27.485
85, -14175.77, 14525.24, -187500.02, -187500.02, -187500.02, -146591.16, -187500.02, -187500.02, 0.000, 0.000, 0.000, 17:34:27.485
86, -14513.55, 14469.85, -187500.02, -187500.02, -187500.02, -146452.84, -187500.02, -187500.02, 0.000, 0.000, 0.000, 17:34:27.486
87, -15201.40, 14100.08, -187500.02, -187500.02, -187500.02, -146029.81, -187500.02, -187500.02, 0.000, 0.000, 0.000, 17:34:27.486
88, -15032.64, 13788.90, -187500.02, -187500.02, -187500.02, -146133.70, -187500.02, -187500.02, 0.000, 0.000, 0.000, 17:34:27.486
89, -14287.48, 14231.38, -187500.02, -187500.02, -187500.02, -146460.67, -187500.02, -187500.02, 0.000, 0.000, 0.000, 17:34:27.486
90, -14203.35, 14492.04, -187500.02, -187500.02, -187500.02, -146535.63, -187500.02, -187500.02, 0.006, -0.018, 1.036, 17:34:27.953
91, -14543.41, 14438.15, -187500.02, -187500.02, -187500.02, -146357.11, -187500.02, -187500.02, 0.000, 0.000, 0.000, 17:34:27.953
92, -15230.57, 14073.62, -187500.02, -187500.02, -187500.02, -145941.33, -187500.02, -187500.02, 0.000, 0.000, 0.000, 17:34:27.953
93, -15055.22, 13774.51, -187500.02, -187500.02, -187500.02, -146102.03, -187500.02, -187500.02, 0.000, 0.000, 0.000, 17:34:27.953
94, -14306.28, 14213.99, -187500.02, -187500.02, -187500.02, -146458.28, -187500.02, -187500.02, 0.000, 0.000, 0.000, 17:34:27.953
95, -14223.73, 14473.29, -187500.02, -187500.02, -187500.02, -146554.19, -187500.02, -187500.02, 0.000, 0.000, 0.000, 17:34:27.953
96, -14553.02, 14422.17, -187500.02, -187500.02, -187500.02, -146391.27, -187500.02, -187500.02, 0.000, 0.000, 0.000, 17:34:27.953
97, -15236.92, 14060.81, -187500.02, -187500.02, -187500.02, -146003.75, -187500.02, -187500.02, 0.000, 0.000, 0.000, 17:34:27.954
98, -15066.13, 13758.28, -187500.02, -187500.02, -187500.02, -146166.41, -187500.02, -187500.02, 0.000, 0.000, 0.000, 17:34:27.954
99, -14311.55, 14204.53, -187500.02, -187500.02, -187500.02, -146507.52, -187500.02, -187500.02, 0.000, 0.000, 0.000, 17:34:27.954
100, -14218.35, 14474.90, -187500.02, -187500.02, -187500.02, -146619.66, -187500.02, -187500.02, 0.006, -0.020, 1.036, 17:34:27.954
101, -14549.51, 14426.17, -187500.02, -187500.02, -187500.02, -146436.98, -187500.02, -187500.02, 0.000, 0.000, 0.000, 17:34:27.954
102, -15227.50, 14072.72, -187500.02, -187500.02, -187500.02, -145988.56, -187500.02, -187500.02, 0.000, 0.000, 0.000, 17:34:27.954
103, -15050.14, 13783.18, -187500.02, -187500.02, -187500.02, -146118.95, -187500.02, -187500.02, 0.000, 0.000, 0.000, 17:34:27.954
104, -14284.93, 14239.87, -187500.02, -187500.02, -187500.02, -146469.52, -187500.02, -187500.02, 0.000, 0.000, 0.000, 17:34:27.954
105, -14190.18, 14510.84, -187500.02, -187500.02, -187500.02, -146581.02, -187500.02, -187500.02, 0.000, 0.000, 0.000, 17:34:27.955
106, -14521.30, 14458.27, -187500.02, -187500.02, -187500.02, -146403.39, -187500.02, -187500.02, 0.000, 0.000, 0.000, 17:34:27.955
107, -15208.75, 14098.45, -187500.02, -187500.02, -187500.02, -145971.91, -187500.02, -187500.02, 0.000, 0.000, 0.000, 17:34:27.955
108, -15043.08, 13797.73, -187500.02, -187500.02, -187500.02, -146129.31, -187500.02, -187500.02, 0.000, 0.000, 0.000, 17:34:27.955
109, -14281.74, 14244.27, -187500.02, -187500.02, -187500.02, -146514.25, -187500.02, -187500.02, 0.000, 0.000, 0.000, 17:34:27.955
110, -14198.68, 14502.82, -187500.02, -187500.02, -187500.02, -146577.02, -187500.02, -187500.02, 0.004, -0.022, 1.032, 17:34:27.955
111, -14526.17, 14447.99, -187500.02, -187500.02, -187500.02, -146387.77, -187500.02, -187500.02, 0.000, 0.000, 0.000, 17:34:27.955
112, -15212.64, 14087.99, -187500.02, -187500.02, -187500.02, -145937.70, -187500.02, -187500.02, 0.000, 0.000, 0.000, 17:34:27.955
113, -15042.79, 13792.28, -187500.02, -187500.02, -187500.02, -146068.80, -187500.02, -187500.02, 0.000, 0.000, 0.000, 17:34:27.956
114, -14270.52, 14246.87, -187500.02, -187500.02, -187500.02, -146471.72, -187500.02, -187500.02, 0.000, 0.000, 0.000, 17:34:27.956
115, -14178.29, 14515.80, -187500.02, -187500.02, -187500.02, -146610.83, -187500.02, -187500.02, 0.000, 0.000, 0.000, 17:34:27.956
116, -14513.72, 14458.20, -187500.02, -187500.02, -187500.02, -146468.88, -187500.02, -187500.02, 0.000, 0.000, 0.000, 17:34:27.956
117, -15207.25, 14092.86, -187500.02, -187500.02, -187500.02, -146041.84, -187500.02, -187500.02, 0.000, 0.000, 0.000, 17:34:27.956
118, -15053.79, 13788.17, -187500.02, -187500.02, -187500.02, -146177.63, -187500.02, -187500.02, 0.000, 0.000, 0.000, 17:34:27.956
119, -14300.09, 14227.42, -187500.02, -187500.02, -187500.02, -146512.02, -187500.02, -187500.02, 0.008, -0.016, 1.036, 17:34:27.956
120, -14200.71, 14499.06, -187500.02, -187500.02, -187500.02, -146610.19, -187500.02, -187500.02, 0.000, 0.000, 0.000, 17:34:27.956
121, -14522.51, 14450.04, -187500.02, -187500.02, -187500.02, -146457.86, -187500.02, -187500.02, 0.000, 0.000, 0.000, 17:34:27.956
122, -15215.88, 14089.82, -187500.02, -187500.02, -187500.02, -146006.42, -187500.02, -187500.02, 0.000, 0.000, 0.000, 17:34:27.957
123, -15072.00, 13776.97, -187500.02, -187500.02, -187500.02, -146129.13, -187500.02, -187500.02, 0.000, 0.000, 0.000, 17:34:27.957
124, -14311.04, 14218.35, -187500.02, -187500.02, -187500.02, -146478.13, -187500.02, -187500.02, 0.000, 0.000, 0.000, 17:34:27.957
125, -14206.37, 14494.82, -187500.02, -187500.02, -187500.02, -146575.77, -187500.02, -187500.02, 0.000, 0.000, 0.000, 17:34:27.957
126, -14517.95, 14455.39, -187500.02, -187500.02, -187500.02, -146431.45, -187500.02, -187500.02, 0.000, 0.000, 0.000, 17:34:27.957
127, -15203.70, 14099.39, -187500.02, -187500.02, -187500.02, -146005.75, -187500.02, -187500.02, 0.000, 0.000, 0.000, 17:34:27.957
128, -15057.86, 13786.42, -187500.02, -187500.02, -187500.02, -146155.73, -187500.02, -187500.02, 0.000, 0.000, 0.000, 17:34:27.958
129, -14288.60, 14233.59, -187500.02, -187500.02, -187500.02, -146535.70, -187500.02, -187500.02, 0.000, -0.018, 1.028, 17:34:27.958
130, -14195.53, 14500.87, -187500.02, -187500.02, -187500.02, -146611.14, -187500.02, -187500.02, 0.000, 0.000, 0.000, 17:34:27.958
131, -14517.01, 14446.07, -187500.02, -187500.02, -187500.02, -146421.95, -187500.02, -187500.02, 0.000, 0.000, 0.000, 17:34:27.958
132, -15189.95, 14103.32, -187500.02, -187500.02, -187500.02, -146041.75, -187500.02, -187500.02, 0.000, 0.000, 0.000, 17:34:27.958
133, -15067.11, 13773.68, -187500.02, -187500.02, -187500.02, -146146.16, -187500.02, -187500.02, 0.000, 0.000, 0.000, 17:34:27.958
134, -14291.79, 14223.96, -187500.02, -187500.02, -187500.02, -146517.06, -187500.02, -187500.02, 0.000, 0.000, 0.000, 17:34:27.958
135, -14192.82, 14494.52, -187500.02, -187500.02, -187500.02, -146648.41, -187500.02, -187500.02, 0.000, 0.000, 0.000, 17:34:27.958
136, -14517.82, 14440.32, -187500.02, -187500.02, -187500.02, -146457.14, -187500.02, -187500.02, 0.000, 0.000, 0.000, 17:34:27.958
137, -15194.29, 14092.77, -187500.02, -187500.02, -187500.02, -146035.94, -187500.02, -187500.02, 0.000, 0.000, 0.000, 17:34:27.959
138, -15062.10, 13777.23, -187500.02, -187500.02, -187500.02, -146151.55, -187500.02, -187500.02, 0.000, 0.000, 0.000, 17:34:27.959
139, -14293.07, 14218.15, -187500.02, -187500.02, -187500.02, -146525.56, -187500.02, -187500.02, 0.000, -0.010, 1.026, 17:34:27.959
140, -14189.62, 14489.70, -187500.02, -187500.02, -187500.02, -146641.63, -187500.02, -187500.02, 0.000, 0.000, 0.000, 17:34:27.959
141, -14512.65, 14437.42, -187500.02, -187500.02, -187500.02, -146467.16, -187500.02, -187500.02, 0.000, 0.000, 0.000, 17:34:27.959
142, -15192.75, 14094.65, -187500.02, -187500.02, -187500.02, -146029.16, -187500.02, -187500.02, 0.000, 0.000, 0.000, 17:34:27.959
143, -15057.18, 13784.70, -187500.02, -187500.02, -187500.02, -146170.59, -187500.02, -187500.02, 0.000, 0.000, 0.000, 17:34:27.959
144, -14284.80, 14229.63, -187500.02, -187500.02, -187500.02, -146577.08, -187500.02, -187500.02, 0.000, 0.000, 0.000, 17:34:27.959
145, -14184.66, 14500.94, -187500.02, -187500.02, -187500.02, -146688.92, -187500.02, -187500.02, 0.000, 0.000, 0.000, 17:34:27.960
146, -14501.59, 14451.23, -187500.02, -187500.02, -187500.02, -146544.88, -187500.02, -187500.02, 0.000, 0.000, 0.000, 17:34:27.960
147, -15183.34, 14102.63, -187500.02, -187500.02, -187500.02, -146125.91, -187500.02, -187500.02, 0.000, 0.000, 0.000, 17:34:27.960
148, -15064.58, 13774.78, -187500.02, -187500.02, -187500.02, -146244.33, -187500.02, -187500.02, 0.000, 0.000, 0.000, 17:34:27.960
149, -14305.90, 14203.17, -187500.02, -187500.02, -187500.02, -146601.44, -187500.02, -187500.02, 0.004, -0.018, 1.032, 17:34:27.960
150, -14181.33, 14499.49, -187500.02, -187500.02, -187500.02, -146703.53, -187500.02, -187500.02, 0.000, 0.000, 0.000, 17:34:27.960
151, -14498.68, 14450.98, -187500.02, -187500.02, -187500.02, -146513.53, -187500.02, -187500.02, 0.000, 0.000, 0.000, 17:34:27.960
152, -15186.27, 14103.68, -187500.02, -187500.02, -187500.02, -146065.45, -187500.02, -187500.02, 0.000, 0.000, 0.000, 17:34:27.960
153, -15068.61, 13780.99, -187500.02, -187500.02, -187500.02, -146186.91, -187500.02, -187500.02, 0.000, 0.000, 0.000, 17:34:27.961
154, -14297.83, 14217.27, -187500.02, -187500.02, -187500.02, -146546.25, -187500.02, -187500.02, 0.000, 0.000, 0.000, 17:34:27.961
155, -14174.94, 14505.34, -187500.02, -187500.02, -187500.02, -146654.34, -187500.02, -187500.02, 0.000, 0.000, 0.000, 17:34:27.961
156, -14486.63, 14458.11, -187500.02, -187500.02, -187500.02, -146505.42, -187500.02, -187500.02, 0.000, 0.000, 0.000, 17:34:27.961
157, -15174.53, 14111.77, -187500.02, -187500.02, -187500.02, -146078.17, -187500.02, -187500.02, 0.000, 0.000, 0.000, 17:34:27.961
158, -15060.20, 13790.42, -187500.02, -187500.02, -187500.02, -146196.86, -187500.02, -187500.02, 0.000, 0.000, 0.000, 17:34:27.961
159, -14294.43, 14218.08, -187500.02, -187500.02, -187500.02, -146580.20, -187500.02, -187500.02, 0.002, -0.014, 1.024, 17:34:27.961
160, -14179.23, 14501.03, -187500.02, -187500.02, -187500.02, -146689.38, -187500.02, -187500.02, 0.000, 0.000, 0.000, 17:34:27.961
161, -14492.00, 14450.29, -187500.02, -187500.02, -187500.02, -146547.23, -187500.02, -187500.02, 0.000, 0.000, 0.000, 17:34:27.961
162, -15182.96, 14098.27, -187500.02, -187500.02, -187500.02, -146079.13, -187500.02, -187500.02, 0.000, 0.000, 0.000, 17:34:27.962
163, -15078.35, 13769.97, -187500.02, -187500.02, -187500.02, -146190.94, -187500.02, -187500.02, 0.000, 0.000, 0.000, 17:34:27.962
164, -14306.84, 14203.26, -187500.02, -187500.02, -187500.02, -146559.52, -187500.02, -187500.02, 0.000, 0.000, 0.000, 17:34:27.962
165, -14182.87, 14488.02, -187500.02, -187500.02, -187500.02, -146658.31, -187500.02, -187500.02, 0.000, 0.000, 0.000, 17:34:27.962
166, -14491.15, 14441.86, -187500.02, -187500.02, -187500.02, -146501.20, -187500.02, -187500.02, 0.000, 0.000, 0.000, 17:34:27.962
167, -15179.38, 14099.01, -187500.02, -187500.02, -187500.02, -146040.02, -187500.02, -187500.02, 0.000, 0.000, 0.000, 17:34:27.962
168, -15068.92, 13779.74, -187500.02, -187500.02, -187500.02, -146184.66, -187500.02, -187500.02, 0.000, 0.000, 0.000, 17:34:27.962
169, -14288.22, 14224.00, -187500.02, -187500.02, -187500.02, -146569.88, -187500.02, -187500.02, 0.004, -0.014, 1.026, 17:34:27.962
170, -14161.66, 14515.13, -187500.02, -187500.02, -187500.02, -146716.53, -187500.02, -187500.02, 0.000, 0.000, 0.000, 17:34:27.963
171, -14475.91, 14462.85, -187500.02, -187500.02, -187500.02, -146546.13, -187500.02, -187500.02, 0.000, 0.000, 0.000, 17:34:27.963
172, -15161.54, 14119.80, -187500.02, -187500.02, -187500.02, -146079.55, -187500.02, -187500.02, 0.000, 0.000, 0.000, 17:34:27.963
173, -15056.27, 13799.54, -187500.02, -187500.02, -187500.02, -146160.69, -187500.02, -187500.02, 0.000, 0.000, 0.000, 17:34:27.963
174, -14271.45, 14243.34, -187500.02, -187500.02, -187500.02, -146574.16, -187500.02, -187500.02, 0.000, 0.000, 0.000, 17:34:27.963
175, -14153.71, 14524.74, -187500.02, -187500.02, -187500.02, -146700.89, -187500.02, -187500.02, 0.000, 0.000, 0.000, 17:34:27.963
176, -14460.37, 14476.62, -187500.02, -187500.02, -187500.02, -146542.23, -187500.02, -187500.02, 0.000, 0.000, 0.000, 17:34:27.963
177, -15144.27, 14131.11, -187500.02, -187500.02, -187500.02, -146114.47, -187500.02, -187500.02, 0.000, 0.000, 0.000, 17:34:27.963
178, -15055.24, 13794.29, -187500.02, -187500.02, -187500.02, -146250.47, -187500.02, -187500.02, 0.000, 0.000, 0.000, 17:34:27.963
179, -14291.68, 14216.25, -187500.02, -187500.02, -187500.02, -146608.16, -187500.02, -187500.02, 0.004, -0.014, 1.024, 17:34:27.964
180, -14176.42, 14497.47, -187500.02, -187500.02, -187500.02, -146712.64, -187500.02, -187500.02, 0.000, 0.000, 0.000, 17:34:27.964
181, -14483.35, 14451.54, -187500.02, -187500.02, -187500.02, -146561.84, -187500.02, -187500.02, 0.000, 0.000, 0.000, 17:34:27.964
182, -15170.22, 14107.06, -187500.02, -187500.02, -187500.02, -146113.27, -187500.02, -187500.02, 0.000, 0.000, 0.000, 17:34:27.964
183, -15083.34, 13774.82, -187500.02, -187500.02, -187500.02, -146211.39, -187500.02, -187500.02, 0.000, 0.000, 0.000, 17:34:27.964
184, -14306.84, 14206.90, -187500.02, -187500.02, -187500.02, -146592.13, -187500.02, -187500.02, 0.000, 0.000, 0.000, 17:34:27.964
185, -14175.01, 14499.31, -187500.02, -187500.02, -187500.02, -146730.91, -187500.02, -187500.02, 0.000, 0.000, 0.000, 17:34:27.964
186, -14485.65, 14445.04, -187500.02, -187500.02, -187500.02, -146590.69, -187500.02, -187500.02, 0.000, 0.000, 0.000, 17:34:27.964
187, -15169.64, 14106.36, -187500.02, -187500.02, -187500.02, -146150.11, -187500.02, -187500.02, 0.000, 0.000, 0.000, 17:34:27.965
188, -15086.94, 13768.92, -187500.02, -187500.02, -187500.02, -146246.67, -187500.02, -187500.02, 0.000, 0.000, 0.000, 17:34:27.965
189, -14316.45, 14191.37, -187500.02, -187500.02, -187500.02, -146615.88, -187500.02, -187500.02, 0.006, -0.012, 1.030, 17:34:27.965
190, -14184.84, 14491.60, -187500.02, -187500.02, -187500.02, -146729.83, -187500.02, -187500.02, 0.000, 0.000, 0.000, 17:34:27.965
191, -14475.59, 14455.50, -187500.02, -187500.02, -187500.02, -146566.22, -187500.02, -187500.02, 0.000, 0.000, 0.000, 17:34:27.965
192, -15160.61, 14114.37, -187500.02, -187500.02, -187500.02, -146100.58, -187500.02, -187500.02, 0.000, 0.000, 0.000, 17:34:27.965
193, -15078.29, 13783.02, -187500.02, -187500.02, -187500.02, -146176.16, -187500.02, -187500.02, 0.000, 0.000, 0.000, 17:34:27.965
194, -14296.78, 14213.32, -187500.02, -187500.02, -187500.02, -146565.91, -187500.02, -187500.02, 0.000, 0.000, 0.000, 17:34:27.965
195, -14160.66, 14510.10, -187500.02, -187500.02, -187500.02, -146681.44, -187500.02, -187500.02, 0.000, 0.000, 0.000, 17:34:27.965
196, -14454.22, 14473.96, -187500.02, -187500.02, -187500.02, -146576.13, -187500.02, -187500.02, 0.000, 0.000, 0.000, 17:34:27.966
197, -15141.23, 14135.53, -187500.02, -187500.02, -187500.02, -146129.75, -187500.02, -187500.02, 0.000, 0.000, 0.000, 17:34:27.966
198, -15070.26, 13791.67, -187500.02, -187500.02, -187500.02, -146224.89, -187500.02, -187500.02, 0.000, 0.000, 0.000, 17:34:27.966
199, -14296.04, 14213.34, -187500.02, -187500.02, -187500.02, -146591.27, -187500.02, -187500.02, 0.008, -0.012, 1.026, 17:34:27.966
200, -14160.41, 14508.25, -187500.02, -187500.02, -187500.02, -146690.34, -187500.02, -187500.02, 0.000, 0.000, 0.000, 17:34:27.966
201, -14451.23, 14473.69, -187500.02, -187500.02, -187500.02, -146556.42, -187500.02, -187500.02, 0.000, 0.000, 0.000, 17:34:27.966
202, -15135.71, 14139.13, -187500.02, -187500.02, -187500.02, -146096.72, -187500.02, -187500.02, 0.000, 0.000, 0.000, 17:34:27.966
203, -15064.83, 13802.02, -187500.02, -187500.02, -187500.02, -146175.70, -187500.02, -187500.02, 0.000, 0.000, 0.000, 17:34:27.966
204, -14286.61, 14222.95, -187500.02, -187500.02, -187500.02, -146589.22, -187500.02, -187500.02, 0.000, 0.000, 0.000, 17:34:27.967
205, -14147.13, 14520.32, -187500.02, -187500.02, -187500.02, -146728.36, -187500.02, -187500.02, 0.000, 0.000, 0.000, 17:34:27.967
206, -14441.39, 14477.56, -187500.02, -187500.02, -187500.02, -146624.63, -187500.02, -187500.02, 0.000, 0.000, 0.000, 17:34:27.967
207, -15132.24, 14137.39, -187500.02, -187500.02, -187500.02, -146217.33, -187500.02, -187500.02, 0.000, 0.000, 0.000, 17:34:27.967
208, -15081.41, 13782.20, -187500.02, -187500.02, -187500.02, -146301.91, -187500.02, -187500.02, 0.000, 0.000, 0.000, 17:34:27.967
209, -14316.34, 14190.81, -187500.02, -187500.02, -187500.02, -146652.83, -187500.02, -187500.02, 0.000, -0.014, 1.028, 17:34:27.967
210, -14172.66, 14496.13, -187500.02, -187500.02, -187500.02, -146770.06, -187500.02, -187500.02, 0.000, 0.000, 0.000, 17:34:28.432
211, -14474.97, 14447.72, -187500.02, -187500.02, -187500.02, -146617.31, -187500.02, -187500.02, 0.000, 0.000, 0.000, 17:34:28.433
212, -15162.66, 14115.19, -187500.02, -187500.02, -187500.02, -146180.00, -187500.02, -187500.02, 0.000, 0.000, 0.000, 17:34:28.433
213, -15105.53, 13764.96, -187500.02, -187500.02, -187500.02, -146265.03, -187500.02, -187500.02, 0.000, 0.000, 0.000, 17:34:28.433
214, -14321.28, 14184.80, -187500.02, -187500.02, -187500.02, -146651.44, -187500.02, -187500.02, 0.000, 0.000, 0.000, 17:34:28.433
215, -14179.75, 14487.08, -187500.02, -187500.02, -187500.02, -146746.44, -187500.02, -187500.02, 0.000, 0.000, 0.000, 17:34:28.433
216, -14462.25, 14455.39, -187500.02, -187500.02, -187500.02, -146620.69, -187500.02, -187500.02, 0.000, 0.000, 0.000, 17:34:28.433
217, -15136.69, 14133.05, -187500.02, -187500.02, -187500.02, -146180.27, -187500.02, -187500.02, 0.000, 0.000, 0.000, 17:34:28.433
218, -15077.17, 13787.45, -187500.02, -187500.02, -187500.02, -146290.17, -187500.02, -187500.02, 0.000, 0.000, 0.000, 17:34:28.433
219, -14295.95, 14201.76, -187500.02, -187500.02, -187500.02, -146696.28, -187500.02, -187500.02, 0.004, -0.018, 1.032, 17:34:28.434
220, -14160.95, 14493.34, -187500.02, -187500.02, -187500.02, -146772.44, -187500.02, -187500.02, 0.000, 0.000, 0.000, 17:34:28.434
221, -14454.18, 14450.60, -187500.02, -187500.02, -187500.02, -146636.83, -187500.02, -187500.02, 0.000, 0.000, 0.000, 17:34:28.434
222, -15134.19, 14128.51, -187500.02, -187500.02, -187500.02, -146188.77, -187500.02, -187500.02, 0.000, 0.000, 0.000, 17:34:28.434
223, -15086.67, 13777.12, -187500.02, -187500.02, -187500.02, -146223.88, -187500.02, -187500.02, 0.000, 0.000, 0.000, 17:34:28.434
224, -14300.91, 14191.79, -187500.02, -187500.02, -187500.02, -146637.25, -187500.02, -187500.02, 0.000, 0.000, 0.000, 17:34:28.434
225, -14160.52, 14491.04, -187500.02, -187500.02, -187500.02, -146741.30, -187500.02, -187500.02, 0.000, 0.000, 0.000, 17:34:28.434
226, -14460.80, 14446.63, -187500.02, -187500.02, -187500.02, -146578.53, -187500.02, -187500.02, 0.000, 0.000, 0.000, 17:34:28.434
227, -15152.00, 14114.66, -187500.02, -187500.02, -187500.02, -146161.42, -187500.02, -187500.02, 0.000, 0.000, 0.000, 17:34:28.434
228, -15107.75, 13759.80, -187500.02, -187500.02, -187500.02, -146239.19, -187500.02, -187500.02, 0.000, 0.000, 0.000, 17:34:28.435
229, -14334.13, 14162.36, -187500.02, -187500.02, -187500.02, -146588.08, -187500.02, -187500.02, 0.004, -0.020, 1.036, 17:34:28.435
230, -14193.89, 14455.54, -187500.02, -187500.02, -187500.02, -146677.69, -187500.02, -187500.02, 0.000, 0.000, 0.000, 17:34:28.435
231, -14486.59, 14410.68, -187500.02, -187500.02, -187500.02, -146535.17, -187500.02, -187500.02, 0.000, 0.000, 0.000, 17:34:28.435
232, -15162.08, 14093.91, -187500.02, -187500.02, -187500.02, -146101.97, -187500.02, -187500.02, 0.000, 0.000, 0.000, 17:34:28.435
233, -15107.28, 13749.88, -187500.02, -187500.02, -187500.02, -146215.78, -187500.02, -187500.02, 0.000, 0.000, 0.000, 17:34:28.435
234, -14324.54, 14161.91, -187500.02, -187500.02, -187500.02, -146609.22, -187500.02, -187500.02, 0.000, 0.000, 0.000, 17:34:28.435
235, -14164.90, 14477.98, -187500.02, -187500.02, -187500.02, -146745.05, -187500.02, -187500.02, 0.000, 0.000, 0.000, 17:34:28.435
236, -14441.44, 14449.67, -187500.02, -187500.02, -187500.02, -146637.09, -187500.02, -187500.02, 0.000, 0.000, 0.000, 17:34:28.436
237, -15128.15, 14128.67, -187500.02, -187500.02, -187500.02, -146206.80, -187500.02, -187500.02, 0.000, 0.000, 0.000, 17:34:28.436
238, -15091.88, 13777.37, -187500.02, -187500.02, -187500.02, -146260.16, -187500.02, -187500.02, 0.000, 0.000, 0.000, 17:34:28.436
239, -14305.03, 14188.80, -187500.02, -187500.02, -187500.02, -146654.08, -187500.02, -187500.02, 0.010, -0.014, 1.032, 17:34:28.436
240, -14153.30, 14490.59, -187500.02, -187500.02, -187500.02, -146784.02, -187500.02, -187500.02, 0.000, 0.000, 0.000, 17:34:28.436
241, -14434.73, 14456.39, -187500.02, -187500.02, -187500.02, -146651.11, -187500.02, -187500.02, 0.000, 0.000, 0.000, 17:34:28.436
242, -15118.74, 14139.58, -187500.02, -187500.02, -187500.02, -146204.86, -187500.02, -187500.02, 0.000, 0.000, 0.000, 17:34:28.436
243, -15087.63, 13777.97, -187500.02, -187500.02, -187500.02, -146272.83, -187500.02, -187500.02, 0.000, 0.000, 0.000, 17:34:28.436
244, -14316.09, 14168.41, -187500.02, -187500.02, -187500.02, -146624.95, -187500.02, -187500.02, 0.000, 0.000, 0.000, 17:34:28.436
245, -14157.95, 14482.34, -187500.02, -187500.02, -187500.02, -146744.92, -187500.02, -187500.02, 0.000, 0.000, 0.000, 17:34:28.436
246, -14450.83, 14440.25, -187500.02, -187500.02, -187500.02, -146595.67, -187500.02, -187500.02, 0.000, 0.000, 0.000, 17:34:28.436
247, -15129.85, 14126.15, -187500.02, -187500.02, -187500.02, -146161.98, -187500.02, -187500.02, 0.000, 0.000, 0.000, 17:34:28.436
248, -15102.78, 13763.73, -187500.02, -187500.02, -187500.02, -146229.78, -187500.02, -187500.02, 0.010, -0.012, 1.032, 17:34:28.436
249, -14321.52, 14162.11, -187500.02, -187500.02, -187500.02, -146631.55, -187500.02, -187500.02, 0.000, 0.000, 0.000, 17:34:28.437
250, -14165.04, 14476.00, -187500.02, -187500.02, -187500.02, -146745.13, -187500.02, -187500.02, 0.000, 0.000, 0.000, 17:34:28.437
251, -14445.51, 14440.25, -187500.02, -187500.02, -187500.02, -146633.89, -187500.02, -187500.02, 0.000, 0.000, 0.000, 17:34:28.437
252, -15136.38, 14112.13, -187500.02, -187500.02, -187500.02, -146187.78, -187500.02, -187500.02, 0.000, 0.000, 0.000, 17:34:28.437
253, -15112.26, 13750.05, -187500.02, -187500.02, -187500.02, -146221.80, -187500.02, -187500.02, 0.000, 0.000, 0.000, 17:34:28.437
254, -14325.86, 14153.66, -187500.02, -187500.02, -187500.02, -146618.70, -187500.02, -187500.02, 0.000, 0.000, 0.000, 17:34:28.437
255, -14165.02, 14469.38, -187500.02, -187500.02, -187500.02, -146744.27, -187500.02, -187500.02, 0.000, 0.000, 0.000, 17:34:28.437
0, -14444.39, 14438.58, -187500.02, -187500.02, -187500.02, -146639.58, -187500.02, -187500.02, 0.000, 0.000, 0.000, 17:34:28.437
1, -15138.03, 14112.20, -187500.02, -187500.02, -187500.02, -146175.58, -187500.02, -187500.02, 0.000, 0.000, 0.000, 17:34:28.438
2, -15127.91, 13743.71, -187500.02, -187500.02, -187500.02, -146225.17, -187500.02, -187500.02, 0.008, -0.012, 1.030, 17:34:28.438
3, -14337.64, 14146.33, -187500.02, -187500.02, -187500.02, -146604.78, -187500.02, -187500.02, 0.000, 0.000, 0.000, 17:34:28.438
4, -14168.86, 14466.07, -187500.02, -187500.02, -187500.02, -146703.05, -187500.02, -187500.02, 0.000, 0.000, 0.000, 17:34:28.438
5, -14441.48, 14442.22, -187500.02, -187500.02, -187500.02, -146596.95, -187500.02, -187500.02, 0.000, 0.000, 0.000, 17:34:28.438
6, -15120.26, 14131.78, -187500.02, -187500.02, -187500.02, -146165.81, -187500.02, -187500.02, 0.000, 0.000, 0.000, 17:34:28.438
7, -15097.64, 13773.77, -187500.02, -187500.02, -187500.02, -146201.89, -187500.02, -187500.02, 0.000, 0.000, 0.000, 17:34:28.438
8, -14293.47, 14189.16, -187500.02, -187500.02, -187500.02, -146661.38, -187500.02, -187500.02, 0.000, 0.000, 0.000, 17:34:28.438
9, -14126.41, 14503.22, -187500.02, -187500.02, -187500.02, -146827.31, -187500.02, -187500.02, 0.000, 0.000, 0.000, 17:34:28.439
10, -14413.70, 14461.80, -187500.02, -187500.02, -187500.02, -146659.27, -187500.02, -187500.02, 0.000, 0.000, 0.000, 17:34:28.439
11, -15087.63, 14158.73, -187500.02, -187500.02, -187500.02, -146231.19, -187500.02, -187500.02, 0.000, 0.000, 0.000, 17:34:28.439
12, -15095.14, 13764.11, -187500.02, -187500.02, -187500.02, -146289.77, -187500.02, -187500.02, 0.008, -0.016, 1.034, 17:34:28.439
13, -14322.01, 14143.58, -187500.02, -187500.02, -187500.02, -146633.39, -187500.02, -187500.02, 0.000, 0.000, 0.000, 17:34:28.439
14, -14141.70, 14476.02, -187500.02, -187500.02, -187500.02, -146754.00, -187500.02, -187500.02, 0.000, 0.000, 0.000, 17:34:28.439
15, -14418.69, 14449.46, -187500.02, -187500.02, -187500.02, -146664.75, -187500.02, -187500.02, 0.000, 0.000, 0.000, 17:34:28.439
16, -15099.70, 14140.92, -187500.02, -187500.02, -187500.02, -146239.64, -187500.02, -187500.02, 0.000, 0.000, 0.000, 17:34:28.439
17, -15096.70, 13763.22, -187500.02, -187500.02, -187500.02, -146290.38, -187500.02, -187500.02, 0.000, 0.000, 0.000, 17:34:28.440
18, -14315.40, 14145.21, -187500.02, -187500.02, -187500.02, -146679.34, -187500.02, -187500.02, 0.000, 0.000, 0.000, 17:34:28.440
19, -14151.54, 14460.80, -187500.02, -187500.02, -187500.02, -146796.63, -187500.02, -187500.02, 0.000, 0.000, 0.000, 17:34:28.440
20, -14436.59, 14424.09, -187500.02, -187500.02, -187500.02, -146675.92, -187500.02, -187500.02, 0.000, 0.000, 0.000, 17:34:28.440
21, -15116.86, 14114.30, -187500.02, -187500.02, -187500.02, -146265.50, -187500.02, -187500.02, 0.000, 0.000, 0.000, 17:34:28.440
22, -15116.22, 13738.16, -187500.02, -187500.02, -187500.02, -146322.36, -187500.02, -187500.02, 0.004, -0.014, 1.038, 17:34:28.440
23, -14342.89, 14115.71, -187500.02, -187500.02, -187500.02, -146680.02, -187500.02, -187500.02, 0.000, 0.000, 0.000, 17:34:28.440
24, -14160.43, 14450.87, -187500.02, -187500.02, -187500.02, -146808.52, -187500.02, -187500.02, 0.000, 0.000, 0.000, 17:34:28.440
25, -14434.49, 14420.47, -187500.02, -187500.02, -187500.02, -146693.63, -187500.02, -187500.02, 0.000, 0.000, 0.000, 17:34:28.441
26, -15117.96, 14114.57, -187500.02, -187500.02, -187500.02, -146238.31, -187500.02, -187500.02, 0.000, 0.000, 0.000, 17:34:28.441
27, -15117.31, 13745.16, -187500.02, -187500.02, -187500.02, -146311.08, -187500.02, -187500.02, 0.000, 0.000, 0.000, 17:34:28.441
28, -14335.04, 14129.63, -187500.02, -187500.02, -187500.02, -146694.19, -187500.02, -187500.02, 0.000, 0.000, 0.000, 17:34:28.441
29, -14147.07, 14468.15, -187500.02, -187500.02, -187500.02, -146801.53, -187500.02, -187500.02, 0.000, 0.000, 0.000, 17:34:28.441
30, -14417.57, 14441.84, -187500.02, -187500.02, -187500.02, -146682.33, -187500.02, -187500.02, 0.000, 0.000, 0.000, 17:34:28.441
31, -15098.29, 14140.96, -187500.02, -187500.02, -187500.02, -146264.48, -187500.02, -187500.02, 0.000, 0.000, 0.000, 17:34:28.441
32, -15113.71, 13757.59, -187500.02, -187500.02, -187500.02, -146297.77, -187500.02, -187500.02, 0.004, -0.014, 1.036, 17:34:28.441
33, -14334.69, 14137.10, -187500.02, -187500.02, -187500.02, -146685.70, -187500.02, -187500.02, 0.000, 0.000, 0.000, 17:34:28.442
34, -14153.55, 14466.43, -187500.02, -187500.02, -187500.02, -146783.36, -187500.02, -187500.02, 0.000, 0.000, 0.000, 17:34:28.442
35, -14422.71, 14440.43, -187500.02, -187500.02, -187500.02, -146661.34, -187500.02, -187500.02, 0.000, 0.000, 0.000, 17:34:28.442
36, -15102.02, 14136.83, -187500.02, -187500.02, -187500.02, -146213.17, -187500.02, -187500.02, 0.000, 0.000, 0.000, 17:34:28.442
37, -15111.37, 13758.73, -187500.02, -187500.02, -187500.02, -146271.75, -187500.02, -187500.02, 0.000, 0.000, 0.000, 17:34:28.442
38, -14317.01, 14144.59, -187500.02, -187500.02, -187500.02, -146663.56, -187500.02, -187500.02, 0.000, 0.000, 0.000, 17:34:28.442
39, -14126.88, 14482.66, -187500.02, -187500.02, -187500.02, -146827.38, -187500.02, -187500.02, 0.000, 0.000, 0.000, 17:34:28.442
40, -14402.91, 14448.64, -187500.02, -187500.02, -187500.02, -146722.28, -187500.02, -187500.02, 0.000, 0.000, 0.000, 17:34:28.443
41, -15084.43, 14146.80, -187500.02, -187500.02, -187500.02, -146292.88, -187500.02, -187500.02, 0.000, 0.000, 0.000, 17:34:28.443
42, -15108.57, 13761.21, -187500.02, -187500.02, -187500.02, -146320.08, -187500.02, -187500.02, 0.006, -0.016, 1.030, 17:34:28.443
43, -14315.26, 14144.16, -187500.02, -187500.02, -187500.02, -146723.53, -187500.02, -187500.02, 0.000, 0.000, 0.000, 17:34:28.443
44, -14143.18, 14462.65, -187500.02, -187500.02, -187500.02, -146809.98, -187500.02, -187500.02, 0.000, 0.000, 0.000, 17:34:28.443
45, -14420.74, 14429.41, -187500.02, -187500.02, -187500.02, -146703.77, -187500.02, -187500.02, 0.000, 0.000, 0.000, 17:34:28.443
46, -15105.51, 14121.92, -187500.02, -187500.02, -187500.02, -146276.47, -187500.02, -187500.02, 0.000, 0.000, 0.000, 17:34:28.443
47, -15136.65, 13728.24, -187500.02, -187500.02, -187500.02, -146298.56, -187500.02, -187500.02, 0.000, 0.000, 0.000, 17:34:28.443
48, -14351.00, 14102.36, -187500.02, -187500.02, -187500.02, -146676.52, -187500.02, -187500.02, 0.000, 0.000, 0.000, 17:34:28.443
49, -14158.09, 14444.12, -187500.02, -187500.02, -187500.02, -146783.67, -187500.02, -187500.02, 0.000, 0.000, 0.000, 17:34:28.444
50, -14423.63, 14423.27, -187500.02, -187500.02, -187500.02, -146660.88, -187500.02, -187500.02, 0.000, 0.000, 0.000, 17:34:28.444
51, -15100.03, 14131.06, -187500.02, -187500.02, -187500.02, -146230.09, -187500.02, -187500.02, 0.000, 0.000, 0.000, 17:34:28.444
52, -15125.67, 13746.66, -187500.02, -187500.02, -187500.02, -146236.50, -187500.02, -187500.02, 0.002, -0.014, 1.032, 17:34:28.444
53, -14332.32, 14130.79, -187500.02, -187500.02, -187500.02, -146642.58, -187500.02, -187500.02, 0.000, 0.000, 0.000, 17:34:28.444
54, -14133.59, 14478.90, -187500.02, -187500.02, -187500.02, -146798.56, -187500.02, -187500.02, 0.000, 0.000, 0.000, 17:34:28.444
55, -14396.80, 14454.13, -187500.02, -187500.02, -187500.02, -146709.94, -187500.02, -187500.02, 0.000, 0.000, 0.000, 17:34:28.444
56, -15077.23, 14154.64, -187500.02, -187500.02, -187500.02, -146242.75, -187500.02, -187500.02, 0.000, 0.000, 0.000, 17:34:28.444
57, -15111.05, 13762.84, -187500.02, -187500.02, -187500.02, -146251.42, -187500.02, -187500.02, 0.000, 0.000, 0.000, 17:34:28.445
58, -14318.21, 14137.81, -187500.02, -187500.02, -187500.02, -146671.56, -187500.02, -187500.02, 0.000, 0.000, 0.000, 17:34:28.445
59, -14126.95, 14473.71, -187500.02, -187500.02, -187500.02, -146794.20, -187500.02, -187500.02, 0.000, 0.000, 0.000, 17:34:28.445
60, -14392.02, 14453.78, -187500.02, -187500.02, -187500.02, -146685.70, -187500.02, -187500.02, 0.000, 0.000, 0.000, 17:34:28.445
61, -15073.14, 14158.71, -187500.02, -187500.02, -187500.02, -146255.61, -187500.02, -187500.02, 0.000, 0.000, 0.000, 17:34:28.445
62, -15104.57, 13769.59, -187500.02, -187500.02, -187500.02, -146303.05, -187500.02, -187500.02, 0.000, -0.012, 1.026, 17:34:28.445
63, -14327.87, 14129.41, -187500.02, -187500.02, -187500.02, -146666.86, -187500.02, -187500.02, 0.000, 0.000, 0.000, 17:34:28.445
64, -14131.42, 14466.29, -187500.02, -187500.02, -187500.02, -146780.19, -187500.02, -187500.02, 0.000, 0.000, 0.000, 17:34:28.445
65, -14390.23, 14445.40, -187500.02, -187500.02, -187500.02, -146699.92, -187500.02, -187500.02, 0.000, 0.000, 0.000, 17:34:28.445
66, -15060.85, 14158.62, -187500.02, -187500.02, -187500.02, -146294.00, -187500.02, -187500.02, 0.000, 0.000, 0.000, 17:34:28.446
67, -15114.56, 13756.07, -187500.02, -187500.02, -187500.02, -146287.80, -187500.02, -187500.02, 0.000, 0.000, 0.000, 17:34:28.446
68, -14330.08, 14120.47, -187500.02, -187500.02, -187500.02, -146661.64, -187500.02, -187500.02, 0.000, 0.000, 0.000, 17:34:28.446
69, -14125.16, 14473.85, -187500.02, -187500.02, -187500.02, -146837.56, -187500.02, -187500.02, 0.000, 0.000, 0.000, 17:34:28.446
70, -14393.76, 14445.84, -187500.02, -187500.02, -187500.02, -146749.08, -187500.02, -187500.02, 0.000, 0.000, 0.000, 17:34:28.446
71, -15081.62, 14143.11, -187500.02, -187500.02, -187500.02, -146319.59, -187500.02, -187500.02, 0.000, 0.000, 0.000, 17:34:28.446
72, -15131.35, 13749.09, -187500.02, -187500.02, -187500.02, -146358.03, -187500.02, -187500.02, 0.004, -0.016, 1.026, 17:34:28.446
73, -14342.49, 14117.52, -187500.02, -187500.02, -187500.02, -146761.11, -187500.02, -187500.02, 0.000, 0.000, 0.000, 17:34:28.446
74, -14133.72, 14468.17, -187500.02, -187500.02, -187500.02, -146924.11, -187500.02, -187500.02, 0.000, 0.000, 0.000, 17:34:28.913
75, -14397.81, 14444.61, -187500.02, -187500.02, -187500.02, -146821.47, -187500.02, -187500.02, 0.000, 0.000, 0.000, 17:34:28.913
76, -15075.36, 14150.93, -187500.02, -187500.02, -187500.02, -146357.94, -187500.02, -187500.02, 0.000, 0.000, 0.000, 17:34:28.913
77, -15121.49, 13756.56, -187500.02, -187500.02, -187500.02, -146368.36, -187500.02, -187500.02, 0.000, 0.000, 0.000, 17:34:28.913
78, -14332.56, 14125.94, -187500.02, -187500.02, -187500.02, -146750.69, -187500.02, -187500.02, 0.000, 0.000, 0.000, 17:34:28.913
79, -14124.16, 14477.31, -187500.02, -187500.02, -187500.02, -146859.52, -187500.02, -187500.02, 0.000, 0.000, 0.000, 17:34:28.913
80, -14381.38, 14458.43, -187500.02, -187500.02, -187500.02, -146764.88, -187500.02, -187500.02, 0.000, 0.000, 0.000, 17:34:28.913
81, -15059.91, 14165.26, -187500.02, -187500.02, -187500.02, -146331.20, -187500.02, -187500.02, 0.000, 0.000, 0.000, 17:34:28.913
82, -15115.72, 13765.46, -187500.02, -187500.02, -187500.02, -146333.88, -187500.02, -187500.02, 0.006, -0.018, 1.028, 17:34:28.914
83, -14329.41, 14128.29, -187500.02, -187500.02, -187500.02, -146743.88, -187500.02, -187500.02, 0.000, 0.000, 0.000, 17:34:28.914
84, -14123.13, 14476.84, -187500.02, -187500.02, -187500.02, -146890.86, -187500.02, -187500.02, 0.000, 0.000, 0.000, 17:34:28.914
85, -14387.64, 14449.17, -187500.02, -187500.02, -187500.02, -146807.38, -187500.02, -187500.02, 0.000, 0.000, 0.000, 17:34:28.914
86, -15067.38, 14156.23, -187500.02, -187500.02, -187500.02, -146371.53, -187500.02, -187500.02, 0.000, 0.000, 0.000, 17:34:28.914
87, -15132.96, 13751.17, -187500.02, -187500.02, -187500.02, -146355.39, -187500.02, -187500.02, 0.000, 0.000, 0.000, 17:34:28.914
88, -14354.51, 14103.97, -187500.02, -187500.02, -187500.02, -146723.64, -187500.02, -187500.02, 0.000, 0.000, 0.000, 17:34:28.914
89, -14147.65, 14454.67, -187500.02, -187500.02, -187500.02, -146848.44, -187500.02, -187500.02, 0.000, 0.000, 0.000, 17:34:28.914
90, -14408.65, 14436.52, -187500.02, -187500.02, -187500.02, -146754.47, -187500.02, -187500.02, 0.000, 0.000, 0.000, 17:34:28.915
91, -15081.41, 14146.60, -187500.02, -187500.02, -187500.02, -146321.56, -187500.02, -187500.02, 0.000, 0.000, 0.000, 17:34:28.915
92, -15150.50, 13741.81, -187500.02, -187500.02, -187500.02, -146327.30, -187500.02, -187500.02, 0.006, -0.012, 1.032, 17:34:28.915
93, -14367.39, 14097.85, -187500.02, -187500.02, -187500.02, -146705.63, -187500.02, -187500.02, 0.000, 0.000, 0.000, 17:34:28.915
94, -14156.70, 14445.44, -187500.02, -187500.02, -187500.02, -146802.08, -187500.02, -187500.02, 0.000, 0.000, 0.000, 17:34:28.915
95, -14408.90, 14430.87, -187500.02, -187500.02, -187500.02, -146684.02, -187500.02, -187500.02, 0.000, 0.000, 0.000, 17:34:28.915
96, -15069.90, 14155.14, -187500.02, -187500.02, -187500.02, -146288.47, -187500.02, -187500.02, 0.000, 0.000, 0.000, 17:34:28.915
97, -15130.70, 13757.81, -187500.02, -187500.02, -187500.02, -146383.02, -187500.02, -187500.02, 0.000, 0.000, 0.000, 17:34:28.915
98, -14349.53, 14107.77, -187500.02, -187500.02, -187500.02, -146784.11, -187500.02, -187500.02, 0.000, 0.000, 0.000, 17:34:28.916
99, -14132.38, 14462.09, -187500.02, -187500.02, -187500.02, -146920.41, -187500.02, -187500.02, 0.000, 0.000, 0.000, 17:34:28.916
100, -14389.63, 14442.20, -187500.02, -187500.02, -187500.02, -146814.09, -187500.02, -187500.02, 0.000, 0.000, 0.000, 17:34:28.916
101, -15057.05, 14163.03, -187500.02, -187500.02, -187500.02, -146376.05, -187500.02, -187500.02, 0.000, 0.000, 0.000, 17:34:28.916
102, -15132.91, 13757.81, -187500.02, -187500.02, -187500.02, -146373.95, -187500.02, -187500.02, 0.008, -0.014, 1.030, 17:34:28.916
103, -14338.44, 14118.57, -187500.02, -187500.02, -187500.02, -146730.14, -187500.02, -187500.02, 0.000, 0.000, 0.000, 17:34:28.916
104, -14108.62, 14487.13, -187500.02, -187500.02, -187500.02, -146886.00, -187500.02, -187500.02, 0.000, 0.000, 0.000, 17:34:28.916
105, -14359.74, 14471.46, -187500.02, -187500.02, -187500.02, -146791.64, -187500.02, -187500.02, 0.000, 0.000, 0.000, 17:34:28.916
106, -15040.33, 14180.59, -187500.02, -187500.02, -187500.02, -146336.98, -187500.02, -187500.02, 0.000, 0.000, 0.000, 17:34:28.916
107, -15121.56, 13770.17, -187500.02, -187500.02, -187500.02, -146336.00, -187500.02, -187500.02, 0.000, 0.000, 0.000, 17:34:28.917
108, -14330.17, 14127.89, -187500.02, -187500.02, -187500.02, -146747.95, -187500.02, -187500.02, 0.000, 0.000, 0.000, 17:34:28.917
109, -14115.95, 14475.91, -187500.02, -187500.02, -187500.02, -146890.83, -187500.02, -187500.02, 0.000, 0.000, 0.000, 17:34:28.917
110, -14371.79, 14451.68, -187500.02, -187500.02, -187500.02, -146820.64, -187500.02, -187500.02, 0.000, 0.000, 0.000, 17:34:28.917
111, -15051.51, 14157.53, -187500.02, -187500.02, -187500.02, -146385.97, -187500.02, -187500.02, 0.000, 0.000, 0.000, 17:34:28.917
112, -15142.75, 13749.38, -187500.02, -187500.02, -187500.02, -146369.20, -187500.02, -187500.02, 0.004, -0.014, 1.030, 17:34:28.917
113, -14357.89, 14097.33, -187500.02, -187500.02, -187500.02, -146758.48, -187500.02, -187500.02, 0.000, 0.000, 0.000, 17:34:28.917
114, -14144.65, 14445.95, -187500.02, -187500.02, -187500.02, -146871.20, -187500.02, -187500.02, 0.000, 0.000, 0.000, 17:34:28.917
115, -14389.29, 14432.95, -187500.02, -187500.02, -187500.02, -146775.05, -187500.02, -187500.02, 0.000, 0.000, 0.000, 17:34:28.918
116, -15054.61, 14153.30, -187500.02, -187500.02, -187500.02, -146338.28, -187500.02, -187500.02, 0.000, 0.000, 0.000, 17:34:28.918
117, -15150.77, 13739.59, -187500.02, -187500.02, -187500.02, -146340.20, -187500.02, -187500.02, 0.000, 0.000, 0.000, 17:34:28.918
118, -14368.73, 14085.13, -187500.02, -187500.02, -187500.02, -146726.14, -187500.02, -187500.02, 0.000, 0.000, 0.000, 17:34:28.918
119, -14143.09, 14441.82, -187500.02, -187500.02, -187500.02, -146867.67, -187500.02, -187500.02, 0.000, 0.000, 0.000, 17:34:28.918
120, -14394.39, 14421.28, -187500.02, -187500.02, -187500.02, -146778.48, -187500.02, -187500.02, 0.000, 0.000, 0.000, 17:34:28.918
121, -15063.29, 14141.48, -187500.02, -187500.02, -187500.02, -146336.47, -187500.02, -187500.02, 0.006, -0.014, 1.028, 17:34:28.918
122, -15155.15, 13735.55, -187500.02, -187500.02, -187500.02, -146341.22, -187500.02, -187500.02, 0.000, 0.000, 0.000, 17:34:28.918
123, -14370.09, 14086.65, -187500.02, -187500.02, -187500.02, -146735.48, -187500.02, -187500.02, 0.000, 0.000, 0.000, 17:34:28.918
124, -14140.92, 14448.79, -187500.02, -187500.02, -187500.02, -146839.98, -187500.02, -187500.02, 0.000, 0.000, 0.000, 17:34:28.919
125, -14383.24, 14436.16, -187500.02, -187500.02, -187500.02, -146723.81, -187500.02, -187500.02, 0.000, 0.000, 0.000, 17:34:28.919
126, -15044.15, 14163.09, -187500.02, -187500.02, -187500.02, -146280.56, -187500.02, -187500.02, 0.000, 0.000, 0.000, 17:34:28.919
127, -15133.36, 13764.52, -187500.02, -187500.02, -187500.02, -146300.41, -187500.02, -187500.02, 0.000, 0.000, 0.000, 17:34:28.919
128, -14347.12, 14109.72, -187500.02, -187500.02, -187500.02, -146722.59, -187500.02, -187500.02, 0.000, 0.000, 0.000, 17:34:28.919
129, -14110.41, 14475.35, -187500.02, -187500.02, -187500.02, -146873.70, -187500.02, -187500.02, 0.000, 0.000, 0.000, 17:34:28.919
130, -14357.31, 14453.96, -187500.02, -187500.02, -187500.02, -146779.50, -187500.02, -187500.02, 0.000, 0.000, 0.000, 17:34:28.919
131, -15027.57, 14172.75, -187500.02, -187500.02, -187500.02, -146350.92, -187500.02, -187500.02, 0.004, -0.018, 1.030, 17:34:28.919
132, -15137.36, 13757.81, -187500.02, -187500.02, -187500.02, -146356.95, -187500.02, -187500.02, 0.000, 0.000, 0.000, 17:34:28.919
133, -14362.34, 14087.61, -187500.02, -187500.02, -187500.02, -146745.72, -187500.02, -187500.02, 0.000, 0.000, 0.000, 17:34:28.920
134, -14137.68, 14441.75, -187500.02, -187500.02, -187500.02, -146864.41, -187500.02, -187500.02, 0.000, 0.000, 0.000, 17:34:28.920
135, -14386.81, 14424.16, -187500.02, -187500.02, -187500.02, -146772.03, -187500.02, -187500.02, 0.000, 0.000, 0.000, 17:34:28.920
136, -15043.42, 14154.40, -187500.02, -187500.02, -187500.02, -146383.00, -187500.02, -187500.02, 0.000, 0.000, 0.000, 17:34:28.920
137, -15159.40, 13728.80, -187500.02, -187500.02, -187500.02, -146400.88, -187500.02, -187500.02, 0.000, 0.000, 0.000, 17:34:28.920
138, -14385.47, 14055.02, -187500.02, -187500.02, -187500.02, -146759.20, -187500.02, -187500.02, 0.000, 0.000, 0.000, 17:34:28.920
139, -14142.35, 14429.19, -187500.02, -187500.02, -187500.02, -146905.30, -187500.02, -187500.02, 0.000, 0.000, 0.000, 17:34:28.920
140, -14384.98, 14413.32, -187500.02, -187500.02, -187500.02, -146809.97, -187500.02, -187500.02, 0.000, 0.000, 0.000, 17:34:28.920
141, -15055.58, 14129.74, -187500.02, -187500.02, -187500.02, -146341.83, -187500.02, -187500.02, 0.008, -0.012, 1.030, 17:34:28.921
142, -15161.14, 13724.24, -187500.02, -187500.02, -187500.02, -146317.84, -187500.02, -187500.02, 0.000, 0.000, 0.000, 17:34:28.921
