%OpenBCI Raw EEG Data
%
%Sample Rate = 250.0 Hz
%First Column = SampleIndex
%Last Column = Timestamp 
%Other Columns = EEG data in microvolts followed by Accel Data (in G) interleaved with Aux Data
0, 2774.66, 31735.52, -177604.52, -177623.89, -143215.88, -88517.69, -85825.48, 187500.00, 0.006, -0.044, 1.050, 13:44:12.075
1, 7608.76, 36565.75, -179675.14, -179694.91, -168834.36, -113546.88, -111420.34, 187500.00, 0.000, 0.000, 0.000, 13:44:12.075
2, 7171.36, 36191.70, -180227.30, -180247.67, -175649.91, -120245.36, -118257.33, 187500.00, 0.000, 0.000, 0.000, 13:44:12.076
3, 3640.29, 32743.18, -179339.55, -179359.28, -164623.72, -109555.38, -107298.63, 187500.00, 0.000, 0.000, 0.000, 13:44:12.076
4, -1419.94, 27704.05, -176962.89, -176982.47, -135397.63, -80974.16, -78012.10, 187500.00, 0.000, 0.000, 0.000, 13:44:12.076
5, 2708.14, 31676.02, -177446.47, -177465.94, -141449.88, -86886.86, -84015.84, 187500.00, 0.000, 0.000, 0.000, 13:44:12.076
6, 7621.77, 36582.00, -179538.77, -179558.28, -167305.19, -112145.96, -109846.46, 187500.00, 0.000, 0.000, 0.000, 13:44:12.076
7, 7220.15, 36245.21, -180111.56, -180131.73, -174373.06, -119073.37, -116916.92, 187500.00, 0.000, -0.096, 1.024, 13:44:12.077
8, 3720.05, 32826.13, -179244.84, -179264.53, -163606.42, -108623.82, -106202.97, 187500.00, 0.000, 0.000, 0.000, 13:44:12.077
9, -1373.67, 27754.79, -176870.78, -176890.63, -134400.34, -80040.72, -76914.41, 187500.00, 0.000, 0.000, 0.000, 13:44:12.077
10, 2703.11, 31668.35, -177338.31, -177357.83, -140237.91, -85743.95, -82701.07, 187500.00, 0.000, 0.000, 0.000, 13:44:12.077
11, 7649.21, 36608.63, -179443.17, -179462.34, -166272.55, -111177.06, -108708.35, 187500.00, 0.000, 0.000, 0.000, 13:44:12.077
12, 7265.97, 36290.83, -180030.02, -180049.98, -173535.67, -118270.05, -115949.70, 187500.00, 0.000, 0.000, 0.000, 13:44:12.077
13, 3779.28, 32879.50, -179177.55, -179197.11, -162965.48, -107986.03, -105407.23, 187500.00, 0.000, 0.000, 0.000, 13:44:12.078
14, -1352.91, 27767.21, -176795.50, -176815.56, -133722.13, -79345.63, -76060.21, 187500.00, 0.000, 0.000, 0.000, 13:44:12.078
15, 2677.83, 31637.22, -177240.41, -177260.09, -139275.66, -84771.40, -81560.17, 187500.00, 0.000, 0.000, 0.000, 13:44:12.078
16, 7670.98, 36625.01, -179355.84, -179374.91, -165424.34, -110317.97, -107679.39, 187500.00, 0.002, -0.098, 1.024, 13:44:12.078
17, 7301.60, 36321.56, -179953.19, -179972.80, -172847.58, -117540.84, -115055.66, 187500.00, 0.000, 0.000, 0.000, 13:44:12.078
18, 3837.01, 32934.20, -179113.84, -179133.28, -162477.84, -107417.83, -104681.38, 187500.00, 0.000, 0.000, 0.000, 13:44:12.078
19, -1335.83, 27788.69, -176729.67, -176749.94, -133223.02, -78754.05, -75312.39, 187500.00, 0.000, 0.000, 0.000, 13:44:12.079
20, 2630.15, 31593.99, -177155.16, -177175.03, -138523.80, -83932.79, -80559.57, 187500.00, 0.000, 0.000, 0.000, 13:44:12.079
21, 7651.52, 36606.50, -179279.89, -179298.98, -164765.70, -109568.67, -106771.09, 187500.00, 0.000, 0.000, 0.000, 13:44:12.079
22, 7303.95, 36325.94, -179886.86, -179906.25, -172319.41, -116904.27, -114268.23, 187500.00, 0.000, 0.000, 0.000, 13:44:12.079
23, 3873.13, 32973.16, -179058.39, -179077.80, -162159.91, -106950.66, -104070.41, 187500.00, 0.000, 0.000, 0.000, 13:44:12.079
24, -1322.15, 27809.01, -176671.27, -176692.03, -132912.72, -78285.53, -74697.41, 187500.00, 0.000, 0.000, 0.000, 13:44:12.080
25, 2593.23, 31564.48, -177070.61, -177091.02, -137904.14, -83164.89, -79636.63, 187500.00, 0.000, 0.000, 0.000, 13:44:12.080
26, 7656.46, 36614.14, -179201.63, -179220.61, -164204.78, -108864.81, -105912.73, 187500.00, 0.006, -0.106, 1.030, 13:44:12.080
27, 7331.01, 36353.37, -179819.31, -179838.36, -171885.38, -116307.68, -113517.78, 187500.00, 0.000, 0.000, 0.000, 13:44:12.080
28, 3924.01, 33025.91, -179006.28, -179025.48, -161924.59, -106499.17, -103470.58, 187500.00, 0.000, 0.000, 0.000, 13:44:12.080
29, -1289.74, 27836.32, -176605.39, -176639.84, -132687.66, -77836.15, -74101.88, 187500.00, 0.000, 0.000, 0.000, 13:44:12.080
30, 2576.84, 31543.32, -176982.27, -177016.47, -137407.70, -82452.14, -78770.09, 187500.00, 0.000, 0.000, 0.000, 13:44:12.081
31, 7674.81, 36628.03, -179130.55, -179149.45, -163759.09, -108202.58, -105097.92, 187500.00, 0.000, 0.000, 0.000, 13:44:12.081
32, 7373.24, 36390.61, -179755.67, -179774.45, -171547.11, -115733.80, -112798.27, 187500.00, 0.000, 0.000, 0.000, 13:44:12.081
33, 3986.57, 33085.36, -178952.98, -178972.27, -161767.55, -106065.64, -102900.88, 187500.00, 0.000, 0.000, 0.000, 13:44:12.081
34, -1256.70, 27871.46, -176449.89, -176584.78, -132528.45, -77396.34, -73526.48, 187500.00, 0.000, 0.000, 0.000, 13:44:12.081
35, 2561.15, 31530.89, -176808.44, -176941.92, -136989.08, -81755.98, -77931.27, 187500.00, 0.000, 0.000, 0.000, 13:44:12.081
36, 7681.24, 36641.59, -179062.48, -179081.66, -163402.47, -107567.41, -104319.88, 187500.00, 0.006, -0.102, 1.028, 13:44:12.081
37, 7396.39, 36417.90, -179697.38, -179716.13, -171302.09, -115208.09, -112131.34, 187500.00, 0.000, 0.000, 0.000, 13:44:12.081
38, 4037.53, 33133.84, -178906.11, -178926.30, -161686.48, -105701.46, -102396.27, 187500.00, 0.000, 0.000, 0.000, 13:44:12.082
39, -1236.36, 27886.71, -176229.95, -176518.00, -132428.92, -77017.52, -73000.82, 187500.00, 0.000, 0.000, 0.000, 13:44:12.082
40, 2517.10, 31485.27, -176575.67, -176846.30, -136584.00, -81083.61, -77101.13, 187500.00, 0.000, 0.000, 0.000, 13:44:12.082
41, 7675.50, 36628.61, -178993.45, -179013.11, -163067.14, -106964.31, -103558.91, 187500.00, 0.000, 0.000, 0.000, 13:44:12.082
42, 7404.75, 36421.92, -179639.73, -179658.64, -171084.67, -114723.01, -111490.01, 187500.00, 0.000, 0.000, 0.000, 13:44:12.082
43, 4070.45, 33161.54, -178860.95, -178882.95, -161628.34, -105373.20, -101916.62, 187500.00, 0.000, 0.000, 0.000, 13:44:12.082
44, -1227.74, 27893.39, -175983.08, -176379.83, -132364.05, -76680.14, -72515.90, 187500.00, 0.000, 0.000, 0.000, 13:44:12.082
45, 2471.66, 31432.34, -176330.83, -176684.66, -136241.23, -80472.24, -76336.75, 187500.00, 0.000, 0.000, 0.000, 13:44:12.082
46, 7663.81, 36606.90, -178933.58, -178953.69, -162787.95, -106416.48, -102857.67, 187500.00, 0.006, -0.098, 1.028, 13:44:12.082
47, 7415.46, 36425.05, -179588.34, -179607.25, -170916.52, -114285.85, -110898.83, 187500.00, 0.000, 0.000, 0.000, 13:44:12.083
48, 4114.75, 33204.99, -178818.22, -178842.36, -161610.48, -105084.24, -101474.81, 187500.00, 0.000, 0.000, 0.000, 13:44:12.083
49, -1193.96, 27930.98, -175725.59, -176206.03, -132357.28, -76400.61, -72084.87, 187500.00, 0.000, 0.000, 0.000, 13:44:12.083
50, 2451.00, 31418.15, -176070.92, -176492.16, -135941.09, -79904.27, -75614.25, 187500.00, 0.000, 0.000, 0.000, 13:44:12.083
51, 7688.17, 36637.28, -178872.00, -178893.25, -162533.66, -105895.21, -102184.95, 187500.00, 0.000, 0.000, 0.000, 13:44:12.083
52, 7469.26, 36483.57, -179539.17, -179558.22, -170790.02, -113892.33, -110357.63, 187500.00, 0.000, 0.000, 0.000, 13:44:12.083
53, 4198.13, 33291.27, -178778.30, -178805.33, -161654.53, -104862.45, -101107.40, 187500.00, 0.000, 0.000, 0.000, 13:44:12.083
54, -1141.77, 27985.23, -175450.61, -176016.83, -132399.08, -76182.74, -71717.73, 187500.00, 0.000, 0.000, 0.000, 13:44:12.083
55, 2443.90, 31412.65, -175790.97, -176287.64, -135688.97, -79402.73, -74954.94, 187500.00, 0.000, 0.000, 0.000, 13:44:12.084
56, 7709.85, 36658.89, -178814.70, -178837.48, -162339.39, -105454.16, -101586.59, 187500.00, 0.012, -0.100, 1.024, 13:44:12.084
57, 7499.32, 36514.41, -179491.03, -179510.08, -170699.89, -113554.77, -109865.88, 187500.00, 0.000, 0.000, 0.000, 13:44:12.084
58, 4244.46, 33334.34, -178740.44, -178771.80, -161730.13, -104686.78, -100783.14, 187500.00, 0.000, 0.000, 0.000, 13:44:12.084
59, -1121.59, 27999.58, -175154.61, -175813.36, -132483.13, -76013.38, -71403.23, 187500.00, 0.000, 0.000, 0.000, 13:44:12.084
60, 2408.38, 31372.37, -175492.17, -176065.44, -135476.06, -78941.93, -74341.92, 187500.00, 0.000, 0.000, 0.000, 13:44:12.084
61, 7701.76, 36642.33, -178760.38, -178785.34, -162179.77, -105046.31, -101025.99, 187500.00, 0.000, 0.000, 0.000, 13:44:12.084
62, 7512.73, 36521.34, -179452.38, -179471.45, -170670.11, -113275.87, -109436.17, 187500.00, 0.000, 0.000, 0.000, 13:44:12.084
63, 4286.21, 33376.38, -178703.11, -178740.45, -161856.80, -104560.54, -100509.22, 187500.00, 0.000, 0.000, 0.000, 13:44:12.084
64, -1102.66, 28022.13, -174846.36, -175608.69, -132624.89, -75902.45, -71141.87, 187500.00, 0.000, 0.000, 0.000, 13:44:12.115
65, 2358.18, 31327.22, -175183.48, -175838.48, -135310.02, -78532.43, -73771.15, 187500.00, 0.000, 0.000, 0.000, 13:44:12.115
66, 7689.54, 36636.59, -178704.47, -178732.28, -162062.30, -104687.03, -100504.41, 187500.00, 0.008, -0.104, 1.030, 13:44:12.115
67, 7528.87, 36542.89, -179411.95, -179431.17, -170664.89, -113027.47, -109026.71, 187500.00, 0.000, 0.000, 0.000, 13:44:12.115
68, 4327.45, 33415.16, -178668.42, -178713.41, -162024.95, -104482.94, -100274.77, 187500.00, 0.000, 0.000, 0.000, 13:44:12.115
69, -1093.20, 28030.21, -174542.20, -175387.52, -132792.83, -75824.16, -70909.01, 187500.00, 0.000, 0.000, 0.000, 13:44:12.115
70, 2311.62, 31279.10, -174895.11, -175601.56, -135182.58, -78163.63, -73245.73, 187500.00, 0.000, 0.000, 0.000, 13:44:12.116
71, 7675.03, 36622.62, -178656.84, -178687.34, -161978.45, -104357.90, -100023.07, 187500.00, 0.000, 0.000, 0.000, 13:44:12.116
72, 7535.31, 36550.69, -179378.98, -179398.27, -170696.94, -112808.71, -108659.27, 187500.00, 0.000, 0.000, 0.000, 13:44:12.116
73, 4364.02, 33451.39, -178634.27, -178686.86, -162185.42, -104389.39, -100037.13, 187500.00, 0.000, 0.000, 0.000, 13:44:12.116
74, -1070.65, 28053.88, -174248.97, -175154.72, -132973.25, -75751.04, -70693.67, 187500.00, 0.000, 0.000, 0.000, 13:44:12.116
75, 2282.47, 31252.23, -174601.56, -175346.55, -135078.88, -77811.45, -72745.96, 187500.00, 0.000, 0.000, 0.000, 13:44:12.116
76, 7684.31, 36629.39, -178610.55, -178643.94, -161917.53, -104049.24, -99567.95, 187500.00, 0.004, -0.100, 1.024, 13:44:12.116
77, 7573.17, 36586.52, -179345.34, -179364.42, -170748.66, -112611.66, -108317.87, 187500.00, 0.000, 0.000, 0.000, 13:44:12.116
78, 4425.96, 33514.94, -178600.80, -178659.36, -162390.69, -104342.09, -99845.30, 187500.00, 0.000, 0.000, 0.000, 13:44:12.117
79, -1029.83, 28101.91, -173960.25, -174891.02, -133175.64, -75701.69, -70495.37, 187500.00, 0.000, 0.000, 0.000, 13:44:12.117
80, 2262.09, 31242.62, -174308.59, -175069.27, -134983.66, -77475.05, -72246.87, 187500.00, 0.000, 0.000, 0.000, 13:44:12.117
81, 7686.92, 36639.16, -178559.03, -178595.27, -161862.09, -103753.09, -99108.68, 187500.00, 0.000, 0.000, 0.000, 13:44:12.117
82, 7589.00, 36606.57, -179310.56, -179329.66, -170796.52, -112417.13, -107962.77, 187500.00, 0.000, 0.000, 0.000, 13:44:12.117
83, 4465.68, 33558.48, -178565.48, -178628.78, -162597.67, -104303.77, -99649.80, 187500.00, 0.000, 0.000, 0.000, 13:44:12.117
84, -1008.44, 28123.70, -173681.00, -174618.03, -133395.36, -75675.83, -70314.49, 187500.00, 0.000, 0.000, 0.000, 13:44:12.117
85, 2221.70, 31199.66, -174018.83, -174784.75, -134891.03, -77143.65, -71755.84, 187500.00, 0.000, 0.000, 0.000, 13:44:12.117
86, 7672.82, 36626.35, -178506.19, -178545.11, -161801.50, -103455.11, -98653.24, 187500.00, 0.008, -0.102, 1.022, 13:44:12.117
87, 7604.69, 36624.50, -179277.30, -179296.28, -170862.73, -112244.45, -107637.50, 187500.00, 0.000, 0.000, 0.000, 13:44:12.118
88, 4512.44, 33599.32, -178534.03, -178600.16, -162822.31, -104286.06, -99486.18, 187500.00, 0.000, 0.000, 0.000, 13:44:12.118
89, -987.10, 28140.38, -173439.23, -174314.14, -133653.06, -75689.76, -70184.84, 187500.00, 0.000, 0.000, 0.000, 13:44:12.118
90, 2175.12, 31150.37, -173744.03, -174445.45, -134845.45, -76860.02, -71320.19, 187500.00, 0.000, 0.000, 0.000, 13:44:12.118
91, 7658.29, 36603.98, -178459.88, -178501.42, -161784.47, -103200.84, -98243.94, 187500.00, 0.000, 0.000, 0.000, 13:44:12.118
92, 7599.77, 36610.61, -179248.56, -179267.72, -170962.50, -112105.26, -107343.27, 187500.00, 0.000, 0.000, 0.000, 13:44:12.118
93, 4530.01, 33613.78, -178506.55, -178574.88, -163068.75, -104292.30, -99338.05, 187500.00, 0.000, 0.000, 0.000, 13:44:12.118
94, -985.22, 28141.07, -173189.88, -174045.25, -133903.38, -75699.41, -70038.09, 187500.00, 0.000, 0.000, 0.000, 13:44:12.118
95, 2120.24, 31092.82, -173459.14, -174147.52, -134799.20, -76578.21, -70877.36, 187500.00, 0.000, 0.000, 0.000, 13:44:12.119
96, 7637.55, 36581.60, -178412.89, -178457.14, -161787.52, -102967.71, -97851.58, 187500.00, 0.010, -0.092, 1.024, 13:44:12.119
97, 7611.93, 36622.39, -179221.28, -179240.33, -171076.64, -111987.27, -107066.46, 187500.00, 0.000, 0.000, 0.000, 13:44:12.119
98, 4574.57, 33658.89, -178481.02, -178550.53, -163316.95, -104320.70, -99207.68, 187500.00, 0.000, 0.000, 0.000, 13:44:12.119
99, -951.78, 28177.35, -172984.50, -173811.66, -134184.69, -75762.62, -69944.44, 187500.00, 0.000, 0.000, 0.000, 13:44:12.119
100, 2099.81, 31078.67, -173197.38, -173871.55, -134782.64, -76351.50, -70485.98, 187500.00, 0.000, 0.000, 0.000, 13:44:12.119
101, 7646.15, 36598.39, -178364.66, -178411.55, -161805.61, -102774.32, -97492.54, 187500.00, 0.000, 0.000, 0.000, 13:44:12.119
102, 7642.04, 36655.81, -179195.31, -179214.38, -171205.45, -111913.93, -106827.79, 187500.00, 0.000, 0.000, 0.000, 13:44:12.119
103, 4627.84, 33714.48, -178458.31, -178528.56, -163547.39, -104388.95, -99115.14, 187500.00, 0.000, 0.000, 0.000, 13:44:12.120
104, -910.48, 28221.49, -172786.44, -173589.77, -134434.34, -75857.64, -69881.27, 187500.00, 0.000, 0.000, 0.000, 13:44:12.120
105, 2078.44, 31057.95, -172947.58, -173606.31, -134741.25, -76162.54, -70132.44, 187500.00, 0.000, 0.000, 0.000, 13:44:12.120
106, 7649.19, 36601.79, -178322.38, -178371.88, -161785.63, -102604.92, -97158.94, 187500.00, 0.006, -0.094, 1.014, 13:44:12.120
107, 7661.62, 36681.11, -179173.17, -179192.34, -171293.22, -111852.15, -106605.45, 187500.00, 0.000, 0.000, 0.000, 13:44:12.120
108, 4664.65, 33752.52, -178443.56, -178513.94, -163778.27, -104479.80, -99046.68, 187500.00, 0.000, 0.000, 0.000, 13:44:12.120
109, -894.38, 28237.76, -172621.88, -173405.19, -134695.55, -75980.22, -69845.45, 187500.00, 0.000, 0.000, 0.000, 13:44:12.120
110, 2032.53, 31011.68, -172709.38, -173363.05, -134687.97, -75975.79, -69781.56, 187500.00, 0.000, 0.000, 0.000, 13:44:12.120
111, 7638.33, 36582.94, -178280.69, -178332.69, -161757.38, -102442.78, -96836.78, 187500.00, 0.000, 0.000, 0.000, 13:44:12.120
112, 7665.35, 36677.22, -179154.14, -179173.17, -171376.45, -111803.11, -106400.13, 187500.00, 0.000, 0.000, 0.000, 13:44:12.121
113, 4694.11, 33778.83, -178427.75, -178497.06, -163992.48, -104576.25, -98988.43, 187500.00, 0.000, 0.000, 0.000, 13:44:12.121
114, -885.69, 28246.81, -172450.08, -173198.28, -134934.22, -76104.58, -69816.41, 187500.00, 0.000, 0.000, 0.000, 13:44:12.121
115, 1973.84, 30955.00, -172452.22, -173089.75, -134606.98, -75789.40, -69432.48, 187500.00, 0.000, 0.000, 0.000, 13:44:12.121
116, 7600.29, 36545.05, -178235.52, -178290.16, -161706.73, -102289.05, -96518.54, 187500.00, 0.008, -0.094, 1.014, 13:44:12.121
117, 7656.12, 36666.76, -179131.77, -179150.81, -171444.11, -111769.23, -106200.47, 187500.00, 0.000, 0.000, 0.000, 13:44:12.121
118, 4710.97, 33789.98, -178408.13, -178477.17, -164189.63, -104678.22, -98925.73, 187500.00, 0.000, 0.000, 0.000, 13:44:12.121
119, -885.40, 28240.60, -172283.89, -173011.44, -135155.72, -76233.64, -69778.32, 187500.00, 0.000, 0.000, 0.000, 13:44:12.121
120, 1915.50, 30893.53, -172207.72, -172826.50, -134525.67, -75619.68, -69086.98, 187500.00, 0.000, 0.000, 0.000, 13:44:12.554
121, 7580.28, 36524.89, -178184.30, -178240.45, -161639.05, -102128.85, -96183.09, 187500.00, 0.000, 0.000, 0.000, 13:44:12.554
122, 7669.91, 36685.00, -179106.05, -179125.16, -171496.88, -111727.45, -105988.73, 187500.00, 0.000, 0.000, 0.000, 13:44:12.554
123, 4756.81, 33840.68, -178391.77, -178459.55, -164384.30, -104782.47, -98864.73, 187500.00, 0.000, 0.000, 0.000, 13:44:12.554
124, -848.11, 28283.70, -172133.84, -172817.92, -135378.88, -76369.25, -69749.96, 187500.00, 0.000, 0.000, 0.000, 13:44:12.555
125, 1879.54, 30861.34, -171965.98, -172553.66, -134424.58, -75438.92, -68735.19, 187500.00, 0.000, 0.000, 0.000, 13:44:12.555
126, 7573.69, 36519.71, -178138.64, -178196.03, -161562.72, -101976.27, -95859.50, 187500.00, 0.002, -0.096, 1.020, 13:44:12.555
127, 7688.73, 36702.97, -179085.72, -179104.80, -171546.89, -111699.09, -105791.97, 187500.00, 0.000, 0.000, 0.000, 13:44:12.555
128, 4791.57, 33876.32, -178377.91, -178444.41, -164567.22, -104888.95, -98807.00, 187500.00, 0.000, 0.000, 0.000, 13:44:12.555
129, -824.24, 28306.87, -171995.19, -172658.53, -135600.27, -76516.05, -69736.91, 187500.00, 0.000, 0.000, 0.000, 13:44:12.555
130, 1847.22, 30833.47, -171727.59, -172310.27, -134351.73, -75296.59, -68427.90, 187500.00, 0.000, 0.000, 0.000, 13:44:12.555
131, 7567.72, 36514.23, -178092.92, -178152.69, -161510.38, -101852.00, -95572.57, 187500.00, 0.000, 0.000, 0.000, 13:44:12.555
132, 7705.61, 36717.72, -179065.66, -179084.61, -171607.48, -111687.10, -105620.41, 187500.00, 0.000, 0.000, 0.000, 13:44:12.556
133, 4837.50, 33916.83, -178364.17, -178428.73, -164759.27, -105012.59, -98771.26, 187500.00, 0.000, 0.000, 0.000, 13:44:12.556
134, -799.07, 28325.89, -171862.69, -172487.31, -135812.61, -76662.81, -69721.33, 187500.00, 0.000, 0.000, 0.000, 13:44:12.556
135, 1802.80, 30782.29, -171506.38, -172052.14, -134262.97, -75149.02, -68111.41, 187500.00, 0.002, -0.100, 1.020, 13:44:12.556
136, 7544.70, 36487.79, -178047.55, -178107.09, -161443.25, -101725.94, -95277.68, 187500.00, 0.000, 0.000, 0.000, 13:44:12.556
137, 7704.53, 36709.90, -179047.53, -179066.48, -171662.53, -111681.52, -105448.02, 187500.00, 0.000, 0.000, 0.000, 13:44:12.556
138, 4852.50, 33929.23, -178355.78, -178417.67, -164949.30, -105142.13, -98738.54, 187500.00, 0.000, 0.000, 0.000, 13:44:12.556
139, -795.68, 28331.80, -171770.88, -172342.11, -136052.34, -76841.18, -69742.27, 187500.00, 0.000, 0.000, 0.000, 13:44:12.556
140, 1737.69, 30717.71, -171297.70, -171805.81, -134193.08, -75023.83, -67821.80, 187500.00, 0.000, 0.000, 0.000, 13:44:12.557
141, 7507.30, 36445.84, -178005.08, -178064.86, -161376.23, -101607.31, -94994.59, 187500.00, 0.000, 0.000, 0.000, 13:44:12.557
142, 7695.77, 36699.20, -179030.45, -179049.45, -171708.64, -111678.97, -105283.17, 187500.00, 0.000, 0.000, 0.000, 13:44:12.557
143, 4878.49, 33951.92, -178346.28, -178406.39, -165117.00, -105271.05, -98706.80, 187500.00, 0.000, 0.000, 0.000, 13:44:12.557
144, -779.58, 28346.28, -171654.34, -172196.47, -136248.77, -77006.09, -69747.05, 187500.00, 0.000, 0.000, 0.000, 13:44:12.557
145, 1694.80, 30675.53, -171068.64, -171554.23, -134068.98, -74875.57, -67507.32, 187500.00, 0.002, -0.104, 1.022, 13:44:12.557
146, 7500.87, 36442.26, -177956.30, -178016.63, -161282.20, -101486.35, -94708.41, 187500.00, 0.000, 0.000, 0.000, 13:44:12.557
147, 7713.94, 36718.86, -179012.08, -179031.08, -171740.41, -111681.52, -105122.20, 187500.00, 0.000, 0.000, 0.000, 13:44:12.557
148, 4919.24, 33994.05, -178337.55, -178394.39, -165288.39, -105411.70, -98686.13, 187500.00, 0.000, 0.000, 0.000, 13:44:12.557
149, -756.41, 28373.64, -171557.45, -172038.89, -136443.67, -77170.31, -69749.22, 187500.00, 0.000, 0.000, 0.000, 13:44:12.558
150, 1668.31, 30645.18, -170859.45, -171297.92, -133981.97, -74760.81, -67223.56, 187500.00, 0.000, 0.000, 0.000, 13:44:12.558
151, 7495.57, 36425.90, -177907.41, -177966.91, -161212.22, -101385.95, -94441.73, 187500.00, 0.000, 0.000, 0.000, 13:44:12.558
152, 7718.41, 36721.93, -178991.36, -179010.33, -171786.31, -111692.40, -104973.04, 187500.00, 0.000, 0.000, 0.000, 13:44:12.558
153, 4945.28, 34022.82, -178326.30, -178380.27, -165472.66, -105558.86, -98677.52, 187500.00, 0.000, 0.000, 0.000, 13:44:12.558
154, -745.01, 28388.68, -171468.81, -171904.72, -136665.77, -77353.95, -69778.84, 187500.00, 0.000, 0.000, 0.000, 13:44:12.558
155, 1606.49, 30589.14, -170666.31, -171071.11, -133903.38, -74651.16, -66952.55, 187500.00, 0.004, -0.106, 1.024, 13:44:12.558
156, 7460.43, 36397.76, -177867.13, -177926.05, -161146.42, -101291.55, -94184.05, 187500.00, 0.000, 0.000, 0.000, 13:44:12.558
157, 7717.19, 36726.11, -178979.00, -178997.84, -171847.45, -111726.02, -104841.44, 187500.00, 0.000, 0.000, 0.000, 13:44:12.558
158, 4958.51, 34033.86, -178322.48, -178373.94, -165659.84, -105729.02, -98679.71, 187500.00, 0.000, 0.000, 0.000, 13:44:12.559
159, -744.83, 28385.91, -171424.58, -171820.06, -136910.00, -77590.59, -69846.98, 187500.00, 0.000, 0.000, 0.000, 13:44:12.559
160, 1551.64, 30540.62, -170505.72, -170868.00, -133853.91, -74601.11, -66726.52, 187500.00, 0.000, 0.000, 0.000, 13:44:12.559
161, 7430.93, 36371.79, -177826.31, -177883.16, -161087.78, -101232.19, -93946.63, 187500.00, 0.000, 0.000, 0.000, 13:44:12.559
162, 7704.44, 36708.92, -178964.02, -178982.89, -171895.45, -111773.23, -104717.07, 187500.00, 0.000, 0.000, 0.000, 13:44:12.559
163, 4984.80, 34052.12, -178321.39, -178369.75, -165842.58, -105911.86, -98699.80, 187500.00, 0.000, 0.000, 0.000, 13:44:12.559
164, -717.40, 28407.41, -171370.84, -171721.61, -137144.11, -77825.66, -69921.75, 187500.00, 0.000, 0.000, 0.000, 13:44:12.559
165, 1496.81, 30483.31, -170321.66, -170652.03, -133756.34, -74510.97, -66470.22, 187500.00, 0.000, -0.102, 1.028, 13:44:12.559
166, 7402.54, 36338.55, -177780.16, -177836.53, -161004.61, -101157.27, -93707.61, 187500.00, 0.000, 0.000, 0.000, 13:44:12.560
167, 7722.55, 36717.72, -178947.81, -178966.75, -171945.42, -111829.62, -104612.06, 187500.00, 0.000, 0.000, 0.000, 13:44:12.560
168, 5031.49, 34094.52, -178318.72, -178364.98, -166017.23, -106093.60, -98721.64, 187500.00, 0.000, 0.000, 0.000, 13:44:12.560
169, -682.29, 28444.40, -171317.44, -171633.66, -137355.58, -78046.08, -69983.55, 187500.00, 0.000, 0.000, 0.000, 13:44:12.560
170, 1480.22, 30466.12, -170151.78, -170443.67, -133682.89, -74453.63, -66247.44, 187500.00, 0.000, 0.000, 0.000, 13:44:12.560
171, 7416.82, 36349.86, -177738.11, -177792.16, -160929.00, -101099.64, -93486.41, 187500.00, 0.000, 0.000, 0.000, 13:44:12.560
172, 7762.89, 36761.80, -178933.22, -178952.11, -171987.38, -111889.79, -104511.63, 187500.00, 0.000, 0.000, 0.000, 13:44:12.560
173, 5086.90, 34154.61, -178316.05, -178360.19, -166191.39, -106283.57, -98754.41, 187500.00, 0.000, 0.000, 0.000, 13:44:12.560
174, -639.55, 28491.86, -171278.94, -171566.70, -137576.33, -78281.93, -70064.42, 187500.00, 0.000, 0.000, 0.000, 13:44:12.561
175, 1468.24, 30453.94, -169985.44, -170255.17, -133610.52, -74401.73, -66033.40, 187500.00, 0.002, -0.102, 1.030, 13:44:12.561
176, 7431.60, 36364.03, -177694.31, -177748.27, -160857.91, -101046.78, -93269.24, 187500.00, 0.000, 0.000, 0.000, 13:44:12.561
177, 7792.35, 36795.22, -178920.19, -178939.20, -172036.39, -111956.24, -104416.82, 187500.00, 0.000, 0.000, 0.000, 13:44:12.561
178, 5139.02, 34210.77, -178314.13, -178356.59, -166365.23, -106477.23, -98789.81, 187500.00, 0.000, 0.000, 0.000, 13:44:12.561
179, -593.53, 28536.78, -171246.59, -171503.67, -137805.70, -78529.59, -70157.02, 187500.00, 0.000, 0.000, 0.000, 13:44:12.561
180, 1441.17, 30429.04, -169840.64, -170076.70, -133552.09, -74365.62, -65836.88, 187500.00, 0.000, 0.000, 0.000, 13:44:12.561
181, 7416.96, 36352.16, -177657.33, -177709.30, -160798.27, -101010.79, -93070.02, 187500.00, 0.000, 0.000, 0.000, 13:44:12.561
182, 7799.55, 36805.12, -178910.70, -178929.75, -172089.30, -112033.63, -104330.01, 187500.00, 0.000, 0.000, 0.000, 13:44:12.561
183, 5157.51, 34230.71, -178318.50, -178358.44, -166532.47, -106672.63, -98823.14, 187500.00, 0.000, 0.000, 0.000, 13:44:12.562
184, -581.82, 28547.78, -171249.00, -171468.08, -138047.83, -78806.57, -70273.81, 187500.00, 0.000, 0.000, 0.000, 13:44:12.562
185, 1393.47, 30377.43, -169713.27, -169904.30, -133505.38, -74360.79, -65664.44, 187500.00, 0.008, -0.096, 1.026, 13:44:12.562
186, 7396.33, 36328.63, -177618.80, -177666.98, -160738.14, -100992.89, -92885.94, 187500.00, 0.000, 0.000, 0.000, 13:44:12.562
187, 7807.33, 36806.55, -178900.52, -178919.52, -172160.17, -112141.54, -104277.97, 187500.00, 0.000, 0.000, 0.000, 13:44:12.562
188, 5196.96, 34259.50, -178322.64, -178360.56, -166745.94, -106919.27, -98914.91, 187500.00, 0.000, 0.000, 0.000, 13:44:12.562
189, -548.38, 28577.26, -171244.27, -171432.70, -138317.22, -79108.34, -70421.65, 187500.00, 0.000, 0.000, 0.000, 13:44:12.562
190, 1358.16, 30343.81, -169580.06, -169743.44, -133459.38, -74354.46, -65498.79, 187500.00, 0.000, 0.000, 0.000, 13:44:12.563
191, 7382.74, 36316.18, -177579.39, -177626.27, -160686.55, -100982.20, -92716.20, 187500.00, 0.000, 0.000, 0.000, 13:44:12.563
192, 7824.41, 36824.05, -178889.52, -178908.36, -172225.84, -112251.95, -104229.63, 187500.00, 0.000, 0.000, 0.000, 13:44:12.563
193, 5237.93, 34305.08, -178327.39, -178362.38, -166930.02, -107149.95, -98987.70, 187500.00, 0.000, 0.000, 0.000, 13:44:12.563
194, -512.88, 28617.56, -171246.39, -171390.20, -138557.92, -79395.30, -70551.80, 187500.00, 0.000, 0.000, 0.000, 13:44:12.563
195, 1328.23, 30318.11, -169464.48, -169575.66, -133410.55, -74357.57, -65336.76, 187500.00, 0.010, -0.100, 1.024, 13:44:12.564
196, 7377.33, 36311.37, -177545.58, -177586.64, -160623.83, -100971.56, -92540.16, 187500.00, 0.000, 0.000, 0.000, 13:44:12.564
197, 7845.75, 36847.50, -178882.92, -178901.77, -172284.20, -112357.55, -104175.82, 187500.00, 0.000, 0.000, 0.000, 13:44:12.564
198, 5281.07, 34352.04, -178333.14, -178366.11, -167111.22, -107378.54, -99058.44, 187500.00, 0.000, 0.000, 0.000, 13:44:12.564
199, -478.19, 28656.30, -171253.45, -171367.63, -138800.02, -79689.66, -70689.38, 187500.00, 0.000, 0.000, 0.000, 13:44:12.564
200, 1296.76, 30284.47, -169340.19, -169425.23, -133346.09, -74351.73, -65168.09, 187500.00, 0.000, 0.000, 0.000, 13:44:12.564
201, 7362.69, 36290.11, -177504.66, -177544.58, -160543.67, -100948.68, -92358.23, 187500.00, 0.000, 0.000, 0.000, 13:44:12.565
202, 7857.26, 36853.40, -178872.89, -178891.78, -172326.98, -112455.11, -104118.65, 187500.00, 0.000, 0.000, 0.000, 13:44:12.565
203, 5313.55, 34378.41, -178335.94, -178367.39, -167276.92, -107598.55, -99129.13, 187500.00, 0.000, 0.000, 0.000, 13:44:12.565
204, -447.35, 28682.92, -171269.00, -171356.00, -139041.84, -79988.20, -70841.84, 187500.00, 0.000, 0.000, 0.000, 13:44:12.565
205, 1257.80, 30249.58, -169214.70, -169274.14, -133268.25, -74336.42, -65001.98, 187500.00, 0.010, -0.104, 1.024, 13:44:12.565
206, 7342.66, 36275.96, -177466.23, -177504.97, -160445.22, -100913.70, -92169.41, 187500.00, 0.000, 0.000, 0.000, 13:44:12.565
207, 7857.84, 36855.03, -178863.61, -178882.44, -172359.48, -112552.16, -104062.92, 187500.00, 0.000, 0.000, 0.000, 13:44:12.565
208, 5332.19, 34398.95, -178341.80, -178371.41, -167443.14, -107829.30, -99208.62, 187500.00, 0.000, 0.000, 0.000, 13:44:12.565
209, -435.21, 28697.05, -171279.94, -171338.50, -139278.23, -80290.34, -70994.21, 187500.00, 0.000, 0.000, 0.000, 13:44:12.566
210, 1201.32, 30188.80, -169100.23, -169119.97, -133206.64, -74346.17, -64854.90, 187500.00, 0.000, 0.000, 0.000, 13:44:12.566
211, 7308.73, 36236.51, -177427.56, -177461.53, -160356.91, -100895.95, -91994.39, 187500.00, 0.000, 0.000, 0.000, 13:44:12.566
212, 7858.96, 36857.60, -178857.58, -178876.41, -172396.03, -112655.52, -104010.30, 187500.00, 0.000, 0.000, 0.000, 13:44:12.566
213, 5359.75, 34424.48, -178349.23, -178377.52, -167608.08, -108057.74, -99284.59, 187500.00, 0.000, 0.000, 0.000, 13:44:12.566
214, -420.08, 28709.88, -171291.56, -171326.61, -139509.09, -80583.34, -71137.27, 187500.00, 0.000, 0.000, 0.000, 13:44:12.566
215, 1154.67, 30147.12, -168985.02, -168972.47, -133135.72, -74343.73, -64696.88, 187500.00, 0.008, -0.100, 1.018, 13:44:12.566
216, 7288.12, 36216.80, -177386.14, -177416.56, -160272.06, -100880.37, -91824.30, 187500.00, 0.000, 0.000, 0.000, 13:44:12.566
217, 7865.98, 36861.07, -178845.78, -178864.52, -172438.53, -112765.13, -103968.17, 187500.00, 0.000, 0.000, 0.000, 13:44:12.566
218, 5398.57, 34458.75, -178351.84, -178378.38, -167780.84, -108299.09, -99375.74, 187500.00, 0.000, 0.000, 0.000, 13:44:12.567
219, -373.05, 28754.71, -171330.23, -171335.09, -139760.33, -80908.22, -71314.27, 187500.00, 0.000, 0.000, 0.000, 13:44:12.567
220, 1134.80, 30122.44, -168903.97, -168858.86, -133094.95, -74382.73, -64579.98, 187500.00, 0.000, 0.000, 0.000, 13:44:12.567
221, 7283.99, 36211.48, -177353.69, -177381.56, -160191.08, -100879.37, -91665.48, 187500.00, 0.000, 0.000, 0.000, 13:44:12.567
222, 7888.00, 36885.14, -178840.56, -178859.38, -172486.38, -112891.52, -103941.76, 187500.00, 0.000, 0.000, 0.000, 13:44:12.567
223, 5441.60, 34503.63, -178361.44, -178388.06, -167961.70, -108555.27, -99484.52, 187500.00, 0.000, 0.000, 0.000, 13:44:12.567
224, -329.55, 28798.79, -171360.97, -171358.33, -140020.48, -81242.91, -71506.20, 187500.00, 0.000, 0.000, 0.000, 13:44:12.567
225, 1105.90, 30094.19, -168805.48, -168724.84, -133041.73, -74411.10, -64459.34, 187500.00, 0.004, -0.096, 1.026, 13:44:12.567
226, 7273.10, 36196.05, -177313.97, -177335.84, -160102.59, -100874.47, -91511.10, 187500.00, 0.000, 0.000, 0.000, 13:44:12.568
227, 7912.38, 36906.28, -178831.77, -178850.42, -172529.06, -113012.07, -103916.88, 187500.00, 0.000, 0.000, 0.000, 13:44:12.568
228, 5485.01, 34547.53, -178366.94, -178392.03, -168137.39, -108804.58, -99590.18, 187500.00, 0.000, 0.000, 0.000, 13:44:12.568
229, -298.93, 28833.17, -171397.63, -171370.17, -140287.64, -81582.19, -71700.35, 187500.00, 0.000, 0.000, 0.000, 13:44:12.568
230, 1060.01, 30057.96, -168710.94, -168595.56, -132994.03, -74441.77, -64337.53, 187500.00, 0.000, 0.000, 0.000, 13:44:12.568
231, 7246.55, 36175.92, -177279.02, -177296.58, -160025.92, -100874.65, -91357.97, 187500.00, 0.000, 0.000, 0.000, 13:44:12.568
232, 7909.01, 36905.90, -178825.80, -178844.44, -172572.67, -113130.94, -103882.45, 187500.00, 0.000, 0.000, 0.000, 13:44:12.568
233, 5498.22, 34558.72, -178377.47, -178401.09, -168302.86, -109045.57, -99680.10, 187500.00, 0.000, 0.000, 0.000, 13:44:12.568
234, -288.18, 28843.36, -171438.81, -171382.70, -140542.25, -81915.27, -71885.58, 187500.00, 0.000, 0.000, 0.000, 13:44:12.568
235, 1005.36, 30007.46, -168626.97, -168478.38, -132950.16, -74481.64, -64223.62, 187500.00, 0.004, -0.100, 1.030, 13:44:12.569
236, 7209.87, 36144.29, -177241.22, -177255.50, -159931.47, -100866.98, -91196.81, 187500.00, 0.000, 0.000, 0.000, 13:44:12.569
237, 7905.28, 36907.11, -178818.11, -178836.84, -172606.94, -113253.38, -103858.80, 187500.00, 0.000, 0.000, 0.000, 13:44:12.569
238, 5525.62, 34595.05, -178384.08, -178406.39, -168460.94, -109291.51, -99784.46, 187500.00, 0.000, 0.000, 0.000, 13:44:12.569
239, -248.93, 28886.63, -171482.28, -171399.23, -140791.22, -82250.73, -72084.42, 187500.00, 0.000, 0.000, 0.000, 13:44:12.569
240, 976.28, 29975.54, -168537.83, -168345.94, -132893.00, -74520.52, -64119.57, 187500.00, 0.000, 0.000, 0.000, 13:44:13.035
241, 7200.75, 36131.26, -177201.14, -177208.63, -159841.39, -100874.34, -91057.74, 187500.00, 0.000, 0.000, 0.000, 13:44:13.036
242, 7928.23, 36926.13, -178811.27, -178829.86, -172651.84, -113392.56, -103851.66, 187500.00, 0.000, 0.000, 0.000, 13:44:13.036
243, 5570.08, 34632.73, -178393.64, -178414.69, -168629.25, -109550.86, -99900.11, 187500.00, 0.000, 0.000, 0.000, 13:44:13.036
244, -210.35, 28924.36, -171535.33, -171428.75, -141044.67, -82594.74, -72286.86, 187500.00, 0.000, 0.000, 0.000, 13:44:13.036
245, 946.66, 29946.46, -168458.25, -168236.86, -132839.91, -74560.19, -64011.57, 187500.00, 0.008, -0.102, 1.022, 13:44:13.036
246, 7182.76, 36111.01, -177164.53, -177168.61, -159737.88, -100863.70, -90900.45, 187500.00, 0.000, 0.000, 0.000, 13:44:13.036
247, 7940.10, 36937.06, -178807.11, -178825.75, -172683.14, -113515.09, -103830.38, 187500.00, 0.000, 0.000, 0.000, 13:44:13.036
248, 5602.84, 34662.95, -178400.67, -178420.64, -168783.52, -109794.11, -100004.16, 187500.00, 0.000, 0.000, 0.000, 13:44:13.036
249, -178.72, 28953.94, -171592.25, -171461.02, -141305.13, -82949.02, -72502.51, 187500.00, 0.000, 0.000, 0.000, 13:44:13.036
250, 910.07, 29909.54, -168404.20, -168143.94, -132806.11, -74630.51, -63935.80, 187500.00, 0.000, 0.000, 0.000, 13:44:13.037
251, 7167.71, 36098.91, -177132.39, -177130.61, -159655.98, -100888.71, -90778.39, 187500.00, 0.000, 0.000, 0.000, 13:44:13.037
252, 7951.72, 36948.68, -178804.09, -178822.67, -172730.14, -113665.86, -103838.80, 187500.00, 0.000, 0.000, 0.000, 13:44:13.037
253, 5630.94, 34689.68, -178411.19, -178430.44, -168948.56, -110062.09, -100130.54, 187500.00, 0.000, 0.000, 0.000, 13:44:13.037
254, -155.28, 28979.53, -171638.84, -171489.58, -141557.59, -83302.84, -72719.27, 187500.00, 0.000, 0.000, 0.000, 13:44:13.037
255, 861.48, 29863.16, -168332.59, -168044.36, -132765.69, -74697.20, -63858.75, 187500.00, 0.006, -0.098, 1.022, 13:44:13.037
0, 7131.08, 36060.25, -177099.80, -177094.34, -159574.27, -100915.33, -90657.63, 187500.00, 0.000, 0.000, 0.000, 13:44:13.037
1, 7941.71, 36940.14, -178797.56, -178816.14, -172771.80, -113812.42, -103840.75, 187500.00, 0.000, 0.000, 0.000, 13:44:13.037
2, 5645.31, 34708.55, -178416.38, -178434.69, -169104.52, -110318.35, -100248.71, 187500.00, 0.000, 0.000, 0.000, 13:44:13.038
3, -134.00, 29000.29, -171688.69, -171515.88, -141800.31, -83647.53, -72927.68, 187500.00, 0.000, 0.000, 0.000, 13:44:13.038
4, 812.96, 29815.08, -168263.61, -167931.95, -132722.47, -74762.05, -63781.24, 187500.00, 0.000, 0.000, 0.000, 13:44:13.038
5, 7098.65, 36027.05, -177061.97, -177048.56, -159476.98, -100923.40, -90524.36, 187500.00, 0.000, 0.000, 0.000, 13:44:13.038
6, 7947.86, 36944.15, -178791.03, -178809.69, -172802.14, -113943.31, -103831.80, 187500.00, 0.000, 0.000, 0.000, 13:44:13.038
7, 5674.91, 34734.83, -178426.22, -178443.61, -169267.36, -110579.10, -100370.86, 187500.00, 0.000, 0.000, 0.000, 13:44:13.038
8, -98.64, 29033.93, -171754.70, -171562.73, -142075.13, -84016.00, -73161.37, 187500.00, 0.006, -0.094, 1.024, 13:44:13.038
9, 786.11, 29785.35, -168193.30, -167836.94, -132677.83, -74815.00, -63691.99, 187500.00, 0.000, 0.000, 0.000, 13:44:13.038
10, 7088.36, 36014.38, -177021.92, -177005.45, -159372.09, -100918.95, -90375.48, 187500.00, 0.000, 0.000, 0.000, 13:44:13.039
11, 7966.47, 36961.02, -178786.69, -178805.25, -172837.11, -114077.22, -103826.13, 187500.00, 0.000, 0.000, 0.000, 13:44:13.039
12, 5717.49, 34773.37, -178436.94, -178453.66, -169421.02, -110830.02, -100484.07, 187500.00, 0.000, 0.000, 0.000, 13:44:13.039
13, -55.14, 29072.51, -171819.13, -171609.05, -142333.94, -84377.16, -73383.41, 187500.00, 0.000, 0.000, 0.000, 13:44:13.039
14, 753.21, 29754.42, -168131.56, -167751.42, -132646.80, -74893.61, -63626.61, 187500.00, 0.000, 0.000, 0.000, 13:44:13.039
15, 7070.39, 35996.84, -176987.41, -176967.77, -159289.45, -100944.19, -90259.74, 187500.00, 0.000, 0.000, 0.000, 13:44:13.039
16, 7978.99, 36974.57, -178783.75, -178802.22, -172882.94, -114226.24, -103839.48, 187500.00, 0.000, 0.000, 0.000, 13:44:13.039
17, 5744.24, 34799.83, -178447.73, -178464.44, -169583.22, -111091.61, -100614.27, 187500.00, 0.000, 0.000, 0.000, 13:44:13.039
18, -24.52, 29103.94, -171893.42, -171675.08, -142600.25, -84743.35, -73622.82, 187500.00, 0.004, -0.096, 1.024, 13:44:13.039
19, 718.68, 29720.73, -168110.86, -167694.83, -132644.67, -74998.35, -63597.84, 187500.00, 0.000, 0.000, 0.000, 13:44:13.040
20, 7046.19, 35968.45, -176961.28, -176934.38, -159230.30, -100996.06, -90175.70, 187500.00, 0.000, 0.000, 0.000, 13:44:13.040
21, 7982.25, 36966.81, -178781.05, -178799.58, -172947.00, -114406.26, -103883.55, 187500.00, 0.000, 0.000, 0.000, 13:44:13.040
22, 5762.01, 34811.45, -178457.70, -178473.88, -169758.28, -111386.38, -100773.13, 187500.00, 0.000, 0.000, 0.000, 13:44:13.040
23, 0.63, 29129.33, -171973.11, -171738.61, -142892.63, -85153.48, -73901.10, 187500.00, 0.000, 0.000, 0.000, 13:44:13.040
24, 683.32, 29683.74, -168084.08, -167627.38, -132646.95, -75125.53, -63585.52, 187500.00, 0.000, 0.000, 0.000, 13:44:13.040
25, 7024.91, 35946.81, -176932.52, -176896.84, -159166.14, -101059.74, -90094.29, 187500.00, 0.000, 0.000, 0.000, 13:44:13.040
26, 7991.02, 36983.91, -178781.56, -178800.11, -173012.42, -114594.08, -103931.14, 187500.00, 0.000, 0.000, 0.000, 13:44:13.040
27, 5797.73, 34851.82, -178471.61, -178487.28, -169935.59, -111680.40, -100932.74, 187500.00, 0.000, 0.000, 0.000, 13:44:13.041
28, 37.57, 29171.10, -172052.55, -171800.78, -143165.17, -85544.13, -74158.13, 187500.00, -0.002, -0.098, 1.026, 13:44:13.041
29, 654.30, 29663.40, -168075.75, -167592.50, -132652.22, -75255.51, -63575.38, 187500.00, 0.000, 0.000, 0.000, 13:44:13.041
30, 7005.39, 35933.98, -176910.25, -176870.20, -159098.81, -101117.19, -90010.74, 187500.00, 0.000, 0.000, 0.000, 13:44:13.041
31, 8000.49, 36995.06, -178783.11, -178801.52, -173075.75, -114778.91, -103977.67, 187500.00, 0.000, 0.000, 0.000, 13:44:13.041
32, 5824.33, 34880.70, -178485.06, -178500.13, -170116.19, -111978.48, -101093.98, 187500.00, 0.000, 0.000, 0.000, 13:44:13.041
33, 72.96, 29202.78, -172135.56, -171866.38, -143451.48, -85945.63, -74426.75, 187500.00, 0.000, 0.000, 0.000, 13:44:13.041
34, 621.91, 29628.60, -168058.31, -167548.83, -132653.59, -75377.73, -63562.26, 187500.00, 0.000, 0.000, 0.000, 13:44:13.041
35, 6977.70, 35902.91, -176881.33, -176837.47, -159022.55, -101164.59, -89924.33, 187500.00, 0.000, 0.000, 0.000, 13:44:13.041
36, 8007.27, 36994.55, -178781.19, -178799.75, -173128.47, -114953.30, -104021.91, 187500.00, 0.000, 0.000, 0.000, 13:44:13.042
37, 5854.44, 34906.07, -178496.88, -178511.44, -170281.59, -112262.59, -101251.77, 187500.00, 0.000, 0.000, 0.000, 13:44:13.042
38, 102.55, 29234.05, -172219.83, -171933.44, -143726.16, -86340.09, -74700.33, 187500.00, 0.006, -0.100, 1.028, 13:44:13.042
39, 575.69, 29583.74, -168021.83, -167486.00, -132626.84, -75477.95, -63535.57, 187500.00, 0.000, 0.000, 0.000, 13:44:13.042
40, 6951.91, 35877.59, -176846.66, -176798.61, -158935.03, -101205.81, -89836.04, 187500.00, 0.000, 0.000, 0.000, 13:44:13.042
41, 8008.72, 37000.03, -178777.27, -178795.64, -173165.80, -115116.91, -104059.52, 187500.00, 0.000, 0.000, 0.000, 13:44:13.042
42, 5873.28, 34923.32, -178507.19, -178521.92, -170429.41, -112533.74, -101399.69, 187500.00, 0.000, 0.000, 0.000, 13:44:13.042
43, 125.71, 29257.00, -172292.92, -172001.56, -143988.13, -86720.67, -74960.20, 187500.00, 0.000, 0.000, 0.000, 13:44:13.042
44, 532.35, 29542.30, -167993.83, -167422.97, -132598.41, -75571.40, -63502.64, 187500.00, 0.000, 0.000, 0.000, 13:44:13.042
45, 6915.88, 35843.73, -176820.64, -176763.84, -158849.06, -101240.14, -89744.02, 187500.00, 0.000, 0.000, 0.000, 13:44:13.043
46, 8002.01, 37001.30, -178777.84, -178796.16, -173211.47, -115279.27, -104099.36, 187500.00, 0.000, 0.000, 0.000, 13:44:13.043
47, 5889.26, 34949.66, -178518.39, -178532.67, -170592.13, -112810.48, -101556.82, 187500.00, 0.000, 0.000, 0.000, 13:44:13.043
48, 147.54, 29282.88, -172363.22, -172056.14, -144259.73, -87103.92, -75227.59, 187500.00, 0.004, -0.096, 1.026, 13:44:13.043
49, 478.39, 29486.02, -167980.64, -167366.22, -132601.55, -75691.37, -63499.94, 187500.00, 0.000, 0.000, 0.000, 13:44:13.043
50, 6859.71, 35780.54, -176790.98, -176723.70, -158762.14, -101272.11, -89650.85, 187500.00, 0.000, 0.000, 0.000, 13:44:13.043
51, 7983.48, 36972.49, -178777.56, -178795.78, -173261.67, -115445.35, -104141.76, 187500.00, 0.000, 0.000, 0.000, 13:44:13.043
52, 5886.94, 34941.09, -178531.69, -178545.64, -170754.02, -113087.55, -101710.34, 187500.00, 0.000, 0.000, 0.000, 13:44:13.043
53, 149.73, 29286.06, -172446.52, -172124.52, -144541.17, -87502.09, -75504.80, 187500.00, 0.000, 0.000, 0.000, 13:44:13.044
54, 421.96, 29437.22, -167953.84, -167314.00, -132594.48, -75808.51, -63490.26, 187500.00, 0.000, 0.000, 0.000, 13:44:13.044
55, 6820.99, 35747.55, -176761.77, -176690.11, -158686.89, -101324.37, -89573.25, 187500.00, 0.000, 0.000, 0.000, 13:44:13.044
56, 7972.60, 36964.00, -178778.50, -178796.92, -173310.39, -115618.24, -104188.83, 187500.00, 0.000, 0.000, 0.000, 13:44:13.044
57, 5902.60, 34956.74, -178542.42, -178556.22, -170909.55, -113363.53, -101865.59, 187500.00, 0.000, 0.000, 0.000, 13:44:13.044
58, 176.13, 29311.41, -172517.47, -172180.13, -144799.64, -87878.61, -75762.98, 187500.00, 0.000, -0.098, 1.030, 13:44:13.044
59, 381.14, 29394.40, -167928.50, -167261.72, -132584.64, -75922.48, -63479.53, 187500.00, 0.000, 0.000, 0.000, 13:44:13.044
60, 6792.20, 35716.88, -176733.47, -176656.98, -158606.88, -101368.42, -89492.65, 187500.00, 0.000, 0.000, 0.000, 13:44:13.044
61, 7975.53, 36971.75, -178774.97, -178793.30, -173351.58, -115780.24, -104229.51, 187500.00, 0.000, 0.000, 0.000, 13:44:13.045
62, 5914.03, 34970.78, -178552.69, -178566.09, -171067.73, -113638.86, -102022.55, 187500.00, 0.000, 0.000, 0.000, 13:44:13.045
63, 195.87, 29326.29, -172602.78, -172250.34, -145077.23, -88270.74, -76039.83, 187500.00, 0.000, 0.000, 0.000, 13:44:13.045
64, 337.31, 29350.83, -167913.20, -167219.11, -132579.72, -76036.63, -63473.23, 187500.00, 0.000, 0.000, 0.000, 13:44:13.045
65, 6751.63, 35685.59, -176699.00, -176617.58, -158512.75, -101395.63, -89398.34, 187500.00, 0.000, 0.000, 0.000, 13:44:13.045
66, 7968.87, 36968.35, -178772.47, -178790.70, -173391.06, -115942.49, -104273.77, 187500.00, 0.000, 0.000, 0.000, 13:44:13.045
67, 5935.28, 34989.33, -178563.14, -178576.95, -171210.09, -113903.05, -102173.33, 187500.00, 0.000, 0.000, 0.000, 13:44:13.045
68, 221.68, 29357.92, -172674.69, -172328.19, -145337.05, -88652.52, -76311.80, 187500.00, -0.002, -0.098, 1.026, 13:44:13.045
69, 291.67, 29316.35, -167889.06, -167166.72, -132562.83, -76148.45, -63469.09, 187500.00, 0.000, 0.000, 0.000, 13:44:13.046
70, 6722.56, 35654.52, -176672.30, -176580.39, -158408.58, -101418.94, -89303.69, 187500.00, 0.000, 0.000, 0.000, 13:44:13.046
71, 7974.72, 36964.66, -178773.94, -178792.25, -173425.41, -116100.63, -104317.33, 187500.00, 0.000, 0.000, 0.000, 13:44:13.046
72, 5949.65, 35006.21, -178571.30, -178585.05, -171348.16, -114162.24, -102320.96, 187500.00, 0.000, 0.000, 0.000, 13:44:13.046
73, 253.89, 29393.33, -172744.94, -172389.20, -145593.20, -89028.02, -76581.70, 187500.00, 0.000, 0.000, 0.000, 13:44:13.046
74, 269.54, 29290.57, -167867.27, -167119.27, -132544.61, -76257.06, -63465.09, 187500.00, 0.000, 0.000, 0.000, 13:44:13.046
75, 6701.37, 35634.80, -176639.45, -176540.42, -158305.86, -101449.05, -89217.45, 187500.00, 0.000, 0.000, 0.000, 13:44:13.046
76, 7983.64, 36983.66, -178771.53, -178789.72, -173441.91, -116248.58, -104352.85, 187500.00, 0.000, 0.000, 0.000, 13:44:13.046
77, 5991.43, 35051.13, -178582.67, -178596.28, -171470.55, -114414.09, -102463.14, 187500.00, 0.000, 0.000, 0.000, 13:44:13.047
78, 304.25, 29444.69, -172820.02, -172450.66, -145844.25, -89407.16, -76850.08, 187500.00, 0.000, -0.094, 1.020, 13:44:13.047
79, 240.77, 29265.74, -167845.97, -167069.72, -132520.94, -76369.36, -63459.71, 187500.00, 0.000, 0.000, 0.000, 13:44:13.047
80, 6681.74, 35612.16, -176606.30, -176501.33, -158193.23, -101473.32, -89122.91, 187500.00, 0.000, 0.000, 0.000, 13:44:13.047
81, 8000.54, 36995.91, -178769.94, -178788.25, -173466.00, -116404.62, -104393.57, 187500.00, 0.000, 0.000, 0.000, 13:44:13.047
82, 6028.82, 35082.22, -178592.94, -178606.45, -171605.33, -114675.71, -102611.52, 187500.00, 0.000, 0.000, 0.000, 13:44:13.047
83, 342.97, 29478.96, -172896.92, -172514.16, -146102.55, -89786.80, -77122.16, 187500.00, 0.000, 0.000, 0.000, 13:44:13.047
84, 216.01, 29238.85, -167824.94, -167022.22, -132508.17, -76479.48, -63457.34, 187500.00, 0.000, 0.000, 0.000, 13:44:13.047
85, 6661.69, 35588.16, -176573.91, -176463.31, -158092.59, -101494.73, -89032.20, 187500.00, 0.000, 0.000, 0.000, 13:44:13.047
86, 8014.31, 37004.90, -178770.19, -178788.41, -173497.08, -116555.27, -104437.45, 187500.00, 0.000, 0.000, 0.000, 13:44:13.048
87, 6051.98, 35103.17, -178603.86, -178617.14, -171743.69, -114931.93, -102764.38, 187500.00, 0.000, 0.000, 0.000, 13:44:13.048
88, 380.40, 29514.23, -172971.72, -172575.05, -146360.02, -90162.13, -77396.91, 187500.00, 0.002, -0.096, 1.012, 13:44:13.048
89, 187.67, 29210.33, -167809.03, -166977.97, -132492.20, -76586.44, -63458.25, 187500.00, 0.000, 0.000, 0.000, 13:44:13.048
90, 6636.32, 35563.32, -176544.23, -176427.77, -157977.25, -101503.38, -88931.51, 187500.00, 0.000, 0.000, 0.000, 13:44:13.048
91, 8018.53, 37007.71, -178769.88, -178788.06, -173515.00, -116693.58, -104467.85, 187500.00, 0.000, 0.000, 0.000, 13:44:13.048
92, 6076.99, 35124.47, -178612.69, -178625.91, -171869.95, -115175.98, -102900.21, 187500.00, 0.000, 0.000, 0.000, 13:44:13.048
93, 414.76, 29545.61, -173041.28, -172641.09, -146612.44, -90530.93, -77661.49, 187500.00, 0.000, 0.000, 0.000, 13:44:13.048
94, 149.73, 29172.31, -167791.52, -166932.03, -132480.50, -76698.13, -63462.05, 187500.00, 0.000, 0.000, 0.000, 13:44:13.049
95, 6607.58, 35534.42, -176506.83, -176379.42, -157850.30, -101506.82, -88823.51, 187500.00, 0.000, 0.000, 0.000, 13:44:13.049
96, 8027.54, 37014.80, -178765.83, -178784.02, -173522.22, -116830.98, -104495.48, 187500.00, 0.000, 0.000, 0.000, 13:44:13.049
97, 6105.56, 35152.92, -178621.64, -178635.41, -171989.92, -115422.10, -103041.52, 187500.00, 0.000, 0.000, 0.000, 13:44:13.049
98, 457.41, 29588.75, -173107.14, -172713.47, -146870.94, -90910.38, -77938.74, 187500.00, 0.002, -0.098, 1.018, 13:44:13.049
99, 127.00, 29147.37, -167752.27, -166882.19, -132446.44, -76788.95, -63443.48, 187500.00, 0.000, 0.000, 0.000, 13:44:13.049
100, 6584.98, 35506.93, -176467.84, -176336.30, -157718.47, -101498.58, -88704.62, 187500.00, 0.000, 0.000, 0.000, 13:44:13.049
101, 8044.93, 37031.61, -178765.22, -178783.38, -173535.50, -116963.08, -104521.34, 187500.00, 0.000, 0.000, 0.000, 13:44:13.049
102, 6140.65, 35189.00, -178629.45, -178643.27, -172108.05, -115656.02, -103173.13, 187500.00, 0.000, 0.000, 0.000, 13:44:13.049
103, 506.07, 29637.23, -173184.94, -172784.05, -147130.22, -91284.72, -78214.96, 187500.00, 0.000, 0.000, 0.000, 13:44:13.050
104, 107.69, 29128.14, -167747.13, -166851.00, -132447.11, -76912.46, -63465.12, 187500.00, 0.000, 0.000, 0.000, 13:44:13.515
105, 6571.64, 35495.82, -176435.91, -176295.84, -157613.44, -101521.38, -88623.26, 187500.00, 0.000, 0.000, 0.000, 13:44:13.515
106, 8061.00, 37050.34, -178762.41, -178780.58, -173555.95, -117108.81, -104567.20, 187500.00, 0.000, 0.000, 0.000, 13:44:13.516
107, 6171.81, 35216.47, -178639.20, -178653.00, -172239.31, -115908.59, -103331.58, 187500.00, 0.000, 0.000, 0.000, 13:44:13.516
108, 547.77, 29676.61, -173266.52, -172853.56, -147389.28, -91663.77, -78507.55, 187500.00, 0.008, -0.098, 1.024, 13:44:13.516
109, 75.82, 29099.11, -167747.09, -166822.38, -132439.38, -77028.40, -63488.18, 187500.00, 0.000, 0.000, 0.000, 13:44:13.516
110, 6530.13, 35453.46, -176401.28, -176254.47, -157488.73, -101519.85, -88527.01, 187500.00, 0.000, 0.000, 0.000, 13:44:13.516
111, 8056.86, 37044.95, -178761.27, -178779.45, -173581.83, -117254.37, -104621.83, 187500.00, 0.000, 0.000, 0.000, 13:44:13.516
112, 6185.20, 35232.70, -178650.17, -178664.11, -172364.20, -116152.24, -103484.51, 187500.00, 0.000, 0.000, 0.000, 13:44:13.516
113, 578.04, 29708.78, -173341.38, -172926.52, -147650.19, -92044.28, -78797.92, 187500.00, 0.000, 0.000, 0.000, 13:44:13.516
114, 41.98, 29065.51, -167728.42, -166788.58, -132435.89, -77152.38, -63518.34, 187500.00, 0.000, 0.000, 0.000, 13:44:13.516
115, 6507.58, 35434.40, -176372.16, -176220.45, -157395.97, -101555.35, -88468.41, 187500.00, 0.000, 0.000, 0.000, 13:44:13.517
116, 8066.14, 37055.95, -178762.86, -178780.98, -173616.59, -117413.53, -104689.20, 187500.00, 0.000, 0.000, 0.000, 13:44:13.517
117, 6207.77, 35255.56, -178658.88, -178672.70, -172498.94, -116408.38, -103649.13, 187500.00, 0.000, 0.000, 0.000, 13:44:13.517
118, 611.52, 29743.33, -173405.55, -172984.25, -147904.17, -92414.23, -79078.81, 187500.00, 0.006, -0.098, 1.016, 13:44:13.517
119, 6.26, 29037.04, -167702.83, -166734.23, -132419.69, -77256.90, -63525.89, 187500.00, 0.000, 0.000, 0.000, 13:44:13.517
120, 6471.86, 35400.49, -176336.84, -176173.88, -157275.83, -101559.59, -88372.31, 187500.00, 0.000, 0.000, 0.000, 13:44:13.517
121, 8067.08, 37058.54, -178765.05, -178783.16, -173638.06, -117555.80, -104735.31, 187500.00, 0.000, 0.000, 0.000, 13:44:13.517
122, 6230.79, 35282.63, -178672.00, -178686.14, -172624.78, -116652.19, -103799.93, 187500.00, 0.000, 0.000, 0.000, 13:44:13.517
123, 649.21, 29784.88, -173487.48, -173072.50, -148168.69, -92793.17, -79368.45, 187500.00, 0.000, 0.000, 0.000, 13:44:13.517
124, -22.87, 29009.68, -167699.17, -166718.50, -132424.05, -77376.51, -63551.46, 187500.00, 0.000, 0.000, 0.000, 13:44:13.518
125, 6446.27, 35372.91, -176300.55, -176132.36, -157151.36, -101551.37, -88266.61, 187500.00, 0.000, 0.000, 0.000, 13:44:13.518
126, 8084.00, 37069.45, -178764.80, -178782.91, -173657.36, -117690.18, -104775.14, 187500.00, 0.000, 0.000, 0.000, 13:44:13.518
127, 6271.52, 35318.19, -178681.47, -178695.84, -172753.56, -116892.84, -103948.95, 187500.00, 0.000, 0.000, 0.000, 13:44:13.518
128, 702.58, 29835.62, -173568.75, -173148.31, -148455.83, -93193.54, -79680.52, 187500.00, 0.004, -0.098, 1.018, 13:44:13.518
129, -44.19, 28988.49, -167709.53, -166702.19, -132440.61, -77516.65, -63595.41, 187500.00, 0.000, 0.000, 0.000, 13:44:13.518
130, 6418.64, 35346.91, -176272.72, -176094.92, -157045.78, -101573.84, -88191.09, 187500.00, 0.000, 0.000, 0.000, 13:44:13.518
131, 8089.03, 37079.06, -178764.16, -178782.25, -173670.95, -117830.59, -104822.01, 187500.00, 0.000, 0.000, 0.000, 13:44:13.519
132, 6289.94, 35335.34, -178692.25, -178706.70, -172880.52, -117144.26, -104108.84, 187500.00, 0.000, 0.000, 0.000, 13:44:13.519
133, 733.72, 29865.73, -173644.48, -173221.97, -148726.48, -93588.92, -79985.96, 187500.00, 0.000, 0.000, 0.000, 13:44:13.519
134, -71.66, 28960.77, -167714.45, -166690.83, -132448.94, -77659.08, -63639.19, 187500.00, 0.000, 0.000, 0.000, 13:44:13.519
135, 6391.64, 35317.23, -176239.63, -176056.34, -156922.81, -101589.14, -88103.16, 187500.00, 0.000, 0.000, 0.000, 13:44:13.519
136, 8092.38, 37077.90, -178759.95, -178778.14, -173691.25, -117983.41, -104875.12, 187500.00, 0.000, 0.000, 0.000, 13:44:13.519
137, 6307.64, 35353.80, -178697.78, -178712.31, -173000.73, -117393.05, -104264.00, 187500.00, 0.000, -0.096, 1.022, 13:44:13.519
138, 771.11, 29900.13, -173718.41, -173290.86, -148986.55, -93971.58, -80283.33, 187500.00, 0.000, 0.000, 0.000, 13:44:13.519
139, -106.68, 28923.54, -167703.95, -166661.63, -132443.95, -77780.31, -63672.38, 187500.00, 0.000, 0.000, 0.000, 13:44:13.519
140, 6355.00, 35275.66, -176201.23, -176011.95, -156797.44, -101592.16, -88014.26, 187500.00, 0.000, 0.000, 0.000, 13:44:13.520
141, 8089.70, 37072.36, -178759.03, -178777.09, -173704.78, -118124.00, -104924.34, 187500.00, 0.000, 0.000, 0.000, 13:44:13.520
142, 6323.71, 35367.41, -178706.73, -178721.39, -173110.56, -117628.53, -104407.70, 187500.00, 0.000, 0.000, 0.000, 13:44:13.520
143, 805.76, 29936.38, -173797.23, -173362.84, -149242.30, -94350.71, -80572.60, 187500.00, 0.000, 0.000, 0.000, 13:44:13.520
144, -137.64, 28896.36, -167719.89, -166647.45, -132464.72, -77930.12, -63729.27, 187500.00, 0.000, 0.000, 0.000, 13:44:13.520
145, 6319.96, 35246.26, -176171.95, -175970.31, -156675.47, -101600.81, -87929.62, 187500.00, 0.000, 0.000, 0.000, 13:44:13.520
146, 8095.80, 37081.63, -178762.08, -178780.16, -173714.11, -118259.63, -104971.57, 187500.00, 0.000, 0.000, 0.000, 13:44:13.520
147, 6349.62, 35392.13, -178718.53, -178733.42, -173227.73, -117868.30, -104560.74, 187500.00, 0.002, -0.098, 1.020, 13:44:13.520
148, 844.45, 29976.46, -173872.25, -173445.00, -149509.34, -94733.84, -80873.19, 187500.00, 0.000, 0.000, 0.000, 13:44:13.521
149, -164.89, 28873.89, -167716.31, -166632.11, -132470.89, -78055.58, -63764.43, 187500.00, 0.000, 0.000, 0.000, 13:44:13.521
150, 6290.16, 35220.94, -176137.47, -175929.92, -156555.80, -101604.08, -87837.68, 187500.00, 0.000, 0.000, 0.000, 13:44:13.521
151, 8099.62, 37092.68, -178761.63, -178779.69, -173727.55, -118392.80, -105014.73, 187500.00, 0.000, 0.000, 0.000, 13:44:13.521
152, 6368.26, 35420.45, -178726.80, -178741.89, -173346.16, -118102.08, -104710.68, 187500.00, 0.000, 0.000, 0.000, 13:44:13.521
153, 884.06, 30020.78, -173951.28, -173518.89, -149777.63, -95119.23, -81178.41, 187500.00, 0.000, 0.000, 0.000, 13:44:13.521
154, -192.34, 28847.90, -167718.83, -166614.08, -132475.75, -78183.02, -63807.66, 187500.00, 0.000, 0.000, 0.000, 13:44:13.521
155, 6255.87, 35187.32, -176099.84, -175885.20, -156425.91, -101598.64, -87745.48, 187500.00, 0.000, 0.000, 0.000, 13:44:13.521
156, 8103.74, 37094.53, -178760.50, -178778.55, -173739.91, -118528.05, -105063.21, 187500.00, 0.000, 0.000, 0.000, 13:44:13.521
157, 6393.00, 35440.57, -178736.36, -178751.61, -173458.77, -118335.23, -104857.44, 187500.00, 0.006, -0.098, 1.020, 13:44:13.522
158, 919.84, 30053.86, -174019.86, -173589.88, -150035.56, -95490.83, -81468.69, 187500.00, 0.000, 0.000, 0.000, 13:44:13.522
159, -218.44, 28819.62, -167723.73, -166603.13, -132492.27, -78319.55, -63856.96, 187500.00, 0.000, 0.000, 0.000, 13:44:13.522
160, 6224.69, 35152.54, -176070.20, -175847.20, -156302.92, -101600.79, -87656.30, 187500.00, 0.000, 0.000, 0.000, 13:44:13.522
161, 8104.59, 37088.49, -178762.78, -178780.89, -173751.08, -118656.78, -105106.75, 187500.00, 0.000, 0.000, 0.000, 13:44:13.522
162, 6411.69, 35452.91, -178749.17, -178764.47, -173571.11, -118560.02, -105001.95, 187500.00, 0.000, 0.000, 0.000, 13:44:13.522
163, 953.48, 30082.97, -174088.36, -173653.72, -150291.20, -95855.81, -81758.41, 187500.00, 0.000, 0.000, 0.000, 13:44:13.522
164, -261.00, 28777.33, -167720.36, -166581.91, -132498.55, -78438.51, -63900.82, 187500.00, 0.000, 0.000, 0.000, 13:44:13.522
165, 6178.00, 35103.37, -176034.83, -175804.98, -156182.08, -101593.44, -87576.12, 187500.00, 0.000, 0.000, 0.000, 13:44:13.523
166, 8095.44, 37080.18, -178766.00, -178783.80, -173777.20, -118796.99, -105176.38, 187500.00, 0.000, 0.000, 0.000, 13:44:13.523
167, 6415.02, 35458.89, -178758.98, -178774.25, -173702.34, -118804.91, -105176.73, 187500.00, 0.008, -0.094, 1.028, 13:44:13.523
168, 971.36, 30105.32, -174168.00, -173729.75, -150571.52, -96249.91, -82084.34, 187500.00, 0.000, 0.000, 0.000, 13:44:13.523
169, -302.89, 28738.89, -167737.86, -166571.05, -132529.88, -78592.06, -63975.77, 187500.00, 0.000, 0.000, 0.000, 13:44:13.523
170, 6133.74, 35059.98, -176004.05, -175760.91, -156085.59, -101622.00, -87522.27, 187500.00, 0.000, 0.000, 0.000, 13:44:13.523
171, 8088.67, 37075.87, -178765.92, -178783.94, -173806.42, -118947.17, -105250.23, 187500.00, 0.000, 0.000, 0.000, 13:44:13.523
172, 6435.92, 35478.77, -178766.94, -178782.64, -173826.53, -119045.07, -105344.86, 187500.00, 0.000, 0.000, 0.000, 13:44:13.523
173, 1014.12, 30145.04, -174241.25, -173818.06, -150829.95, -96623.59, -82390.96, 187500.00, 0.000, 0.000, 0.000, 13:44:13.523
174, -337.20, 28702.99, -167754.95, -166589.09, -132561.31, -78742.82, -64055.27, 187500.00, 0.000, 0.000, 0.000, 13:44:13.524
175, 6082.89, 35012.89, -175974.42, -175726.92, -155979.14, -101637.60, -87462.04, 187500.00, 0.000, 0.000, 0.000, 13:44:13.524
176, 8080.47, 37071.21, -178765.84, -178783.80, -173834.23, -119093.87, -105322.58, 187500.00, 0.000, 0.000, 0.000, 13:44:13.524
177, 6431.09, 35477.31, -178776.89, -178792.78, -173942.20, -119278.36, -105501.80, 187500.00, 0.006, -0.094, 1.024, 13:44:13.524
178, 1021.32, 30149.42, -174320.00, -173897.11, -151087.81, -96998.74, -82689.76, 187500.00, 0.000, 0.000, 0.000, 13:44:13.524
179, -382.42, 28660.57, -167765.02, -166590.27, -132584.48, -78888.89, -64119.02, 187500.00, 0.000, 0.000, 0.000, 13:44:13.524
180, 6032.94, 34966.00, -175939.63, -175687.81, -155863.77, -101646.99, -87386.11, 187500.00, 0.000, 0.000, 0.000, 13:44:13.524
181, 8067.66, 37056.80, -178768.75, -178786.84, -173848.53, -119227.76, -105374.63, 187500.00, 0.000, 0.000, 0.000, 13:44:13.524
182, 6434.11, 35481.00, -178786.39, -178802.44, -174058.55, -119508.54, -105655.55, 187500.00, 0.000, 0.000, 0.000, 13:44:13.525
183, 1031.47, 30176.26, -174383.75, -173959.39, -151347.25, -97368.94, -82986.30, 187500.00, 0.000, 0.000, 0.000, 13:44:13.525
184, -430.25, 28626.50, -167777.63, -166592.94, -132620.42, -79039.99, -64188.87, 187500.00, 0.000, 0.000, 0.000, 13:44:13.525
185, 5988.95, 34915.01, -175909.86, -175653.66, -155760.66, -101661.36, -87314.16, 187500.00, 0.000, 0.000, 0.000, 13:44:13.525
186, 8057.33, 37039.48, -178766.78, -178784.72, -173862.13, -119357.44, -105422.24, 187500.00, 0.000, 0.000, 0.000, 13:44:13.525
187, 6442.89, 35489.05, -178792.52, -178808.61, -174165.66, -119730.73, -105799.43, 187500.00, 0.000, -0.096, 1.018, 13:44:13.525
188, 1070.18, 30203.20, -174456.41, -174032.17, -151612.08, -97744.76, -83291.02, 187500.00, 0.000, 0.000, 0.000, 13:44:13.525
189, -455.84, 28594.83, -167788.59, -166584.75, -132637.19, -79171.10, -64247.18, 187500.00, 0.000, 0.000, 0.000, 13:44:13.526
190, 5953.30, 34884.95, -175871.77, -175604.89, -155615.19, -101632.82, -87212.62, 187500.00, 0.000, 0.000, 0.000, 13:44:13.526
191, 8057.42, 37049.76, -178764.73, -178782.64, -173869.50, -119476.80, -105472.23, 187500.00, 0.000, 0.000, 0.000, 13:44:13.526
192, 6459.61, 35510.19, -178802.34, -178818.58, -174270.64, -119941.49, -105944.36, 187500.00, 0.000, 0.000, 0.000, 13:44:13.526
193, 1106.14, 30240.99, -174526.73, -174098.45, -151861.66, -98100.44, -83584.28, 187500.00, 0.000, 0.000, 0.000, 13:44:13.526
194, -484.79, 28563.76, -167795.56, -166573.16, -132650.92, -79298.82, -64307.73, 187500.00, 0.000, 0.000, 0.000, 13:44:13.526
195, 5922.16, 34851.80, -175836.16, -175562.64, -155498.33, -101634.18, -87142.84, 187500.00, 0.000, 0.000, 0.000, 13:44:13.526
196, 8057.42, 37047.16, -178764.31, -178782.34, -173875.67, -119599.24, -105525.29, 187500.00, 0.000, 0.000, 0.000, 13:44:13.526
197, 6482.43, 35528.68, -178809.75, -178826.16, -174373.64, -120159.98, -106094.20, 187500.00, 0.004, -0.098, 1.026, 13:44:13.526
198, 1156.39, 30289.05, -174602.97, -174187.39, -152126.19, -98477.87, -83898.05, 187500.00, 0.000, 0.000, 0.000, 13:44:13.527
199, -501.95, 28551.85, -167839.69, -166601.88, -132708.97, -79472.56, -64415.76, 187500.00, 0.000, 0.000, 0.000, 13:44:13.527
200, 5892.79, 34827.39, -175808.89, -175520.58, -155377.77, -101633.38, -87072.31, 187500.00, 0.000, 0.000, 0.000, 13:44:13.527
201, 8086.03, 37071.75, -178767.17, -178785.09, -173894.69, -119737.66, -105596.95, 187500.00, 0.000, 0.000, 0.000, 13:44:13.527
202, 6522.42, 35569.09, -178819.58, -178836.14, -174497.17, -120398.94, -106270.67, 187500.00, 0.000, 0.000, 0.000, 13:44:13.527
203, 1209.32, 30346.67, -174687.19, -174271.72, -152417.61, -98882.08, -84243.37, 187500.00, 0.000, 0.000, 0.000, 13:44:13.527
204, -514.43, 28542.35, -167864.55, -166617.81, -132748.55, -79633.36, -64508.18, 187500.00, 0.000, 0.000, 0.000, 13:44:13.527
205, 5868.14, 34802.61, -175774.47, -175481.34, -155262.23, -101641.78, -87007.74, 187500.00, 0.000, 0.000, 0.000, 13:44:13.527
206, 8082.06, 37071.13, -178769.64, -178787.50, -173919.28, -119880.05, -105670.23, 187500.00, 0.000, 0.000, 0.000, 13:44:13.528
207, 6530.49, 35579.24, -178830.09, -178846.84, -174615.98, -120633.21, -106435.70, 187500.00, 0.004, -0.098, 1.026, 13:44:13.528
208, 1231.00, 30371.10, -174757.75, -174344.41, -152693.91, -99270.40, -84566.55, 187500.00, 0.000, 0.000, 0.000, 13:44:13.528
209, -556.00, 28506.32, -167892.03, -166638.11, -132802.19, -79799.26, -64606.51, 187500.00, 0.000, 0.000, 0.000, 13:44:13.528
210, 5826.16, 34764.02, -175741.91, -175444.42, -155157.89, -101653.41, -86946.65, 187500.00, 0.000, 0.000, 0.000, 13:44:13.528
211, 8093.03, 37082.46, -178770.00, -178787.70, -173942.61, -120017.40, -105736.63, 187500.00, 0.000, 0.000, 0.000, 13:44:13.529
212, 6565.44, 35617.10, -178839.47, -178856.16, -174738.16, -120864.35, -106597.92, 187500.00, 0.000, 0.000, 0.000, 13:44:13.529
213, 1294.59, 30435.54, -174833.80, -174428.11, -152962.50, -99650.47, -84882.18, 187500.00, 0.000, 0.000, 0.000, 13:44:13.529
214, -548.53, 28510.79, -167924.20, -166661.78, -132845.17, -79962.88, -64699.74, 187500.00, 0.000, 0.000, 0.000, 13:44:13.529
215, 5813.98, 34749.21, -175713.47, -175408.48, -155036.97, -101656.63, -86876.45, 187500.00, 0.000, 0.000, 0.000, 13:44:13.529
216, 8113.66, 37100.90, -178774.56, -178792.31, -173966.70, -120162.10, -105812.30, 187500.00, 0.000, 0.000, 0.000, 13:44:13.530
217, 6599.02, 35643.30, -178852.86, -178869.78, -174868.94, -121111.13, -106778.51, 187500.00, 0.006, -0.092, 1.022, 13:44:13.530
218, 1348.10, 30484.25, -174908.56, -174509.47, -153256.23, -100057.49, -85225.61, 187500.00, 0.000, 0.000, 0.000, 13:44:13.530
219, -561.57, 28500.44, -167953.39, -166690.50, -132912.28, -80148.70, -64819.32, 187500.00, 0.000, 0.000, 0.000, 13:44:13.530
220, 5795.29, 34732.08, -175689.00, -175380.92, -154968.53, -101707.63, -86862.72, 187500.00, 0.000, 0.000, 0.000, 13:44:13.530
221, 8128.75, 37120.34, -178778.44, -178796.25, -174019.97, -120334.13, -105923.62, 187500.00, 0.000, 0.000, 0.000, 13:44:13.530
222, 6634.29, 35685.70, -178863.59, -178880.84, -175015.61, -121373.43, -106983.85, 187500.00, 0.000, 0.000, 0.000, 13:44:13.531
223, 1404.94, 30542.56, -174989.09, -174591.42, -153550.73, -100467.11, -85585.25, 187500.00, 0.000, 0.000, 0.000, 13:44:13.531
224, -570.35, 28491.90, -168023.33, -166744.59, -132996.89, -80352.20, -64970.06, 187500.00, 0.000, 0.000, 0.000, 13:44:13.997
225, 5770.13, 34706.96, -175671.66, -175353.28, -154884.11, -101745.95, -86843.92, 187500.00, 0.000, 0.000, 0.000, 13:44:13.997
226, 8139.45, 37125.93, -178780.36, -178798.17, -174069.08, -120500.64, -106036.45, 187500.00, 0.000, 0.000, 0.000, 13:44:13.997
227, 6657.35, 35702.39, -178873.66, -178890.91, -175153.89, -121622.30, -107180.27, 187500.00, 0.008, -0.096, 1.028, 13:44:13.998
228, 1442.49, 30579.89, -175072.09, -174671.66, -153842.61, -100866.85, -85935.99, 187500.00, 0.000, 0.000, 0.000, 13:44:13.998
229, -593.46, 28471.00, -168088.80, -166781.41, -133078.11, -80545.67, -65108.33, 187500.00, 0.000, 0.000, 0.000, 13:44:13.998
230, 5734.41, 34672.36, -175648.00, -175313.53, -154786.52, -101765.97, -86801.92, 187500.00, 0.000, 0.000, 0.000, 13:44:13.998
231, 8135.32, 37124.66, -178786.88, -178804.66, -174105.11, -120653.39, -106127.45, 187500.00, 0.000, 0.000, 0.000, 13:44:13.998
232, 6663.68, 35711.20, -178887.69, -178905.06, -175287.77, -121870.02, -107368.66, 187500.00, 0.000, 0.000, 0.000, 13:44:13.998
233, 1476.51, 30614.09, -175151.75, -174767.92, -154132.80, -101275.02, -86286.31, 187500.00, 0.000, 0.000, 0.000, 13:44:13.998
234, -618.63, 28448.14, -168138.94, -166842.05, -133155.28, -80749.01, -65248.43, 187500.00, 0.000, 0.000, 0.000, 13:44:13.998
235, 5692.05, 34629.96, -175628.09, -175290.39, -154694.45, -101803.70, -86772.64, 187500.00, 0.000, 0.000, 0.000, 13:44:13.998
236, 8138.78, 37127.39, -178793.98, -178811.84, -174134.64, -120808.09, -106218.70, 187500.00, 0.000, 0.000, 0.000, 13:44:13.999
237, 6681.94, 35729.42, -178902.89, -178920.41, -175409.88, -122111.48, -107549.39, 187500.00, 0.008, -0.096, 1.036, 13:44:13.999
238, 1509.73, 30644.84, -175220.95, -174838.95, -154400.66, -101661.61, -86617.68, 187500.00, 0.000, 0.000, 0.000, 13:44:13.999
239, -647.78, 28416.20, -168164.55, -166860.22, -133193.13, -80909.20, -65352.12, 187500.00, 0.000, 0.000, 0.000, 13:44:13.999
240, 5650.99, 34583.58, -175589.48, -175245.69, -154547.58, -101784.90, -86694.05, 187500.00, 0.000, 0.000, 0.000, 13:44:13.999
241, 8143.01, 37124.32, -178791.03, -178808.61, -174130.39, -120932.66, -106285.94, 187500.00, 0.000, 0.000, 0.000, 13:44:13.999
242, 6707.83, 35747.77, -178908.31, -178925.84, -175498.31, -122325.02, -107708.29, 187500.00, 0.000, 0.000, 0.000, 13:44:13.999
243, 1558.21, 30690.75, -175282.42, -174901.70, -154640.98, -102024.76, -86931.16, 187500.00, 0.000, 0.000, 0.000, 13:44:13.999
244, -656.45, 28406.23, -168175.39, -166865.17, -133219.80, -81065.66, -65453.21, 187500.00, 0.000, 0.000, 0.000, 13:44:14.000
245, 5639.55, 34565.16, -175552.56, -175204.70, -154411.72, -101781.33, -86630.20, 187500.00, 0.000, 0.000, 0.000, 13:44:14.000
246, 8166.19, 37145.22, -178794.30, -178811.80, -174124.53, -121053.34, -106349.41, 187500.00, 0.000, 0.000, 0.000, 13:44:14.000
247, 6745.44, 35787.09, -178917.70, -178935.20, -175584.81, -122532.77, -107862.90, 187500.00, 0.004, -0.094, 1.028, 13:44:14.000
248, 1617.44, 30748.04, -175351.73, -174973.56, -154885.77, -102387.21, -87244.02, 187500.00, 0.000, 0.000, 0.000, 13:44:14.000
249, -655.67, 28409.18, -168220.47, -166905.34, -133278.58, -81242.58, -65576.17, 187500.00, 0.000, 0.000, 0.000, 13:44:14.000
250, 5617.57, 34553.47, -175522.03, -175169.86, -154287.16, -101776.97, -86568.48, 187500.00, 0.000, 0.000, 0.000, 13:44:14.000
251, 8179.13, 37167.62, -178794.38, -178811.95, -174131.75, -121177.61, -106420.36, 187500.00, 0.000, 0.000, 0.000, 13:44:14.000
252, 6768.71, 35813.57, -178928.17, -178945.84, -175693.20, -122752.63, -108029.87, 187500.00, 0.000, 0.000, 0.000, 13:44:14.000
253, 1659.64, 30796.84, -175412.69, -175051.17, -155157.95, -102768.13, -87576.70, 187500.00, 0.000, 0.000, 0.000, 13:44:14.001
254, -679.27, 28387.90, -168240.41, -166937.80, -133334.16, -81412.80, -65693.05, 187500.00, 0.000, 0.000, 0.000, 13:44:14.001
255, 5570.10, 34506.13, -175488.72, -175132.59, -154165.16, -101774.17, -86507.33, 187500.00, 0.000, 0.000, 0.000, 13:44:14.001
0, 8172.36, 37156.36, -178797.30, -178814.78, -174141.05, -121302.55, -106489.88, 187500.00, 0.002, -0.094, 1.024, 13:44:14.001
1, 6778.75, 35822.20, -178935.31, -178953.11, -175798.30, -122969.05, -108195.25, 187500.00, 0.000, 0.000, 0.000, 13:44:14.001
2, 1689.08, 30824.04, -175481.39, -175123.09, -155430.69, -103156.98, -87918.57, 187500.00, 0.000, 0.000, 0.000, 13:44:14.001
3, -714.67, 28357.75, -168277.27, -166956.03, -133392.97, -81598.10, -65826.47, 187500.00, 0.000, 0.000, 0.000, 13:44:14.001
4, 5521.39, 34464.11, -175458.19, -175083.91, -154041.27, -101780.66, -86458.04, 187500.00, 0.000, 0.000, 0.000, 13:44:14.001
5, 8158.86, 37147.75, -178800.31, -178817.75, -174142.88, -121428.77, -106565.31, 187500.00, 0.000, 0.000, 0.000, 13:44:14.002
6, 6780.69, 35827.03, -178948.53, -178966.23, -175900.20, -123188.62, -108365.88, 187500.00, 0.000, 0.000, 0.000, 13:44:14.002
7, 1723.79, 30859.33, -175553.45, -175196.97, -155698.27, -103539.91, -88255.77, 187500.00, 0.000, 0.000, 0.000, 13:44:14.002
8, -736.53, 28334.57, -168322.75, -166993.28, -133451.38, -81776.07, -65952.35, 187500.00, 0.000, 0.000, 0.000, 13:44:14.002
9, 5478.37, 34416.23, -175428.91, -175048.13, -153902.17, -101763.29, -86383.61, 187500.00, 0.000, 0.000, 0.000, 13:44:14.002
10, 8160.93, 37146.65, -178801.72, -178819.05, -174142.34, -121547.28, -106628.26, 187500.00, 0.006, -0.096, 1.026, 13:44:14.002
11, 6807.72, 35853.29, -178957.94, -178975.78, -175999.91, -123402.39, -108524.47, 187500.00, 0.000, 0.000, 0.000, 13:44:14.002
12, 1778.06, 30910.92, -175628.22, -175272.78, -155969.17, -103921.51, -88588.27, 187500.00, 0.000, 0.000, 0.000, 13:44:14.002
13, -740.71, 28331.13, -168381.19, -167044.77, -133529.00, -81968.80, -66096.14, 187500.00, 0.000, 0.000, 0.000, 13:44:14.002
14, 5460.24, 34398.20, -175400.81, -175015.53, -153777.63, -101760.41, -86329.84, 187500.00, 0.000, 0.000, 0.000, 13:44:14.003
15, 8183.29, 37167.89, -178803.88, -178821.27, -174137.98, -121662.58, -106696.80, 187500.00, 0.000, 0.000, 0.000, 13:44:14.003
16, 6841.85, 35884.47, -178967.73, -178985.64, -176094.08, -123611.42, -108690.30, 187500.00, 0.000, 0.000, 0.000, 13:44:14.003
17, 1837.16, 30968.83, -175684.75, -175346.59, -156233.09, -104300.16, -88928.02, 187500.00, 0.000, 0.000, 0.000, 13:44:14.003
18, -744.85, 28329.54, -168409.92, -167089.75, -133596.17, -82154.57, -66237.80, 187500.00, 0.000, 0.000, 0.000, 13:44:14.003
19, 5432.64, 34370.01, -175370.81, -174982.17, -153667.81, -101770.20, -86291.03, 187500.00, 0.000, 0.000, 0.000, 13:44:14.003
20, 8191.11, 37177.14, -178807.27, -178824.55, -174159.28, -121797.60, -106789.41, 187500.00, 0.006, -0.102, 1.030, 13:44:14.003
21, 6865.87, 35907.81, -178978.34, -178996.39, -176205.66, -123829.87, -108870.67, 187500.00, 0.000, 0.000, 0.000, 13:44:14.003
22, 1876.65, 31007.93, -175753.27, -175416.63, -156492.31, -104672.45, -89264.52, 187500.00, 0.000, 0.000, 0.000, 13:44:14.004
23, -766.40, 28307.99, -168460.31, -167133.86, -133669.59, -82349.08, -66392.52, 187500.00, 0.000, 0.000, 0.000, 13:44:14.004
24, 5390.12, 34327.85, -175340.17, -174946.31, -153546.58, -101773.84, -86252.67, 187500.00, 0.000, 0.000, 0.000, 13:44:14.004
25, 8186.19, 37166.48, -178808.58, -178825.59, -174168.83, -121929.12, -106882.48, 187500.00, 0.000, 0.000, 0.000, 13:44:14.004
26, 6872.85, 35910.29, -178988.69, -179006.64, -176319.42, -124057.14, -109062.07, 187500.00, 0.000, 0.000, 0.000, 13:44:14.004
27, 1904.10, 31032.65, -175816.11, -175482.80, -156767.06, -105057.38, -89618.91, 187500.00, 0.000, 0.000, 0.000, 13:44:14.004
28, -801.35, 28271.69, -168494.17, -167163.02, -133733.80, -82527.89, -66537.16, 187500.00, 0.000, 0.000, 0.000, 13:44:14.004
29, 5331.63, 34270.43, -175301.19, -174901.55, -153410.52, -101757.34, -86196.84, 187500.00, 0.000, 0.000, 0.000, 13:44:14.004
30, 8167.98, 37148.33, -178808.25, -178825.23, -174172.41, -122049.20, -106964.45, 187500.00, 0.008, -0.102, 1.028, 13:44:14.004
31, 6864.42, 35898.98, -178997.48, -179015.39, -176411.50, -124259.22, -109228.30, 187500.00, 0.000, 0.000, 0.000, 13:44:14.005
32, 1919.66, 31047.38, -175875.23, -175543.39, -156995.11, -105395.78, -89924.15, 187500.00, 0.000, 0.000, 0.000, 13:44:14.005
33, -837.05, 28236.53, -168535.28, -167191.98, -133784.70, -82696.02, -66666.04, 187500.00, 0.000, 0.000, 0.000, 13:44:14.005
34, 5284.20, 34217.23, -175273.02, -174863.30, -153265.06, -101734.43, -86128.48, 187500.00, 0.000, 0.000, 0.000, 13:44:14.005
35, 8165.96, 37144.04, -178811.42, -178828.34, -174138.84, -122136.45, -107006.88, 187500.00, 0.000, 0.000, 0.000, 13:44:14.005
36, 6885.66, 35926.58, -179007.22, -179025.16, -176464.31, -124430.62, -109355.62, 187500.00, 0.000, 0.000, 0.000, 13:44:14.005
37, 1972.88, 31104.11, -175923.25, -175596.80, -157215.92, -105729.27, -90219.95, 187500.00, 0.000, 0.000, 0.000, 13:44:14.005
38, -833.50, 28239.93, -168526.78, -167174.75, -133800.13, -82828.59, -66758.45, 187500.00, 0.000, 0.000, 0.000, 13:44:14.005
39, 5268.78, 34207.53, -175221.67, -174795.53, -153078.02, -101666.82, -86016.98, 187500.00, 0.000, 0.000, 0.000, 13:44:14.006
40, 8187.53, 37169.30, -178808.61, -178825.39, -174090.52, -122198.95, -107031.93, 187500.00, 0.008, -0.100, 1.024, 13:44:14.006
41, 6919.85, 35956.25, -179009.61, -179027.67, -176508.84, -124580.04, -109470.48, 187500.00, 0.000, 0.000, 0.000, 13:44:14.006
42, 2022.48, 31148.16, -175966.81, -175651.53, -157417.39, -106036.31, -90496.60, 187500.00, 0.000, 0.000, 0.000, 13:44:14.006
43, -845.72, 28228.46, -168523.14, -167179.00, -133817.88, -82959.21, -66857.17, 187500.00, 0.000, 0.000, 0.000, 13:44:14.006
44, 5239.65, 34173.38, -175170.30, -174738.69, -152898.58, -101608.84, -85921.02, 187500.00, 0.000, 0.000, 0.000, 13:44:14.006
45, 8198.62, 37179.13, -178806.44, -178822.95, -174029.48, -122262.09, -107056.80, 187500.00, 0.000, 0.000, 0.000, 13:44:14.006
46, 6939.30, 35982.08, -179013.86, -179031.77, -176537.80, -124731.91, -109584.50, 187500.00, 0.000, 0.000, 0.000, 13:44:14.006
47, 2068.52, 31200.22, -176014.59, -175700.95, -157611.11, -106349.06, -90772.42, 187500.00, 0.000, 0.000, 0.000, 13:44:14.006
48, -856.90, 28222.50, -168534.42, -167184.81, -133843.66, -83108.19, -66963.63, 187500.00, 0.000, 0.000, 0.000, 13:44:14.007
49, 5189.99, 34130.15, -175125.00, -174687.45, -152721.00, -101556.91, -85822.47, 187500.00, 0.000, 0.000, 0.000, 13:44:14.007
50, 8180.96, 37160.78, -178806.31, -178822.72, -173985.80, -122338.29, -107088.73, 187500.00, 0.008, -0.102, 1.020, 13:44:14.007
51, 6937.82, 35974.93, -179022.53, -179040.53, -176596.25, -124905.01, -109715.63, 187500.00, 0.000, 0.000, 0.000, 13:44:14.007
52, 2093.08, 31220.89, -176071.22, -175760.50, -157842.14, -106690.28, -91077.97, 187500.00, 0.000, 0.000, 0.000, 13:44:14.007
53, -896.37, 28184.03, -168553.72, -167199.58, -133889.73, -83265.19, -67082.32, 187500.00, 0.000, 0.000, 0.000, 13:44:14.007
54, 5132.36, 34068.84, -175076.45, -174632.92, -152562.97, -101512.16, -85735.16, 187500.00, 0.000, 0.000, 0.000, 13:44:14.007
55, 8166.79, 37144.11, -178805.66, -178821.92, -173956.78, -122420.03, -107133.25, 187500.00, 0.000, 0.000, 0.000, 13:44:14.007
56, 6942.72, 35977.90, -179030.25, -179048.36, -176659.89, -125073.63, -109852.27, 187500.00, 0.000, 0.000, 0.000, 13:44:14.008
57, 2122.34, 31249.55, -176120.92, -175816.33, -158073.77, -107023.44, -91382.76, 187500.00, 0.000, 0.000, 0.000, 13:44:14.008
58, -917.58, 28158.91, -168569.45, -167216.66, -133938.83, -83422.27, -67204.25, 187500.00, 0.000, 0.000, 0.000, 13:44:14.008
59, 5096.06, 34027.22, -175041.05, -174588.27, -152409.30, -101471.73, -85653.80, 187500.00, 0.000, 0.000, 0.000, 13:44:14.008
60, 8169.81, 37147.61, -178804.88, -178821.14, -173925.31, -122498.48, -107173.70, 187500.00, 0.006, -0.100, 1.026, 13:44:14.008
61, 6967.69, 36008.68, -179036.48, -179054.59, -176721.17, -125241.18, -109983.01, 187500.00, 0.000, 0.000, 0.000, 13:44:14.008
62, 2181.06, 31312.74, -176173.00, -175870.50, -158301.48, -107353.68, -91680.57, 187500.00, 0.000, 0.000, 0.000, 13:44:14.008
63, -906.52, 28177.93, -168604.83, -167239.64, -134005.09, -83593.04, -67339.27, 187500.00, 0.000, 0.000, 0.000, 13:44:14.009
64, 5075.77, 34017.07, -174993.72, -174525.56, -152240.67, -101410.60, -85552.06, 187500.00, 0.000, 0.000, 0.000, 13:44:14.009
65, 8193.34, 37171.26, -178803.33, -178819.27, -173879.47, -122556.53, -107195.21, 187500.00, 0.000, 0.000, 0.000, 13:44:14.009
66, 6998.00, 36036.02, -179043.19, -179061.14, -176772.19, -125392.23, -110099.55, 187500.00, 0.000, 0.000, 0.000, 13:44:14.009
67, 2231.55, 31359.83, -176227.45, -175936.66, -158514.78, -107670.34, -91966.34, 187500.00, 0.000, 0.000, 0.000, 13:44:14.009
68, -914.07, 28171.60, -168625.38, -167269.66, -134045.31, -83744.14, -67459.44, 187500.00, 0.000, 0.000, 0.000, 13:44:14.009
69, 5035.15, 33974.52, -174950.98, -174476.95, -152070.61, -101356.38, -85464.55, 187500.00, 0.000, 0.000, 0.000, 13:44:14.009
70, 8188.14, 37163.71, -178801.19, -178816.91, -173828.81, -122621.71, -107228.91, 187500.00, 0.008, -0.104, 1.028, 13:44:14.009
71, 7008.23, 36046.01, -179049.58, -179067.44, -176808.19, -125541.20, -110218.41, 187500.00, 0.000, 0.000, 0.000, 13:44:14.009
72, 2263.92, 31394.77, -176272.47, -175983.34, -158711.66, -107973.79, -92244.84, 187500.00, 0.000, 0.000, 0.000, 13:44:14.010
73, -945.68, 28140.51, -168630.00, -167268.52, -134072.20, -83881.80, -67567.00, 187500.00, 0.000, 0.000, 0.000, 13:44:14.010
74, 4976.93, 33921.97, -174890.81, -174409.92, -151877.02, -101277.85, -85346.13, 187500.00, 0.000, 0.000, 0.000, 13:44:14.010
75, 8170.17, 37152.89, -178796.97, -178812.52, -173764.11, -122665.68, -107234.03, 187500.00, 0.000, 0.000, 0.000, 13:44:14.010
76, 7006.29, 36045.96, -179052.63, -179070.66, -176842.28, -125678.85, -110319.60, 187500.00, 0.000, 0.000, 0.000, 13:44:14.010
77, 2293.13, 31424.45, -176315.31, -176029.41, -158928.00, -108288.77, -92526.27, 187500.00, 0.000, 0.000, 0.000, 13:44:14.010
78, -969.98, 28120.28, -168642.05, -167278.69, -134118.08, -84029.08, -67676.92, 187500.00, 0.000, 0.000, 0.000, 13:44:14.010
79, 4922.90, 33867.23, -174845.33, -174359.05, -151707.86, -101212.70, -85240.34, 187500.00, 0.000, 0.000, 0.000, 13:44:14.011
80, 8162.95, 37141.87, -178795.89, -178811.25, -173709.06, -122712.08, -107245.12, 187500.00, 0.008, -0.102, 1.024, 13:44:14.011
81, 7019.90, 36058.21, -179058.55, -179076.50, -176876.92, -125812.47, -110422.95, 187500.00, 0.000, 0.000, 0.000, 13:44:14.011
82, 2328.49, 31458.36, -176358.75, -176078.94, -159136.02, -108590.67, -92803.08, 187500.00, 0.000, 0.000, 0.000, 13:44:14.011
83, -985.58, 28101.84, -168650.66, -167291.20, -134159.91, -84170.34, -67789.69, 187500.00, 0.000, 0.000, 0.000, 13:44:14.011
84, 4883.07, 33823.64, -174797.31, -174301.25, -151507.45, -101118.88, -85113.30, 187500.00, 0.000, 0.000, 0.000, 13:44:14.011
85, 8174.73, 37149.83, -178792.52, -178807.63, -173642.30, -122750.14, -107252.36, 187500.00, 0.000, 0.000, 0.000, 13:44:14.011
86, 7056.49, 36092.34, -179062.45, -179080.41, -176907.55, -125946.35, -110526.40, 187500.00, 0.000, 0.000, 0.000, 13:44:14.012
87, 2393.00, 31517.30, -176402.89, -176126.69, -159336.44, -108891.21, -93077.53, 187500.00, 0.000, 0.000, 0.000, 13:44:14.012
88, -970.22, 28116.30, -168660.92, -167292.19, -134206.00, -84317.33, -67910.41, 187500.00, 0.000, 0.000, 0.000, 13:44:14.012
89, 4869.24, 33810.72, -174739.81, -174227.53, -151324.91, -101039.63, -85005.89, 187500.00, 0.000, 0.000, 0.000, 13:44:14.477
90, 8184.96, 37160.18, -178786.36, -178801.19, -173570.56, -122780.52, -107257.59, 187500.00, 0.004, -0.098, 1.026, 13:44:14.477
91, 7073.23, 36111.84, -179065.03, -179083.09, -176927.89, -126067.23, -110622.76, 187500.00, 0.000, 0.000, 0.000, 13:44:14.477
92, 2432.12, 31561.33, -176449.16, -176183.02, -159537.42, -109190.03, -93355.16, 187500.00, 0.000, 0.000, 0.000, 13:44:14.477
93, -988.75, 28096.79, -168670.64, -167310.53, -134241.94, -84459.46, -68024.89, 187500.00, 0.000, 0.000, 0.000, 13:44:14.477
94, 4817.83, 33758.13, -174682.91, -174163.53, -151116.70, -100946.24, -84875.88, 187500.00, 0.000, 0.000, 0.000, 13:44:14.477
95, 8175.55, 37152.04, -178784.16, -178798.77, -173482.19, -122805.40, -107250.04, 187500.00, 0.000, 0.000, 0.000, 13:44:14.478
96, 7075.65, 36112.91, -179069.92, -179088.09, -176932.36, -126183.82, -110710.11, 187500.00, 0.000, 0.000, 0.000, 13:44:14.478
97, 2464.73, 31589.52, -176496.23, -176232.19, -159713.89, -109473.61, -93613.51, 187500.00, 0.000, 0.000, 0.000, 13:44:14.478
98, -1005.31, 28081.97, -168694.44, -167329.05, -134286.64, -84614.02, -68152.61, 187500.00, 0.000, 0.000, 0.000, 13:44:14.478
99, 4772.79, 33710.30, -174629.45, -174103.09, -150932.08, -100874.88, -84773.66, 187500.00, 0.000, 0.000, 0.000, 13:44:14.478
100, 8166.30, 37139.39, -178783.34, -178797.70, -173420.58, -122849.30, -107265.41, 187500.00, 0.002, -0.098, 1.024, 13:44:14.479
101, 7082.33, 36115.14, -179078.73, -179096.72, -176972.48, -126321.46, -110823.16, 187500.00, 0.000, 0.000, 0.000, 13:44:14.479
102, 2491.57, 31616.18, -176538.39, -176275.84, -159922.91, -109773.68, -93895.96, 187500.00, 0.000, 0.000, 0.000, 13:44:14.479
103, -1038.26, 28049.18, -168703.86, -167332.27, -134327.34, -84749.63, -68268.57, 187500.00, 0.000, 0.000, 0.000, 13:44:14.479
104, 4710.34, 33655.16, -174575.34, -174041.00, -150735.44, -100781.22, -84653.05, 187500.00, 0.000, 0.000, 0.000, 13:44:14.479
105, 8149.36, 37128.73, -178776.75, -178790.66, -173344.81, -122875.29, -107265.82, 187500.00, 0.000, 0.000, 0.000, 13:44:14.479
106, 7082.13, 36119.93, -179079.91, -179097.84, -176989.59, -126441.31, -110918.49, 187500.00, 0.000, 0.000, 0.000, 13:44:14.480
107, 2534.71, 31657.31, -176575.95, -176318.91, -160112.69, -110064.66, -94162.46, 187500.00, 0.000, 0.000, 0.000, 13:44:14.480
108, -1042.13, 28051.42, -168706.20, -167329.94, -134369.72, -84896.84, -68386.48, 187500.00, 0.000, 0.000, 0.000, 13:44:14.480
109, 4679.29, 33624.53, -174522.45, -173967.31, -150560.92, -100714.88, -84555.59, 187500.00, 0.000, 0.000, 0.000, 13:44:14.480
110, 8172.09, 37145.85, -178772.13, -178785.89, -173275.20, -122912.71, -107275.09, 187500.00, -0.002, -0.096, 1.028, 13:44:14.480
111, 7129.09, 36167.51, -179082.53, -179100.70, -177008.42, -126563.33, -111015.23, 187500.00, 0.000, 0.000, 0.000, 13:44:14.481
112, 2601.41, 31727.34, -176618.20, -176365.61, -160306.66, -110354.83, -94431.98, 187500.00, 0.000, 0.000, 0.000, 13:44:14.481
113, -1027.13, 28066.10, -168720.50, -167347.70, -134422.16, -85047.96, -68511.78, 187500.00, 0.000, 0.000, 0.000, 13:44:14.481
114, 4656.56, 33597.89, -174463.11, -173903.52, -150365.20, -100622.09, -84428.95, 187500.00, 0.000, 0.000, 0.000, 13:44:14.481
115, 8179.82, 37158.37, -178768.22, -178781.45, -173202.13, -122938.95, -107272.66, 187500.00, 0.000, 0.000, 0.000, 13:44:14.481
116, 7145.52, 36184.03, -179087.16, -179105.13, -177033.56, -126685.48, -111112.13, 187500.00, 0.000, 0.000, 0.000, 13:44:14.481
117, 2638.04, 31759.39, -176659.36, -176410.00, -160504.25, -110648.17, -94704.74, 187500.00, 0.000, 0.000, 0.000, 13:44:14.481
118, -1052.23, 28038.56, -168734.34, -167365.28, -134469.63, -85197.72, -68637.20, 187500.00, 0.000, 0.000, 0.000, 13:44:14.482
119, 4591.63, 33532.22, -174405.36, -173842.41, -150171.75, -100536.40, -84312.86, 187500.00, 0.000, 0.000, 0.000, 13:44:14.482
120, 8151.61, 37125.38, -178761.44, -178774.41, -173131.67, -122975.07, -107279.70, 187500.00, 0.002, -0.096, 1.022, 13:44:14.482
121, 7128.33, 36164.20, -179090.98, -179109.03, -177054.48, -126811.59, -111211.37, 187500.00, 0.000, 0.000, 0.000, 13:44:14.482
122, 2648.59, 31768.47, -176705.98, -176466.70, -160700.41, -110942.81, -94976.85, 187500.00, 0.000, 0.000, 0.000, 13:44:14.482
123, -1090.32, 28002.44, -168762.38, -167404.08, -134534.56, -85360.88, -68776.49, 187500.00, 0.000, 0.000, 0.000, 13:44:14.482
124, 4523.68, 33467.69, -174350.55, -173780.98, -149998.50, -100464.13, -84211.70, 187500.00, 0.000, 0.000, 0.000, 13:44:14.482
125, 8125.40, 37101.86, -178758.94, -178771.53, -173073.75, -123012.42, -107289.64, 187500.00, 0.000, 0.000, 0.000, 13:44:14.482
126, 7121.13, 36160.61, -179096.25, -179114.27, -177094.31, -126940.94, -111312.11, 187500.00, 0.000, 0.000, 0.000, 13:44:14.483
127, 2669.31, 31798.48, -176745.14, -176506.89, -160899.25, -111228.49, -95235.91, 187500.00, 0.000, 0.000, 0.000, 13:44:14.483
128, -1116.11, 27979.62, -168796.44, -167430.77, -134607.94, -85526.69, -68914.34, 187500.00, 0.000, 0.000, 0.000, 13:44:14.483
129, 4458.48, 33399.41, -174305.41, -173727.30, -149817.19, -100381.81, -84097.23, 187500.00, 0.000, -0.096, 1.018, 13:44:14.483
130, 8106.11, 37077.32, -178755.97, -178768.38, -172996.34, -123032.22, -107280.66, 187500.00, 0.000, 0.000, 0.000, 13:44:14.483
131, 7111.05, 36152.45, -179102.05, -179120.08, -177120.05, -127061.02, -111408.22, 187500.00, 0.000, 0.000, 0.000, 13:44:14.483
132, 2686.21, 31812.16, -176792.44, -176560.09, -161121.58, -111542.13, -95531.51, 187500.00, 0.000, 0.000, 0.000, 13:44:14.483
133, -1141.48, 27953.92, -168823.33, -167455.64, -134687.36, -85700.81, -69067.67, 187500.00, 0.000, 0.000, 0.000, 13:44:14.483
134, 4413.08, 33358.93, -174253.23, -173652.84, -149632.09, -100296.01, -83986.27, 187500.00, 0.000, 0.000, 0.000, 13:44:14.484
135, 8100.45, 37070.93, -178749.05, -178760.84, -172928.05, -123062.17, -107289.64, 187500.00, 0.000, 0.000, 0.000, 13:44:14.484
136, 7135.68, 36170.84, -179104.52, -179122.53, -177144.81, -127181.87, -111509.30, 187500.00, 0.000, 0.000, 0.000, 13:44:14.484
137, 2744.12, 31869.96, -176826.91, -176599.06, -161296.53, -111805.30, -95780.89, 187500.00, 0.000, 0.000, 0.000, 13:44:14.484
138, -1142.62, 27955.68, -168824.48, -167463.00, -134731.33, -85833.34, -69184.88, 187500.00, 0.000, 0.000, 0.000, 13:44:14.484
139, 4366.46, 33308.28, -174186.80, -173583.39, -149442.63, -100200.32, -83867.20, 187500.00, 0.000, -0.092, 1.024, 13:44:14.484
140, 8097.34, 37066.97, -178746.25, -178757.56, -172854.06, -123076.95, -107284.77, 187500.00, 0.000, 0.000, 0.000, 13:44:14.484
141, 7137.96, 36170.44, -179107.67, -179125.67, -177158.52, -127281.13, -111592.80, 187500.00, 0.000, 0.000, 0.000, 13:44:14.484
142, 2762.61, 31882.77, -176866.98, -176642.59, -161472.38, -112066.48, -96028.73, 187500.00, 0.000, 0.000, 0.000, 13:44:14.485
143, -1165.17, 27931.01, -168835.66, -167478.67, -134776.25, -85973.10, -69307.39, 187500.00, 0.000, 0.000, 0.000, 13:44:14.485
144, 4303.87, 33248.71, -174127.97, -173520.75, -149246.45, -100104.27, -83748.54, 187500.00, 0.000, 0.000, 0.000, 13:44:14.485
145, 8069.29, 37041.46, -178742.45, -178753.42, -172772.39, -123095.08, -107277.53, 187500.00, 0.000, 0.000, 0.000, 13:44:14.485
146, 7128.60, 36156.40, -179112.28, -179130.25, -177174.41, -127395.71, -111681.25, 187500.00, 0.000, 0.000, 0.000, 13:44:14.485
147, 2785.21, 31893.64, -176906.98, -176691.39, -161662.19, -112350.64, -96289.50, 187500.00, 0.000, 0.000, 0.000, 13:44:14.485
148, -1198.19, 27893.30, -168855.89, -167509.27, -134835.17, -86129.72, -69436.72, 187500.00, 0.000, 0.000, 0.000, 13:44:14.485
149, 4238.29, 33176.34, -174066.03, -173451.45, -149051.08, -100012.34, -83624.00, 187500.00, 0.004, -0.100, 1.024, 13:44:14.485
150, 8051.03, 37011.87, -178739.70, -178750.22, -172694.52, -123112.82, -107269.64, 187500.00, 0.000, 0.000, 0.000, 13:44:14.485
151, 7127.70, 36149.43, -179118.22, -179136.28, -177196.11, -127506.82, -111771.44, 187500.00, 0.000, 0.000, 0.000, 13:44:14.486
152, 2815.63, 31923.01, -176946.64, -176734.20, -161861.41, -112632.49, -96556.94, 187500.00, 0.000, 0.000, 0.000, 13:44:14.486
153, -1210.06, 27884.02, -168885.17, -167527.08, -134918.20, -86293.45, -69584.95, 187500.00, 0.000, 0.000, 0.000, 13:44:14.486
154, 4192.40, 33136.17, -174023.45, -173383.80, -148899.88, -99946.02, -83535.95, 187500.00, 0.000, 0.000, 0.000, 13:44:14.486
155, 8044.84, 37008.27, -178735.16, -178745.13, -172640.70, -123144.27, -107279.45, 187500.00, 0.000, 0.000, 0.000, 13:44:14.486
156, 7138.34, 36160.07, -179123.61, -179141.73, -177239.27, -127630.67, -111876.42, 187500.00, 0.000, 0.000, 0.000, 13:44:14.486
157, 2853.09, 31964.42, -176991.20, -176779.11, -162069.66, -112918.80, -96826.91, 187500.00, 0.000, 0.000, 0.000, 13:44:14.486
158, -1205.07, 27890.19, -168930.14, -167562.84, -135002.34, -86462.52, -69732.50, 187500.00, 0.000, 0.000, 0.000, 13:44:14.486
159, 4167.75, 33110.51, -173967.58, -173317.83, -148714.02, -99850.94, -83411.79, 187500.00, 0.004, -0.102, 1.024, 13:44:14.487
160, 8061.09, 37023.45, -178729.58, -178738.94, -172572.81, -123164.59, -107274.71, 187500.00, 0.000, 0.000, 0.000, 13:44:14.487
161, 7184.16, 36204.35, -179126.52, -179144.67, -177266.06, -127744.57, -111967.33, 187500.00, 0.000, 0.000, 0.000, 13:44:14.487
162, 2929.71, 32039.59, -177025.83, -176818.94, -162266.06, -113198.44, -97089.56, 187500.00, 0.000, 0.000, 0.000, 13:44:14.487
163, -1183.26, 27913.37, -168947.98, -167588.03, -135079.33, -86625.05, -69878.23, 187500.00, 0.000, 0.000, 0.000, 13:44:14.487
164, 4149.91, 33091.91, -173909.63, -173254.72, -148535.09, -99762.36, -83302.18, 187500.00, 0.000, 0.000, 0.000, 13:44:14.487
165, 8080.56, 37048.04, -178723.58, -178732.45, -172509.14, -123189.31, -107281.59, 187500.00, 0.000, 0.000, 0.000, 13:44:14.487
166, 7208.30, 36237.27, -179131.95, -179150.03, -177308.05, -127869.34, -112076.60, 187500.00, 0.000, 0.000, 0.000, 13:44:14.487
167, 2983.42, 32099.00, -177071.45, -176867.63, -162493.06, -113507.54, -97384.22, 187500.00, 0.000, 0.000, 0.000, 13:44:14.487
168, -1177.18, 27922.38, -168986.67, -167631.08, -135173.75, -86809.45, -70045.58, 187500.00, 0.000, 0.000, 0.000, 13:44:14.488
169, 4107.96, 33054.90, -173859.39, -173201.58, -148369.11, -99691.30, -83209.04, 187500.00, 0.004, -0.102, 1.032, 13:44:14.488
170, 8081.32, 37044.95, -178721.41, -178729.84, -172448.67, -123221.01, -107294.31, 187500.00, 0.000, 0.000, 0.000, 13:44:14.488
171, 7227.03, 36253.61, -179136.53, -179154.59, -177343.56, -127994.31, -112185.99, 187500.00, 0.000, 0.000, 0.000, 13:44:14.488
172, 3023.27, 32138.30, -177112.52, -176917.77, -162690.98, -113789.28, -97655.86, 187500.00, 0.000, 0.000, 0.000, 13:44:14.488
173, -1187.17, 27913.95, -169045.03, -167702.67, -135284.05, -87006.98, -70230.84, 187500.00, 0.000, 0.000, 0.000, 13:44:14.488
174, 4054.92, 33003.78, -173813.81, -173149.53, -148218.84, -99635.22, -83135.95, 187500.00, 0.000, 0.000, 0.000, 13:44:14.488
175, 8068.64, 37033.06, -178718.58, -178726.44, -172400.94, -123268.44, -107325.95, 187500.00, 0.000, 0.000, 0.000, 13:44:14.488
176, 7228.62, 36254.66, -179142.98, -179160.89, -177397.45, -128140.52, -112315.57, 187500.00, 0.000, 0.000, 0.000, 13:44:14.489
177, 3051.46, 32162.59, -177159.50, -176966.78, -162921.44, -114106.12, -97961.86, 187500.00, 0.000, 0.000, 0.000, 13:44:14.489
178, -1199.53, 27897.68, -169108.98, -167765.77, -135407.17, -87217.20, -70431.80, 187500.00, 0.000, 0.000, 0.000, 13:44:14.489
179, 4016.92, 32959.61, -173774.72, -173106.05, -148082.30, -99591.68, -83076.42, 187500.00, 0.006, -0.102, 1.028, 13:44:14.489
180, 8072.78, 37037.42, -178716.83, -178724.45, -172360.42, -123317.90, -107363.00, 187500.00, 0.000, 0.000, 0.000, 13:44:14.489
181, 7253.95, 36279.09, -179152.53, -179170.66, -177450.53, -128279.27, -112445.59, 187500.00, 0.000, 0.000, 0.000, 13:44:14.489
182, 3116.26, 32226.48, -177202.33, -177016.25, -163137.69, -114405.41, -98255.27, 187500.00, 0.000, 0.000, 0.000, 13:44:14.489
183, -1169.78, 27929.76, -169154.44, -167815.22, -135518.64, -87417.91, -70622.21, 187500.00, 0.000, 0.000, 0.000, 13:44:14.489
184, 4001.10, 32942.49, -173727.97, -173036.52, -147907.48, -99511.08, -82978.08, 187500.00, 0.000, 0.000, 0.000, 13:44:14.489
185, 8099.62, 37063.91, -178712.58, -178719.27, -172300.06, -123345.04, -107373.53, 187500.00, 0.000, 0.000, 0.000, 13:44:14.490
186, 7293.98, 36321.14, -179155.44, -179173.55, -177496.81, -128403.99, -112558.33, 187500.00, 0.000, 0.000, 0.000, 13:44:14.490
187, 3182.87, 32294.51, -177241.38, -177058.28, -163346.08, -114690.51, -98535.59, 187500.00, 0.000, 0.000, 0.000, 13:44:14.490
188, -1149.04, 27950.47, -169189.09, -167853.38, -135609.17, -87593.27, -70790.95, 187500.00, 0.000, 0.000, 0.000, 13:44:14.490
189, 3976.24, 32923.20, -173676.25, -172980.69, -147751.91, -99445.19, -82900.34, 187500.00, 0.000, -0.100, 1.030, 13:44:14.490
190, 8102.60, 37065.98, -178710.28, -178716.47, -172244.08, -123377.84, -107397.05, 187500.00, 0.000, 0.000, 0.000, 13:44:14.490
191, 7311.01, 36334.84, -179161.30, -179179.33, -177531.11, -128524.29, -112670.54, 187500.00, 0.000, 0.000, 0.000, 13:44:14.490
192, 3216.53, 32325.85, -177277.47, -177102.09, -163532.86, -114958.86, -98796.59, 187500.00, 0.000, 0.000, 0.000, 13:44:14.490
193, -1160.17, 27940.37, -169226.86, -167904.52, -135704.23, -87770.73, -70960.41, 187500.00, 0.000, 0.000, 0.000, 13:44:14.491
194, 3924.72, 32874.09, -173624.67, -172923.30, -147594.44, -99373.95, -82818.46, 187500.00, 0.000, 0.000, 0.000, 13:44:14.491
195, 8089.97, 37054.70, -178704.25, -178709.77, -172180.05, -123398.55, -107411.15, 187500.00, 0.000, 0.000, 0.000, 13:44:14.491
196, 7317.94, 36340.38, -179164.14, -179182.13, -177565.06, -128638.04, -112779.10, 187500.00, 0.000, 0.000, 0.000, 13:44:14.491
197, 3253.99, 32357.88, -177316.98, -177143.27, -163731.53, -115232.65, -99069.95, 187500.00, 0.000, 0.000, 0.000, 13:44:14.491
198, -1166.27, 27929.80, -169284.97, -167956.83, -135817.23, -87964.08, -71149.63, 187500.00, 0.000, 0.000, 0.000, 13:44:14.491
199, 3873.18, 32814.30, -173579.95, -172868.98, -147438.34, -99307.05, -82737.08, 187500.00, 0.000, -0.096, 1.022, 13:44:14.491
200, 8077.85, 37036.68, -178701.16, -178706.06, -172120.63, -123428.48, -107427.30, 187500.00, 0.000, 0.000, 0.000, 13:44:14.492
201, 7321.16, 36341.39, -179172.14, -179190.11, -177605.97, -128765.83, -112897.07, 187500.00, 0.000, 0.000, 0.000, 13:44:14.492
202, 3284.88, 32391.32, -177359.36, -177188.38, -163953.86, -115535.00, -99366.95, 187500.00, 0.000, 0.000, 0.000, 13:44:14.492
203, -1180.66, 27922.09, -169332.42, -168004.67, -135930.97, -88160.69, -71340.28, 187500.00, 0.000, 0.000, 0.000, 13:44:14.492
204, 3814.37, 32757.58, -173532.19, -172815.13, -147282.70, -99239.20, -82658.80, 187500.00, 0.000, 0.000, 0.000, 13:44:14.492
205, 8069.43, 37023.50, -178697.98, -178702.17, -172067.02, -123460.13, -107451.41, 187500.00, 0.000, 0.000, 0.000, 13:44:14.492
206, 7330.52, 36348.54, -179178.78, -179196.77, -177657.98, -128900.36, -113024.25, 187500.00, 0.000, 0.000, 0.000, 13:44:14.492
207, 3328.58, 32433.36, -177399.69, -177233.56, -164185.05, -115843.95, -99672.44, 187500.00, 0.000, 0.000, 0.000, 13:44:14.492
208, -1179.23, 27927.12, -169382.88, -168058.98, -136057.02, -88367.71, -71544.06, 187500.00, 0.000, 0.000, 0.000, 13:44:14.493
209, 3777.78, 32728.61, -173490.88, -172751.91, -147119.83, -99163.13, -82573.58, 187500.00, 0.004, -0.096, 1.020, 13:44:14.958
210, 8077.96, 37039.54, -178697.09, -178700.16, -172001.41, -123479.05, -107464.95, 187500.00, 0.000, 0.000, 0.000, 13:44:14.958
211, 7367.43, 36390.56, -179186.42, -179204.34, -177696.39, -129018.69, -113140.59, 187500.00, 0.000, 0.000, 0.000, 13:44:14.958
212, 3391.88, 32499.12, -177441.58, -177278.55, -164393.14, -116128.55, -99957.16, 187500.00, 0.000, 0.000, 0.000, 13:44:14.958
213, -1152.61, 27953.40, -169441.22, -168121.05, -136173.13, -88569.23, -71740.13, 187500.00, 0.000, 0.000, 0.000, 13:44:14.958
214, 3758.87, 32709.14, -173446.22, -172702.52, -146964.13, -99099.18, -82497.09, 187500.00, 0.000, 0.000, 0.000, 13:44:14.958
215, 8087.75, 37050.77, -178693.05, -178695.73, -171941.86, -123511.71, -107484.75, 187500.00, 0.000, 0.000, 0.000, 13:44:14.958
216, 7387.70, 36414.34, -179193.45, -179211.44, -177736.89, -129147.39, -113259.84, 187500.00, 0.000, 0.000, 0.000, 13:44:14.958
217, 3432.65, 32543.33, -177485.19, -177329.56, -164594.98, -116414.07, -100237.96, 187500.00, 0.000, 0.000, 0.000, 13:44:14.958
218, -1146.47, 27960.96, -169520.94, -168213.77, -136317.00, -88799.48, -71964.77, 187500.00, 0.000, 0.000, 0.000, 13:44:14.958
219, 3714.79, 32659.79, -173412.73, -172663.16, -146835.69, -99061.45, -82447.34, 187500.00, 0.004, -0.094, 1.018, 13:44:14.958
220, 8093.21, 37050.07, -178689.72, -178691.58, -171913.86, -123571.95, -107536.05, 187500.00, 0.000, 0.000, 0.000, 13:44:14.958
221, 7402.29, 36422.30, -179200.72, -179218.67, -177813.23, -129308.03, -113411.72, 187500.00, 0.000, 0.000, 0.000, 13:44:14.959
222, 3471.34, 32573.71, -177526.58, -177375.50, -164832.78, -116729.95, -100547.44, 187500.00, 0.000, 0.000, 0.000, 13:44:14.959
223, -1153.95, 27947.64, -169580.58, -168285.94, -136462.27, -89027.87, -72186.92, 187500.00, 0.000, 0.000, 0.000, 13:44:14.959
224, 3659.56, 32604.98, -173370.73, -172619.55, -146704.86, -99018.13, -82393.16, 187500.00, 0.000, 0.000, 0.000, 13:44:14.959
225, 8069.23, 37022.45, -178690.75, -178692.27, -171875.44, -123619.88, -107577.09, 187500.00, 0.000, 0.000, 0.000, 13:44:14.959
226, 7399.23, 36417.88, -179208.91, -179226.81, -177871.17, -129446.93, -113548.42, 187500.00, 0.000, 0.000, 0.000, 13:44:14.959
227, 3500.35, 32604.55, -177565.02, -177417.59, -165054.75, -117024.72, -100846.40, 187500.00, 0.000, 0.000, 0.000, 13:44:14.959
228, -1155.74, 27945.80, -169641.17, -168354.16, -136604.41, -89246.04, -72408.72, 187500.00, 0.000, 0.000, 0.000, 13:44:14.959
229, 3615.22, 32556.07, -173329.97, -172577.09, -146571.09, -98968.18, -82337.48, 187500.00, 0.000, -0.096, 1.024, 13:44:14.960
230, 8064.71, 37017.28, -178687.17, -178688.25, -171829.39, -123657.73, -107607.30, 187500.00, 0.000, 0.000, 0.000, 13:44:14.960
231, 7414.27, 36430.95, -179214.73, -179232.69, -177924.50, -129579.79, -113675.70, 187500.00, 0.000, 0.000, 0.000, 13:44:14.960
232, 3552.23, 32651.81, -177605.38, -177460.63, -165271.08, -117314.55, -101133.68, 187500.00, 0.000, 0.000, 0.000, 13:44:14.960
233, -1143.27, 27964.29, -169711.73, -168430.05, -136743.88, -89467.81, -72626.96, 187500.00, 0.000, 0.000, 0.000, 13:44:14.960
234, 3584.01, 32528.94, -173291.86, -172536.17, -146418.27, -98901.66, -82264.20, 187500.00, 0.000, 0.000, 0.000, 13:44:14.960
235, 8071.91, 37027.43, -178684.11, -178684.58, -171763.53, -123675.95, -107623.78, 187500.00, 0.000, 0.000, 0.000, 13:44:14.961
236, 7439.08, 36459.92, -179222.47, -179240.39, -177964.56, -129702.23, -113799.23, 187500.00, 0.000, 0.000, 0.000, 13:44:14.961
237, 3602.16, 32701.70, -177643.75, -177506.27, -165478.86, -117598.67, -101422.65, 187500.00, 0.000, 0.000, 0.000, 13:44:14.961
238, -1132.92, 27974.01, -169768.28, -168493.55, -136873.20, -89679.24, -72839.62, 187500.00, 0.000, 0.000, 0.000, 13:44:14.961
239, 3540.87, 32489.29, -173251.58, -172468.88, -146265.30, -98838.07, -82191.72, 187500.00, 0.000, -0.096, 1.026, 13:44:14.961
240, 8065.27, 37020.93, -178680.22, -178678.91, -171688.97, -123687.20, -107626.59, 187500.00, 0.000, 0.000, 0.000, 13:44:14.961
241, 7446.10, 36463.50, -179226.16, -179244.06, -177985.75, -129803.84, -113894.45, 187500.00, 0.000, 0.000, 0.000, 13:44:14.961
242, 3627.15, 32725.32, -177682.14, -177546.52, -165656.86, -117850.48, -101675.13, 187500.00, 0.000, 0.000, 0.000, 13:44:14.961
243, -1136.63, 27963.04, -169840.22, -168564.80, -137003.09, -89885.50, -73049.77, 187500.00, 0.000, 0.000, 0.000, 13:44:14.961
244, 3492.68, 32437.05, -173208.13, -172419.61, -146117.84, -98773.61, -82128.94, 187500.00, 0.000, 0.000, 0.000, 13:44:14.962
245, 8051.61, 37004.34, -178671.13, -178669.25, -171612.98, -123693.21, -107639.56, 187500.00, 0.000, 0.000, 0.000, 13:44:14.962
246, 7450.69, 36462.51, -179230.27, -179248.17, -178009.38, -129907.80, -114007.66, 187500.00, 0.000, 0.000, 0.000, 13:44:14.962
247, 3666.31, 32760.26, -177712.61, -177581.61, -165866.02, -118133.01, -101967.02, 187500.00, 0.000, 0.000, 0.000, 13:44:14.962
248, -1143.87, 27962.54, -169873.09, -168611.83, -137128.63, -90085.88, -73255.27, 187500.00, 0.000, 0.000, 0.000, 13:44:14.962
249, 3432.40, 32380.37, -173152.41, -172362.16, -145946.20, -98682.63, -82035.55, 187500.00, 0.004, -0.096, 1.022, 13:44:14.962
250, 8038.18, 36988.52, -178666.70, -178664.13, -171535.22, -123696.18, -107641.37, 187500.00, 0.000, 0.000, 0.000, 13:44:14.962
251, 7454.11, 36469.39, -179237.56, -179255.44, -178042.28, -130019.34, -114123.11, 187500.00, 0.000, 0.000, 0.000, 13:44:14.962
252, 3691.01, 32791.15, -177753.06, -177625.06, -166066.84, -118405.08, -102249.03, 187500.00, 0.000, 0.000, 0.000, 13:44:14.963
253, -1145.42, 27962.01, -169941.30, -168687.77, -137277.88, -90308.13, -73487.77, 187500.00, 0.000, 0.000, 0.000, 13:44:14.963
254, 3380.21, 32327.75, -173103.03, -172310.63, -145807.59, -98623.34, -81978.41, 187500.00, 0.000, 0.000, 0.000, 13:44:14.963
255, 8016.34, 36972.02, -178662.72, -178659.47, -171475.83, -123714.55, -107662.98, 187500.00, 0.000, 0.000, 0.000, 13:44:14.963
0, 7452.88, 36471.88, -179242.50, -179260.33, -178073.33, -130126.87, -114233.80, 187500.00, 0.000, 0.000, 0.000, 13:44:14.963
1, 3733.75, 32826.93, -177785.70, -177664.64, -166253.59, -118662.66, -102513.84, 187500.00, 0.000, 0.000, 0.000, 13:44:14.963
2, -1137.50, 27971.15, -169991.66, -168755.36, -137404.81, -90514.91, -73702.21, 187500.00, 0.002, -0.100, 1.028, 13:44:14.963
3, 3339.10, 32288.41, -173052.39, -172255.77, -145647.50, -98549.13, -81906.65, 187500.00, 0.000, 0.000, 0.000, 13:44:14.964
4, 8021.93, 36971.64, -178657.84, -178654.09, -171395.67, -123718.17, -107670.05, 187500.00, 0.000, 0.000, 0.000, 13:44:14.964
5, 7475.83, 36490.88, -179247.58, -179265.41, -178097.39, -130231.56, -114345.22, 187500.00, 0.000, 0.000, 0.000, 13:44:14.964
6, 3773.73, 32872.57, -177820.14, -177700.30, -166440.38, -118920.71, -102782.98, 187500.00, 0.000, 0.000, 0.000, 13:44:14.964
7, -1130.37, 27981.05, -170041.92, -168794.92, -137524.38, -90706.98, -73902.40, 187500.00, 0.000, 0.000, 0.000, 13:44:14.964
8, 3299.65, 32245.74, -173007.95, -172181.22, -145481.11, -98460.37, -81818.80, 187500.00, 0.000, 0.000, 0.000, 13:44:14.964
9, 8018.69, 36964.98, -178655.63, -178649.58, -171315.63, -123716.16, -107671.73, 187500.00, 0.000, 0.000, 0.000, 13:44:14.964
10, 7495.97, 36507.77, -179254.28, -179272.05, -178121.58, -130334.67, -114453.47, 187500.00, 0.000, 0.000, 0.000, 13:44:14.964
11, 3818.73, 32910.62, -177850.83, -177735.23, -166626.42, -119179.41, -103050.70, 187500.00, 0.000, 0.000, 0.000, 13:44:14.965
12, -1129.52, 27977.59, -170087.47, -168852.84, -137655.58, -90916.34, -74120.44, 187500.00, 0.002, -0.100, 1.030, 13:44:14.965
13, 3250.99, 32196.55, -172959.38, -172130.70, -145342.69, -98408.45, -81767.66, 187500.00, 0.000, 0.000, 0.000, 13:44:14.965
14, 8003.47, 36946.89, -178651.36, -178644.66, -171244.36, -123730.13, -107687.15, 187500.00, 0.000, 0.000, 0.000, 13:44:14.965
15, 7489.71, 36500.78, -179260.63, -179278.44, -178138.22, -130434.12, -114556.53, 187500.00, 0.000, 0.000, 0.000, 13:44:14.965
16, 3837.75, 32928.34, -177886.03, -177772.89, -166815.72, -119444.25, -103321.54, 187500.00, 0.000, 0.000, 0.000, 13:44:14.965
17, -1136.25, 27966.01, -170144.31, -168915.55, -137793.94, -91129.91, -74338.01, 187500.00, 0.000, 0.000, 0.000, 13:44:14.965
18, 3189.24, 32134.90, -172907.81, -172075.45, -145167.17, -98311.15, -81671.04, 187500.00, 0.000, 0.000, 0.000, 13:44:14.965
19, 7981.99, 36927.29, -178645.31, -178637.75, -171157.09, -123716.05, -107678.88, 187500.00, 0.000, 0.000, 0.000, 13:44:14.965
20, 7497.62, 36503.82, -179269.50, -179287.27, -178181.80, -130549.96, -114684.47, 187500.00, 0.000, 0.000, 0.000, 13:44:14.966
21, 3874.29, 32967.04, -177921.69, -177811.09, -167027.03, -119716.37, -103611.42, 187500.00, 0.000, 0.000, 0.000, 13:44:14.966
22, -1136.27, 27975.40, -170190.89, -168968.44, -137922.50, -91331.21, -74554.84, 187500.00, -0.002, -0.096, 1.028, 13:44:14.966
23, 3148.62, 32095.83, -172845.00, -172010.28, -144995.06, -98220.27, -81586.34, 187500.00, 0.000, 0.000, 0.000, 13:44:14.966
24, 7988.04, 36934.27, -178637.92, -178629.77, -171081.08, -123721.17, -107689.78, 187500.00, 0.000, 0.000, 0.000, 13:44:14.966
25, 7524.07, 36533.55, -179273.92, -179291.81, -178215.02, -130668.41, -114808.03, 187500.00, 0.000, 0.000, 0.000, 13:44:14.966
26, 3928.23, 33016.79, -177951.59, -177847.33, -167225.55, -119986.28, -103888.47, 187500.00, 0.000, 0.000, 0.000, 13:44:14.966
27, -1128.03, 27981.61, -170215.50, -169011.41, -138029.13, -91509.65, -74741.19, 187500.00, 0.000, 0.000, 0.000, 13:44:14.966
28, 3102.53, 32056.60, -172776.31, -171936.56, -144804.47, -98108.77, -81475.93, 187500.00, 0.000, 0.000, 0.000, 13:44:14.967
29, 7986.46, 36941.60, -178631.41, -178622.23, -170993.45, -123713.59, -107685.45, 187500.00, 0.000, 0.000, 0.000, 13:44:14.967
30, 7550.55, 36569.51, -179281.19, -179298.95, -178238.73, -130774.13, -114921.04, 187500.00, 0.000, 0.000, 0.000, 13:44:14.967
31, 3982.28, 33077.86, -177985.06, -177882.42, -167416.23, -120250.57, -104163.57, 187500.00, 0.000, 0.000, 0.000, 13:44:14.967
32, -1111.80, 28002.29, -170266.20, -169054.58, -138156.50, -91718.21, -74957.78, 187500.00, 0.004, -0.098, 1.030, 13:44:14.967
33, 3063.73, 32022.36, -172714.84, -171845.53, -144620.16, -98012.58, -81382.52, 187500.00, 0.000, 0.000, 0.000, 13:44:14.967
34, 7989.27, 36940.05, -178622.53, -178610.80, -170900.20, -123706.46, -107683.68, 187500.00, 0.000, 0.000, 0.000, 13:44:14.967
35, 7564.21, 36579.72, -179285.42, -179303.16, -178251.20, -130875.16, -115029.54, 187500.00, 0.000, 0.000, 0.000, 13:44:14.967
36, 4016.30, 33107.61, -178013.17, -177913.91, -167590.63, -120501.83, -104426.61, 187500.00, 0.000, 0.000, 0.000, 13:44:14.967
37, -1109.90, 28000.61, -170309.41, -169109.19, -138292.36, -91926.48, -75177.79, 187500.00, 0.000, 0.000, 0.000, 13:44:14.968
38, 3011.25, 31963.96, -172667.44, -171794.16, -144470.47, -97938.91, -81313.32, 187500.00, 0.000, 0.000, 0.000, 13:44:14.968
39, 7971.88, 36914.66, -178616.16, -178603.50, -170816.25, -123696.00, -107679.15, 187500.00, 0.000, 0.000, 0.000, 13:44:14.968
40, 7568.99, 36576.39, -179288.91, -179306.69, -178265.95, -130961.68, -115126.10, 187500.00, 0.000, 0.000, 0.000, 13:44:14.968
41, 4047.79, 33136.97, -178045.52, -177948.80, -167771.42, -120740.88, -104682.29, 187500.00, 0.000, 0.000, 0.000, 13:44:14.968
42, -1103.30, 28008.84, -170377.28, -169184.08, -138445.94, -92138.98, -75409.33, 187500.00, 0.002, -0.100, 1.030, 13:44:14.968
43, 2961.07, 31914.29, -172617.84, -171744.11, -144312.33, -97846.93, -81232.18, 187500.00, 0.000, 0.000, 0.000, 13:44:14.968
44, 7951.77, 36897.05, -178610.34, -178597.11, -170722.78, -123670.34, -107663.97, 187500.00, 0.000, 0.000, 0.000, 13:44:14.968
45, 7571.38, 36581.20, -179295.23, -179313.11, -178281.89, -131051.72, -115224.78, 187500.00, 0.000, 0.000, 0.000, 13:44:14.968
46, 4089.25, 33174.79, -178080.13, -177985.81, -167956.50, -120994.95, -104944.99, 187500.00, 0.000, 0.000, 0.000, 13:44:14.970
47, -1089.58, 28019.45, -170448.41, -169261.08, -138602.58, -92370.39, -75647.64, 187500.00, 0.000, 0.000, 0.000, 13:44:14.970
48, 2917.95, 31867.24, -172573.55, -171696.58, -144159.34, -97778.35, -81162.91, 187500.00, 0.000, 0.000, 0.000, 13:44:14.970
49, 7955.75, 36896.92, -178602.03, -178587.97, -170631.52, -123663.93, -107659.48, 187500.00, 0.000, 0.000, 0.000, 13:44:14.970
50, 7592.84, 36601.27, -179299.66, -179317.59, -178296.02, -131151.61, -115332.85, 187500.00, 0.000, 0.000, 0.000, 13:44:14.970
51, 4131.76, 33217.04, -178110.47, -178021.77, -168135.06, -121247.13, -105209.45, 187500.00, 0.000, 0.000, 0.000, 13:44:14.970
52, -1074.29, 28038.38, -170519.34, -169349.23, -138758.78, -92603.66, -75889.18, 187500.00, 0.002, -0.102, 1.024, 13:44:14.970
53, 2884.07, 31838.18, -172533.05, -171651.16, -144029.20, -97730.32, -81115.98, 187500.00, 0.000, 0.000, 0.000, 13:44:14.970
54, 7948.19, 36889.12, -178598.45, -178583.45, -170563.20, -123676.67, -107675.97, 187500.00, 0.000, 0.000, 0.000, 13:44:14.970
55, 7606.81, 36613.25, -179307.88, -179325.67, -178324.02, -131266.58, -115454.67, 187500.00, 0.000, 0.000, 0.000, 13:44:14.970
56, 4172.04, 33256.24, -178141.05, -178055.47, -168335.47, -121518.77, -105493.34, 187500.00, 0.000, 0.000, 0.000, 13:44:14.970
57, -1062.74, 28042.30, -170572.13, -169409.77, -138917.73, -92833.52, -76133.30, 187500.00, 0.000, 0.000, 0.000, 13:44:14.970
58, 2840.64, 31784.09, -172494.31, -171591.00, -143894.33, -97670.50, -81065.05, 187500.00, 0.000, 0.000, 0.000, 13:44:14.970
59, 7937.64, 36874.77, -178591.38, -178573.75, -170490.55, -123674.30, -107684.22, 187500.00, 0.000, 0.000, 0.000, 13:44:14.970
60, 7617.68, 36616.25, -179313.38, -179331.08, -178348.39, -131367.05, -115566.70, 187500.00, 0.000, 0.000, 0.000, 13:44:14.970
61, 4211.09, 33285.75, -178172.00, -178088.88, -168525.53, -121772.50, -105760.23, 187500.00, 0.000, 0.000, 0.000, 13:44:14.970
62, -1059.00, 28046.19, -170647.53, -169491.08, -139090.39, -93070.29, -76384.60, 187500.00, 0.004, -0.098, 1.028, 13:44:14.972
63, 2781.65, 31729.42, -172459.44, -171551.94, -143750.64, -97599.42, -81003.32, 187500.00, 0.000, 0.000, 0.000, 13:44:14.972
64, 7925.15, 36860.21, -178585.27, -178566.69, -170393.52, -123651.09, -107673.05, 187500.00, 0.000, 0.000, 0.000, 13:44:14.972
65, 7623.42, 36624.67, -179318.73, -179336.52, -178356.28, -131450.98, -115666.88, 187500.00, 0.000, 0.000, 0.000, 13:44:14.972
66, 4243.59, 33319.43, -178205.83, -178124.73, -168696.41, -122010.66, -106019.73, 187500.00, 0.000, 0.000, 0.000, 13:44:14.972
67, -1041.86, 28060.80, -170721.48, -169569.92, -139247.73, -93297.59, -76632.41, 187500.00, 0.000, 0.000, 0.000, 13:44:14.972
68, 2739.16, 31683.44, -172408.81, -171498.47, -143592.00, -97518.73, -80932.89, 187500.00, 0.000, 0.000, 0.000, 13:44:14.972
69, 7910.73, 36839.77, -178574.98, -178555.58, -170289.08, -123625.02, -107655.85, 187500.00, 0.000, 0.000, 0.000, 13:44:14.972
70, 7628.61, 36625.21, -179324.23, -179342.03, -178356.67, -131530.00, -115755.34, 187500.00, 0.000, 0.000, 0.000, 13:44:14.973
71, 4275.84, 33349.16, -178233.23, -178157.08, -168840.58, -122230.09, -106249.98, 187500.00, 0.000, 0.000, 0.000, 13:44:14.973
72, -1031.60, 28070.84, -170781.81, -169648.77, -139390.53, -93515.38, -76861.03, 187500.00, 0.000, -0.098, 1.024, 13:44:14.973
73, 2689.90, 31635.36, -172365.09, -171451.44, -143437.05, -97443.79, -80863.34, 187500.00, 0.000, 0.000, 0.000, 13:44:15.438
74, 7892.40, 36819.78, -178566.94, -178546.48, -170182.48, -123596.52, -107633.01, 187500.00, 0.000, 0.000, 0.000, 13:44:15.438
75, 7638.13, 36633.50, -179327.75, -179345.47, -178358.69, -131610.33, -115844.30, 187500.00, 0.000, 0.000, 0.000, 13:44:15.438
76, 4319.27, 33389.28, -178260.20, -178186.95, -169005.00, -122463.44, -106498.70, 187500.00, 0.000, 0.000, 0.000, 13:44:15.438
77, -1025.59, 28079.04, -170829.69, -169710.78, -139538.06, -93733.04, -77094.38, 187500.00, 0.000, 0.000, 0.000, 13:44:15.438
78, 2644.97, 31594.50, -172310.06, -171397.39, -143280.59, -97364.62, -80793.82, 187500.00, 0.000, 0.000, 0.000, 13:44:15.439
79, 7887.48, 36816.74, -178557.95, -178536.94, -170072.36, -123562.70, -107611.27, 187500.00, 0.000, 0.000, 0.000, 13:44:15.439
80, 7644.77, 36639.36, -179331.48, -179349.34, -178355.92, -131682.38, -115930.00, 187500.00, 0.000, 0.000, 0.000, 13:44:15.439
81, 4341.56, 33414.11, -178285.53, -178215.19, -169153.53, -122683.94, -106734.70, 187500.00, 0.000, 0.000, 0.000, 13:44:15.439
82, -1016.02, 28090.31, -170889.81, -169780.69, -139693.97, -93961.50, -77339.31, 187500.00, 0.000, -0.094, 1.026, 13:44:15.439
83, 2590.21, 31542.18, -172264.06, -171349.34, -143136.95, -97299.69, -80738.32, 187500.00, 0.000, 0.000, 0.000, 13:44:15.439
84, 7863.43, 36792.69, -178549.22, -178527.09, -169967.53, -123535.74, -107594.52, 187500.00, 0.000, 0.000, 0.000, 13:44:15.439
85, 7641.52, 36638.11, -179335.48, -179353.28, -178356.39, -131759.50, -116020.32, 187500.00, 0.000, 0.000, 0.000, 13:44:15.439
86, 4360.51, 33433.27, -178310.75, -178242.17, -169308.22, -122909.20, -106975.96, 187500.00, 0.000, 0.000, 0.000, 13:44:15.440
87, -1028.20, 28078.55, -170930.64, -169823.55, -139824.13, -94163.25, -77556.33, 187500.00, 0.000, 0.000, 0.000, 13:44:15.440
88, 2512.87, 31464.73, -172200.38, -171262.64, -142956.80, -97199.10, -80645.23, 187500.00, 0.000, 0.000, 0.000, 13:44:15.440
89, 7818.73, 36750.04, -178539.14, -178513.86, -169851.53, -123493.48, -107562.88, 187500.00, 0.000, 0.000, 0.000, 13:44:15.440
90, 7621.59, 36619.87, -179339.53, -179357.30, -178346.48, -131814.09, -116090.46, 187500.00, 0.000, 0.000, 0.000, 13:44:15.440
91, 4370.66, 33444.87, -178339.78, -178273.02, -169453.27, -123120.40, -107208.66, 187500.00, 0.000, 0.000, 0.000, 13:44:15.440
92, -1032.00, 28075.67, -170991.42, -169891.05, -139973.56, -94383.57, -77797.10, 187500.00, -0.004, -0.092, 1.028, 13:44:15.440
93, 2467.23, 31415.85, -172147.36, -171207.67, -142801.95, -97119.80, -80577.41, 187500.00, 0.000, 0.000, 0.000, 13:44:15.440
94, 7807.62, 36728.72, -178531.47, -178505.31, -169742.31, -123459.43, -107538.17, 187500.00, 0.000, 0.000, 0.000, 13:44:15.440
95, 7626.71, 36615.13, -179346.22, -179363.94, -178349.91, -131894.56, -116181.97, 187500.00, 0.000, 0.000, 0.000, 13:44:15.441
96, 4405.44, 33477.23, -178365.55, -178303.39, -169609.61, -123346.76, -107447.18, 187500.00, 0.000, 0.000, 0.000, 13:44:15.441
97, -1025.95, 28085.21, -171048.70, -169966.92, -140122.70, -94604.42, -78028.40, 187500.00, 0.000, 0.000, 0.000, 13:44:15.441
98, 2413.38, 31369.22, -172102.39, -171159.30, -142659.16, -97052.70, -80517.62, 187500.00, 0.000, 0.000, 0.000, 13:44:15.441
99, 7786.56, 36723.56, -178522.69, -178495.38, -169645.20, -123435.85, -107524.85, 187500.00, 0.000, 0.000, 0.000, 13:44:15.441
100, 7636.70, 36641.86, -179349.81, -179367.61, -178356.63, -131978.34, -116276.92, 187500.00, 0.000, 0.000, 0.000, 13:44:15.441
101, 4449.36, 33522.65, -178391.81, -178332.00, -169775.83, -123579.02, -107693.70, 187500.00, 0.000, 0.000, 0.000, 13:44:15.441
102, -1009.11, 28099.72, -171114.09, -170044.91, -140302.03, -94846.83, -78287.74, 187500.00, -0.002, -0.096, 1.024, 13:44:15.441
103, 2372.30, 31326.28, -172062.31, -171119.72, -142537.16, -97003.05, -80477.16, 187500.00, 0.000, 0.000, 0.000, 13:44:15.442
104, 7781.07, 36710.39, -178513.66, -178485.53, -169560.44, -123424.25, -107521.81, 187500.00, 0.000, 0.000, 0.000, 13:44:15.442
105, 7648.10, 36646.15, -179354.91, -179372.67, -178374.20, -132075.77, -116388.03, 187500.00, 0.000, 0.000, 0.000, 13:44:15.442
106, 4477.37, 33549.74, -178418.41, -178361.17, -169946.09, -123813.77, -107947.99, 187500.00, 0.000, 0.000, 0.000, 13:44:15.442
107, -994.00, 28115.10, -171186.44, -170127.53, -140488.47, -95094.55, -78554.76, 187500.00, 0.000, 0.000, 0.000, 13:44:15.442
108, 2329.14, 31285.36, -172020.73, -171079.27, -142423.52, -96956.23, -80442.02, 187500.00, 0.000, 0.000, 0.000, 13:44:15.442
109, 7771.30, 36701.07, -178503.80, -178475.31, -169479.69, -123412.07, -107524.20, 187500.00, 0.000, 0.000, 0.000, 13:44:15.442
110, 7666.07, 36661.42, -179361.28, -179379.20, -178391.25, -132171.47, -116501.31, 187500.00, 0.000, 0.000, 0.000, 13:44:15.442
111, 4521.18, 33592.43, -178445.80, -178390.58, -170123.39, -124056.11, -108209.95, 187500.00, 0.000, 0.000, 0.000, 13:44:15.442
112, -969.89, 28138.25, -171254.77, -170199.36, -140668.59, -95336.83, -78817.57, 187500.00, 0.002, -0.098, 1.014, 13:44:15.443
113, 2286.54, 31235.78, -171985.69, -171021.44, -142291.17, -96895.91, -80394.39, 187500.00, 0.000, 0.000, 0.000, 13:44:15.443
114, 7756.59, 36680.35, -178495.59, -178463.52, -169383.17, -123390.55, -107513.79, 187500.00, 0.000, 0.000, 0.000, 13:44:15.443
115, 7674.99, 36664.97, -179363.59, -179381.50, -178399.28, -132264.67, -116606.27, 187500.00, 0.000, 0.000, 0.000, 13:44:15.443
116, 4566.19, 33629.09, -178475.44, -178424.50, -170299.59, -124305.36, -108476.01, 187500.00, 0.000, 0.000, 0.000, 13:44:15.443
117, -940.72, 28163.38, -171348.63, -170310.42, -140869.34, -95612.38, -79112.48, 187500.00, 0.000, 0.000, 0.000, 13:44:15.443
118, 2249.93, 31200.24, -171967.39, -170998.19, -142176.84, -96862.09, -80374.23, 187500.00, 0.000, 0.000, 0.000, 13:44:15.443
119, 7743.63, 36670.38, -178492.80, -178459.55, -169299.64, -123382.50, -107520.52, 187500.00, 0.000, 0.000, 0.000, 13:44:15.443
120, 7683.59, 36677.51, -179373.84, -179391.63, -178419.80, -132366.27, -116724.02, 187500.00, 0.000, 0.000, 0.000, 13:44:15.443
121, 4601.69, 33671.18, -178502.56, -178453.53, -170471.73, -124545.55, -108733.37, 187500.00, -0.002, -0.096, 1.018, 13:44:15.444
122, -922.12, 28187.87, -171405.55, -170380.59, -141049.67, -95857.45, -79373.43, 187500.00, 0.000, 0.000, 0.000, 13:44:15.444
123, 2222.17, 31174.27, -171915.52, -170948.53, -142044.48, -96801.34, -80323.16, 187500.00, 0.000, 0.000, 0.000, 13:44:15.444
124, 7756.93, 36681.25, -178484.81, -178450.75, -169201.00, -123354.84, -107504.87, 187500.00, 0.000, 0.000, 0.000, 13:44:15.444
125, 7715.69, 36712.76, -179382.48, -179400.27, -178428.05, -132446.86, -116822.28, 187500.00, 0.000, 0.000, 0.000, 13:44:15.444
126, 4659.51, 33730.05, -178531.89, -178485.05, -170642.84, -124778.19, -108989.16, 187500.00, 0.000, 0.000, 0.000, 13:44:15.444
127, -884.30, 28225.20, -171485.89, -170468.17, -141247.23, -96112.19, -79652.16, 187500.00, 0.000, 0.000, 0.000, 13:44:15.444
128, 2176.41, 31136.22, -171878.36, -170908.98, -141909.36, -96730.84, -80267.68, 187500.00, 0.000, 0.000, 0.000, 13:44:15.445
129, 7737.82, 36666.70, -178468.86, -178433.67, -169086.38, -123305.43, -107470.31, 187500.00, 0.000, 0.000, 0.000, 13:44:15.445
130, 7735.18, 36721.84, -179385.48, -179403.39, -178431.00, -132520.19, -116912.45, 187500.00, 0.000, 0.000, 0.000, 13:44:15.445
131, 4705.06, 33764.03, -178557.22, -178512.20, -170798.81, -124997.90, -109228.75, 187500.00, 0.000, -0.098, 1.020, 13:44:15.445
132, -861.01, 28246.57, -171552.19, -170542.00, -141428.72, -96356.40, -79917.27, 187500.00, 0.000, 0.000, 0.000, 13:44:15.445
133, 2134.28, 31091.79, -171829.19, -170856.70, -141766.53, -96658.80, -80209.79, 187500.00, 0.000, 0.000, 0.000, 13:44:15.445
134, 7724.74, 36651.88, -178458.59, -178422.08, -168969.19, -123259.79, -107438.44, 187500.00, 0.000, 0.000, 0.000, 13:44:15.445
135, 7733.06, 36725.95, -179387.97, -179405.95, -178427.33, -132589.42, -116997.77, 187500.00, 0.000, 0.000, 0.000, 13:44:15.445
136, 4726.90, 33791.72, -178577.53, -178536.03, -170936.34, -125200.72, -109451.57, 187500.00, 0.000, 0.000, 0.000, 13:44:15.446
137, -852.70, 28256.76, -171601.36, -170606.02, -141577.52, -96574.22, -80155.27, 187500.00, 0.000, 0.000, 0.000, 13:44:15.446
138, 2079.49, 31036.02, -171777.42, -170781.72, -141605.20, -96575.72, -80137.41, 187500.00, 0.000, 0.000, 0.000, 13:44:15.446
139, 7706.12, 36631.02, -178446.64, -178406.14, -168842.23, -123211.17, -107401.52, 187500.00, 0.000, 0.000, 0.000, 13:44:15.446
140, 7738.42, 36734.31, -179392.06, -179410.05, -178416.36, -132651.67, -117074.77, 187500.00, 0.000, 0.000, 0.000, 13:44:15.446
141, 4748.90, 33815.48, -178601.94, -178562.36, -171067.14, -125402.76, -109674.06, 187500.00, -0.004, -0.098, 1.020, 13:44:15.446
142, -846.48, 28269.72, -171655.61, -170672.91, -141734.17, -96799.73, -80405.84, 187500.00, 0.000, 0.000, 0.000, 13:44:15.446
143, 2037.09, 30994.74, -171717.69, -170722.27, -141442.27, -96486.60, -80068.66, 187500.00, 0.000, 0.000, 0.000, 13:44:15.446
144, 7698.52, 36618.71, -178432.63, -178390.81, -168703.16, -123143.87, -107354.73, 187500.00, 0.000, 0.000, 0.000, 13:44:15.447
145, 7755.90, 36747.56, -179394.30, -179412.11, -178399.86, -132702.80, -117147.37, 187500.00, 0.000, 0.000, 0.000, 13:44:15.447
146, 4800.31, 33860.41, -178619.31, -178581.33, -171191.63, -125595.16, -109886.60, 187500.00, 0.000, 0.000, 0.000, 13:44:15.447
147, -808.48, 28298.16, -171690.14, -170716.50, -141875.44, -97011.53, -80636.24, 187500.00, 0.000, 0.000, 0.000, 13:44:15.447
148, 2001.13, 30959.49, -171649.44, -170654.17, -141277.59, -96398.98, -79995.26, 187500.00, 0.000, 0.000, 0.000, 13:44:15.447
149, 7700.58, 36617.72, -178420.11, -178377.22, -168576.20, -123087.88, -107316.53, 187500.00, 0.000, 0.000, 0.000, 13:44:15.447
150, 7787.08, 36772.15, -179397.17, -179415.08, -178390.31, -132756.13, -117224.88, 187500.00, 0.000, 0.000, 0.000, 13:44:15.447
151, 4851.20, 33908.91, -178641.64, -178605.27, -171324.81, -125785.87, -110106.41, 187500.00, 0.002, -0.098, 1.018, 13:44:15.447
152, -780.72, 28327.08, -171749.09, -170782.50, -142037.95, -97226.48, -80881.57, 187500.00, 0.000, 0.000, 0.000, 13:44:15.447
153, 1959.85, 30919.23, -171598.45, -170601.34, -141127.28, -96305.20, -79922.93, 187500.00, 0.000, 0.000, 0.000, 13:44:15.448
154, 7676.28, 36596.67, -178402.25, -178358.08, -168442.47, -123010.43, -107259.73, 187500.00, 0.000, 0.000, 0.000, 13:44:15.448
155, 7785.60, 36775.68, -179399.77, -179417.69, -178385.83, -132810.06, -117302.30, 187500.00, 0.000, 0.000, 0.000, 13:44:15.448
156, 4877.04, 33937.19, -178665.25, -178630.42, -171475.47, -125989.42, -110337.46, 187500.00, 0.000, 0.000, 0.000, 13:44:15.448
157, -772.90, 28335.73, -171791.28, -170833.23, -142201.41, -97442.85, -81127.15, 187500.00, 0.000, 0.000, 0.000, 13:44:15.448
158, 1910.76, 30866.30, -171531.58, -170534.38, -140968.56, -96207.58, -79847.05, 187500.00, 0.000, 0.000, 0.000, 13:44:15.448
159, 7654.33, 36568.82, -178391.41, -178345.88, -168318.52, -122948.07, -107218.14, 187500.00, 0.000, 0.000, 0.000, 13:44:15.448
160, 7784.46, 36771.28, -179405.22, -179423.06, -178383.05, -132874.14, -117386.75, 187500.00, 0.000, 0.000, 0.000, 13:44:15.448
161, 4899.12, 33955.72, -178685.45, -178653.84, -171603.92, -126179.03, -110549.69, 187500.00, 0.006, -0.094, 1.024, 13:44:15.449
162, -766.02, 28332.53, -171856.48, -170913.97, -142369.70, -97674.51, -81380.15, 187500.00, 0.000, 0.000, 0.000, 13:44:15.449
163, 1853.81, 30804.79, -171491.42, -170469.44, -140829.53, -96138.67, -79792.33, 187500.00, 0.000, 0.000, 0.000, 13:44:15.449
164, 7624.14, 36534.68, -178375.98, -178325.52, -168195.16, -122892.95, -107179.52, 187500.00, 0.000, 0.000, 0.000, 13:44:15.449
165, 7781.69, 36758.83, -179408.80, -179426.44, -178376.06, -132928.91, -117465.14, 187500.00, 0.000, 0.000, 0.000, 13:44:15.449
166, 4917.81, 33967.36, -178709.20, -178678.23, -171732.52, -126364.48, -110763.22, 187500.00, 0.000, 0.000, 0.000, 13:44:15.449
167, -756.70, 28346.59, -171919.27, -170975.70, -142533.97, -97895.12, -81628.99, 187500.00, 0.000, 0.000, 0.000, 13:44:15.449
168, 1811.18, 30764.87, -171443.64, -170414.05, -140687.16, -96062.14, -79735.51, 187500.00, 0.000, 0.000, 0.000, 13:44:15.449
169, 7614.70, 36523.49, -178363.11, -178311.11, -168055.09, -122819.75, -107125.36, 187500.00, 0.000, 0.000, 0.000, 13:44:15.449
