%OpenBCI Raw EEG Data
%
%Sample Rate = 250.0 Hz
%First Column = SampleIndex
%Last Column = Timestamp 
%Other Columns = EEG data in microvolts followed by Accel Data (in G) interleaved with Aux Data
0, 33354.43, 20422.65, -187500.02, -187500.02, -187500.02, -187500.02, -187500.02, -187500.02, 0.002, -0.026, 1.032, 17:34:23.076
1, 33288.36, 20334.12, -187500.02, -187500.02, -187500.02, -187500.02, -187500.02, -187500.02, 0.000, 0.000, 0.000, 17:34:23.076
2, 33166.57, 20177.99, -187500.02, -187500.02, -187500.02, -187500.02, -187500.02, -187500.02, 0.000, 0.000, 0.000, 17:34:23.077
3, 33224.37, 20258.12, -187500.02, -187500.02, -187500.02, -187500.02, -187500.02, -187500.02, 0.000, 0.000, 0.000, 17:34:23.077
4, 33372.34, 20441.99, -187500.02, -187500.02, -187500.02, -187500.02, -187500.02, -187500.02, 0.000, 0.000, 0.000, 17:34:23.077
5, 33383.85, 20443.22, -187500.02, -187500.02, -187500.02, -187500.02, -187500.02, -187500.02, 0.000, 0.000, 0.000, 17:34:23.077
6, 33309.35, 20349.25, -187500.02, -187500.02, -187500.02, -187500.02, -187500.02, -187500.02, 0.000, 0.000, 0.000, 17:34:23.077
7, 33188.61, 20196.59, -187500.02, -187500.02, -187500.02, -187500.02, -187500.02, -187500.02, -0.004, -0.012, 1.004, 17:34:23.077
8, 33239.68, 20270.71, -187500.02, -187500.02, -187500.02, -187500.02, -187500.02, -187500.02, 0.000, 0.000, 0.000, 17:34:23.078
9, 33373.23, 20440.36, -187500.02, -187500.02, -187500.02, -187500.02, -187500.02, -187500.02, 0.000, 0.000, 0.000, 17:34:23.078
10, 33399.14, 20455.56, -187500.02, -187500.02, -187500.02, -187500.02, -187500.02, -187500.02, 0.000, 0.000, 0.000, 17:34:23.078
11, 33339.39, 20372.50, -187500.02, -187500.02, -187500.02, -187500.02, -187500.02, -187500.02, 0.000, 0.000, 0.000, 17:34:23.078
12, 33220.75, 20212.75, -187500.02, -187500.02, -187500.02, -187500.02, -187500.02, -187500.02, 0.000, 0.000, 0.000, 17:34:23.078
13, 33262.77, 20279.45, -187500.02, -187500.02, -187500.02, -187500.02, -187500.02, -187500.02, 0.000, 0.000, 0.000, 17:34:23.079
14, 33407.12, 20461.61, -187500.02, -187500.02, -187500.02, -187500.02, -187500.02, -187500.02, 0.000, 0.000, 0.000, 17:34:23.079
15, 33425.20, 20471.87, -187500.02, -187500.02, -187500.02, -187500.02, -187500.02, -187500.02, 0.000, 0.000, 0.000, 17:34:23.079
16, 33369.19, 20394.02, -187500.02, -187500.02, -187500.02, -187500.02, -187500.02, -187500.02, -0.004, -0.022, 1.018, 17:34:23.079
17, 33237.67, 20231.90, -187500.02, -187500.02, -187500.02, -187500.02, -187500.02, -187500.02, 0.000, 0.000, 0.000, 17:34:23.079
18, 33281.23, 20296.57, -187500.02, -187500.02, -187500.02, -187500.02, -187500.02, -187500.02, 0.000, 0.000, 0.000, 17:34:23.079
19, 33447.39, 20498.31, -187500.02, -187500.02, -187500.02, -187500.02, -187500.02, -187500.02, 0.000, 0.000, 0.000, 17:34:23.080
20, 33456.76, 20500.10, -187500.02, -187500.02, -187500.02, -187500.02, -187500.02, -187500.02, 0.000, 0.000, 0.000, 17:34:23.080
21, 33395.72, 20414.12, -187500.02, -187500.02, -187500.02, -187500.02, -187500.02, -187500.02, 0.000, 0.000, 0.000, 17:34:23.080
22, 33267.35, 20247.77, -187500.02, -187500.02, -187500.02, -187500.02, -187500.02, -187500.02, 0.000, 0.000, 0.000, 17:34:23.080
23, 33312.61, 20316.30, -187500.02, -187500.02, -187500.02, -187500.02, -187500.02, -187500.02, 0.000, 0.000, 0.000, 17:34:23.080
24, 33469.95, 20512.69, -187500.02, -187500.02, -187500.02, -187500.02, -187500.02, -187500.02, 0.000, 0.000, 0.000, 17:34:23.080
25, 33481.91, 20515.50, -187500.02, -187500.02, -187500.02, -187500.02, -187500.02, -187500.02, 0.000, 0.000, 0.000, 17:34:23.080
26, 33409.75, 20425.27, -187500.02, -187500.02, -187500.02, -187500.02, -187500.02, -187500.02, 0.000, -0.016, 1.018, 17:34:23.080
27, 33301.33, 20278.62, -187500.02, -187500.02, -187500.02, -187500.02, -187500.02, -187500.02, 0.000, 0.000, 0.000, 17:34:23.080
28, 33344.20, 20339.06, -187500.02, -187500.02, -187500.02, -187500.02, -187500.02, -187500.02, 0.000, 0.000, 0.000, 17:34:23.081
29, 33493.84, 20528.13, -187500.02, -187500.02, -187500.02, -187500.02, -187500.02, -187500.02, 0.000, 0.000, 0.000, 17:34:23.081
30, 33518.81, 20546.21, -187500.02, -187500.02, -187500.02, -187500.02, -187500.02, -187500.02, 0.000, 0.000, 0.000, 17:34:23.081
31, 33450.41, 20455.40, -187500.02, -187500.02, -187500.02, -187500.02, -187500.02, -187500.02, 0.000, 0.000, 0.000, 17:34:23.081
32, 33328.35, 20299.63, -187500.02, -187500.02, -187500.02, -187500.02, -187500.02, -187500.02, 0.000, 0.000, 0.000, 17:34:23.081
33, 33368.34, 20361.57, -187500.02, -187500.02, -187500.02, -187500.02, -187500.02, -187500.02, 0.000, 0.000, 0.000, 17:34:23.081
34, 33520.82, 20550.82, -187500.02, -187500.02, -187500.02, -187500.02, -187500.02, -187500.02, 0.000, 0.000, 0.000, 17:34:23.081
35, 33538.32, 20564.10, -187500.02, -187500.02, -187500.02, -187500.02, -187500.02, -187500.02, 0.000, 0.000, 0.000, 17:34:23.081
36, 33475.74, 20482.98, -187500.02, -187500.02, -187500.02, -187500.02, -187500.02, -187500.02, 0.000, -0.020, 1.020, 17:34:23.082
37, 33352.31, 20324.53, -187500.02, -187500.02, -187500.02, -187500.02, -187500.02, -187500.02, 0.000, 0.000, 0.000, 17:34:23.082
38, 33404.66, 20393.82, -187500.02, -187500.02, -187500.02, -187500.02, -187500.02, -187500.02, 0.000, 0.000, 0.000, 17:34:23.082
39, 33558.39, 20587.28, -187500.02, -187500.02, -187500.02, -187500.02, -187500.02, -187500.02, 0.000, 0.000, 0.000, 17:34:23.082
40, 33586.54, 20607.21, -187500.02, -187500.02, -187500.02, -187500.02, -187500.02, -187500.02, 0.000, 0.000, 0.000, 17:34:23.082
41, 33517.56, 20510.34, -187500.02, -187500.02, -187500.02, -187500.02, -187500.02, -187500.02, 0.000, 0.000, 0.000, 17:34:23.082
42, 33395.09, 20352.54, -187500.02, -187500.02, -187500.02, -187500.02, -187500.02, -187500.02, 0.000, 0.000, 0.000, 17:34:23.082
43, 33433.61, 20410.27, -187500.02, -187500.02, -187500.02, -187500.02, -187500.02, -187500.02, 0.000, 0.000, 0.000, 17:34:23.082
44, 33589.39, 20603.52, -187500.02, -187500.02, -187500.02, -187500.02, -187500.02, -187500.02, 0.000, 0.000, 0.000, 17:34:23.083
45, 33608.68, 20618.79, -187500.02, -187500.02, -187500.02, -187500.02, -187500.02, -187500.02, 0.000, 0.000, 0.000, 17:34:23.083
46, 33552.40, 20537.32, -187500.02, -187500.02, -187500.02, -187500.02, -187500.02, -187500.02, 0.006, -0.024, 1.026, 17:34:23.083
47, 33426.86, 20379.27, -187500.02, -187500.02, -187500.02, -187500.02, -187500.02, -187500.02, 0.000, 0.000, 0.000, 17:34:23.083
48, 33463.73, 20433.72, -187500.02, -187500.02, -187500.02, -187500.02, -187500.02, -187500.02, 0.000, 0.000, 0.000, 17:34:23.083
49, 33628.09, 20637.01, -187500.02, -187500.02, -187500.02, -187500.02, -187500.02, -187500.02, 0.000, 0.000, 0.000, 17:34:23.083
50, 33658.04, 20659.58, -187500.02, -187500.02, -187500.02, -187500.02, -187500.02, -187500.02, 0.000, 0.000, 0.000, 17:34:23.084
51, 33593.08, 20575.21, -187500.02, -187500.02, -187500.02, -187500.02, -187500.02, -187500.02, 0.000, 0.000, 0.000, 17:34:23.084
52, 33462.84, 20410.99, -187500.02, -187500.02, -187500.02, -187500.02, -187500.02, -187500.02, 0.000, 0.000, 0.000, 17:34:23.084
53, 33503.43, 20464.52, -187500.02, -187500.02, -187500.02, -187500.02, -187500.02, -187500.02, 0.000, 0.000, 0.000, 17:34:23.084
54, 33656.96, 20656.16, -187500.02, -187500.02, -187500.02, -187500.02, -187500.02, -187500.02, 0.000, 0.000, 0.000, 17:34:23.084
55, 33676.81, 20678.00, -187500.02, -187500.02, -187500.02, -187500.02, -187500.02, -187500.02, 0.000, 0.000, 0.000, 17:34:23.084
56, 33611.97, 20599.08, -187500.02, -187500.02, -187500.02, -187500.02, -187500.02, -187500.02, 0.000, -0.022, 1.028, 17:34:23.084
57, 33492.43, 20442.26, -187500.02, -187500.02, -187500.02, -187500.02, -187500.02, -187500.02, 0.000, 0.000, 0.000, 17:34:23.084
58, 33524.91, 20490.29, -187500.02, -187500.02, -187500.02, -187500.02, -187500.02, -187500.02, 0.000, 0.000, 0.000, 17:34:23.085
59, 33685.89, 20687.12, -187500.02, -187500.02, -187500.02, -187500.02, -187500.02, -187500.02, 0.000, 0.000, 0.000, 17:34:23.085
60, 33713.65, 20709.07, -187500.02, -187500.02, -187500.02, -187500.02, -187500.02, -187500.02, 0.000, 0.000, 0.000, 17:34:23.085
61, 33652.88, 20628.56, -187500.02, -187500.02, -187500.02, -187500.02, -187500.02, -187500.02, 0.000, 0.000, 0.000, 17:34:23.085
62, 33524.00, 20464.94, -187500.02, -187500.02, -187500.02, -187500.02, -187500.02, -187500.02, 0.000, 0.000, 0.000, 17:34:23.085
63, 33564.36, 20517.29, -187500.02, -187500.02, -187500.02, -187500.02, -187500.02, -187500.02, 0.000, 0.000, 0.000, 17:34:23.086
64, 33729.50, 20716.13, -187500.02, -187500.02, -187500.02, -187500.02, -187500.02, -187500.02, 0.000, 0.000, 0.000, 17:34:23.086
65, 33752.05, 20736.45, -187500.02, -187500.02, -187500.02, -187500.02, -187500.02, -187500.02, 0.000, 0.000, 0.000, 17:34:23.086
66, 33689.82, 20658.58, -187500.02, -187500.02, -187500.02, -187500.02, -187500.02, -187500.02, 0.000, -0.016, 1.030, 17:34:23.086
67, 33566.95, 20500.01, -187500.02, -187500.02, -187500.02, -187500.02, -187500.02, -187500.02, 0.000, 0.000, 0.000, 17:34:23.087
68, 33608.68, 20555.15, -187500.02, -187500.02, -187500.02, -187500.02, -187500.02, -187500.02, 0.000, 0.000, 0.000, 17:34:23.087
69, 33768.14, 20747.25, -187500.02, -187500.02, -187500.02, -187500.02, -187500.02, -187500.02, 0.000, 0.000, 0.000, 17:34:23.087
70, 33789.22, 20764.50, -187500.02, -187500.02, -187500.02, -187500.02, -187500.02, -187500.02, 0.000, 0.000, 0.000, 17:34:23.087
71, 33734.17, 20689.91, -187500.02, -187500.02, -187500.02, -187500.02, -187500.02, -187500.02, 0.000, 0.000, 0.000, 17:34:23.087
72, 33601.73, 20523.42, -187500.02, -187500.02, -187500.02, -187500.02, -187500.02, -187500.02, 0.000, 0.000, 0.000, 17:34:23.087
73, 33633.09, 20569.39, -187500.02, -187500.02, -187500.02, -187500.02, -187500.02, -187500.02, 0.000, 0.000, 0.000, 17:34:23.087
74, 33795.52, 20768.30, -187500.02, -187500.02, -187500.02, -187500.02, -187500.02, -187500.02, 0.000, 0.000, 0.000, 17:34:23.087
75, 33829.74, 20798.34, -187500.02, -187500.02, -187500.02, -187500.02, -187500.02, -187500.02, 0.000, 0.000, 0.000, 17:34:23.088
76, 33769.75, 20721.79, -187500.02, -187500.02, -187500.02, -187500.02, -187500.02, -187500.02, 0.002, -0.018, 1.024, 17:34:23.088
77, 33653.70, 20575.74, -187500.02, -187500.02, -187500.02, -187500.02, -187500.02, -187500.02, 0.000, 0.000, 0.000, 17:34:23.088
78, 33693.02, 20627.22, -187500.02, -187500.02, -187500.02, -187500.02, -187500.02, -187500.02, 0.000, 0.000, 0.000, 17:34:23.088
79, 33858.18, 20825.66, -187500.02, -187500.02, -187500.02, -187500.02, -187500.02, -187500.02, 0.000, 0.000, 0.000, 17:34:23.088
80, 33884.53, 20845.50, -187500.02, -187500.02, -187500.02, -187500.02, -187500.02, -187500.02, 0.000, 0.000, 0.000, 17:34:23.088
81, 33820.54, 20761.04, -187500.02, -187500.02, -187500.02, -187500.02, -187500.02, -187500.02, 0.000, 0.000, 0.000, 17:34:23.088
82, 33692.55, 20599.97, -187500.02, -187500.02, -187500.02, -187500.02, -187500.02, -187500.02, 0.000, 0.000, 0.000, 17:34:23.088
83, 33720.58, 20643.94, -187500.02, -187500.02, -187500.02, -187500.02, -187500.02, -187500.02, 0.000, 0.000, 0.000, 17:34:23.088
84, 33888.35, 20846.26, -187500.02, -187500.02, -187500.02, -187500.02, -187500.02, -187500.02, 0.000, 0.000, 0.000, 17:34:23.089
85, 33923.13, 20878.45, -187500.02, -187500.02, -187500.02, -187500.02, -187500.02, -187500.02, 0.000, 0.000, 0.000, 17:34:23.089
86, 33869.69, 20803.73, -187500.02, -187500.02, -187500.02, -187500.02, -187500.02, -187500.02, 0.004, -0.024, 1.026, 17:34:23.089
87, 33742.35, 20645.05, -187500.02, -187500.02, -187500.02, -187500.02, -187500.02, -187500.02, 0.000, 0.000, 0.000, 17:34:23.089
88, 33778.04, 20696.91, -187500.02, -187500.02, -187500.02, -187500.02, -187500.02, -187500.02, 0.000, 0.000, 0.000, 17:34:23.089
89, 33937.41, 20888.55, -187500.02, -187500.02, -187500.02, -187500.02, -187500.02, -187500.02, 0.000, 0.000, 0.000, 17:34:23.089
90, 33968.04, 20911.20, -187500.02, -187500.02, -187500.02, -187500.02, -187500.02, -187500.02, 0.000, 0.000, 0.000, 17:34:23.089
91, 33919.57, 20843.40, -187500.02, -187500.02, -187500.02, -187500.02, -187500.02, -187500.02, 0.000, 0.000, 0.000, 17:34:23.089
92, 33788.01, 20677.55, -187500.02, -187500.02, -187500.02, -187500.02, -187500.02, -187500.02, 0.000, 0.000, 0.000, 17:34:23.090
93, 33818.39, 20722.99, -187500.02, -187500.02, -187500.02, -187500.02, -187500.02, -187500.02, 0.000, 0.000, 0.000, 17:34:23.090
94, 33990.92, 20929.86, -187500.02, -187500.02, -187500.02, -187500.02, -187500.02, -187500.02, 0.000, 0.000, 0.000, 17:34:23.090
95, 34030.13, 20964.51, -187500.02, -187500.02, -187500.02, -187500.02, -187500.02, -187500.02, 0.000, 0.000, 0.000, 17:34:23.090
96, 33971.25, 20884.24, -187500.02, -187500.02, -187500.02, -187500.02, -187500.02, -187500.02, 0.004, -0.024, 1.026, 17:34:23.090
97, 33838.91, 20716.11, -187500.02, -187500.02, -187500.02, -187500.02, -187500.02, -187500.02, 0.000, 0.000, 0.000, 17:34:23.090
98, 33870.43, 20761.78, -187500.02, -187500.02, -187500.02, -187500.02, -187500.02, -187500.02, 0.000, 0.000, 0.000, 17:34:23.090
99, 34037.19, 20967.97, -187500.02, -187500.02, -187500.02, -187500.02, -187500.02, -187500.02, 0.000, 0.000, 0.000, 17:34:23.090
100, 34083.66, 21010.33, -187500.02, -187500.02, -187500.02, -187500.02, -187500.02, -187500.02, 0.000, 0.000, 0.000, 17:34:23.090
101, 34029.32, 20938.76, -187500.02, -187500.02, -187500.02, -187500.02, -187500.02, -187500.02, 0.000, 0.000, 0.000, 17:34:23.091
102, 33905.70, 20779.37, -187500.02, -187500.02, -187500.02, -187500.02, -187500.02, -187500.02, 0.000, 0.000, 0.000, 17:34:23.091
103, 33927.85, 20812.96, -187500.02, -187500.02, -187500.02, -187500.02, -187500.02, -187500.02, 0.000, 0.000, 0.000, 17:34:23.091
104, 34083.41, 21006.62, -187500.02, -187500.02, -187500.02, -187500.02, -187500.02, -187500.02, 0.000, 0.000, 0.000, 17:34:23.091
105, 34109.27, 21028.48, -187500.02, -187500.02, -187500.02, -187500.02, -187500.02, -187500.02, 0.000, 0.000, 0.000, 17:34:23.091
106, 34067.93, 20967.57, -187500.02, -187500.02, -187500.02, -187500.02, -187500.02, -187500.02, 0.008, -0.018, 1.028, 17:34:23.091
107, 33940.86, 20804.62, -187500.02, -187500.02, -187500.02, -187500.02, -187500.02, -187500.02, 0.000, 0.000, 0.000, 17:34:23.091
108, 33977.46, 20854.69, -187500.02, -187500.02, -187500.02, -187500.02, -187500.02, -187500.02, 0.000, 0.000, 0.000, 17:34:23.091
109, 34140.41, 21056.57, -187500.02, -187500.02, -187500.02, -187500.02, -187500.02, -187500.02, 0.000, 0.000, 0.000, 17:34:23.092
110, 34163.61, 21076.11, -187500.02, -187500.02, -187500.02, -187500.02, -187500.02, -187500.02, 0.000, 0.000, 0.000, 17:34:23.092
111, 34102.59, 20997.36, -187500.02, -187500.02, -187500.02, -187500.02, -187500.02, -187500.02, 0.000, 0.000, 0.000, 17:34:23.092
112, 33970.61, 20839.60, -187500.02, -187500.02, -187500.02, -187500.02, -187500.02, -187500.02, 0.000, 0.000, 0.000, 17:34:23.092
113, 33999.55, 20887.28, -187500.02, -187500.02, -187500.02, -187500.02, -187500.02, -187500.02, 0.000, 0.000, 0.000, 17:34:23.092
114, 34171.93, 21093.74, -187500.02, -187500.02, -187500.02, -187500.02, -187500.02, -187500.02, 0.000, 0.000, 0.000, 17:34:23.092
115, 34198.66, 21115.04, -187500.02, -187500.02, -187500.02, -187500.02, -187500.02, -187500.02, 0.000, 0.000, 0.000, 17:34:23.092
116, 34143.61, 21041.75, -187500.02, -187500.02, -187500.02, -187500.02, -187500.02, -187500.02, 0.010, -0.014, 1.028, 17:34:23.093
117, 34012.94, 20877.78, -187500.02, -187500.02, -187500.02, -187500.02, -187500.02, -187500.02, 0.000, 0.000, 0.000, 17:34:23.093
118, 34025.68, 20907.69, -187500.02, -187500.02, -187500.02, -187500.02, -187500.02, -187500.02, 0.000, 0.000, 0.000, 17:34:23.093
119, 34193.47, 21116.32, -187500.02, -187500.02, -187500.02, -187500.02, -187500.02, -187500.02, 0.000, 0.000, 0.000, 17:34:23.093
120, 34239.00, 21155.88, -187500.02, -187500.02, -187500.02, -187500.02, -187500.02, -187500.02, 0.000, 0.000, 0.000, 17:34:23.555
121, 34174.56, 21067.70, -187500.02, -187500.02, -187500.02, -187500.02, -187500.02, -187500.02, 0.000, 0.000, 0.000, 17:34:23.555
122, 34036.01, 20891.21, -187500.02, -187500.02, -187500.02, -187500.02, -187500.02, -187500.02, 0.000, 0.000, 0.000, 17:34:23.555
123, 34059.16, 20929.97, -187500.02, -187500.02, -187500.02, -187500.02, -187500.02, -187500.02, 0.000, 0.000, 0.000, 17:34:23.556
124, 34238.94, 21150.07, -187500.02, -187500.02, -187500.02, -187500.02, -187500.02, -187500.02, 0.000, 0.000, 0.000, 17:34:23.556
125, 34278.05, 21188.58, -187500.02, -187500.02, -187500.02, -187500.02, -187500.02, -187500.02, 0.000, 0.000, 0.000, 17:34:23.556
126, 34212.23, 21102.19, -187500.02, -187500.02, -187500.02, -187500.02, -187500.02, -187500.02, 0.004, -0.022, 1.032, 17:34:23.556
127, 34088.89, 20943.83, -187500.02, -187500.02, -187500.02, -187500.02, -187500.02, -187500.02, 0.000, 0.000, 0.000, 17:34:23.556
128, 34106.75, 20978.47, -187500.02, -187500.02, -187500.02, -187500.02, -187500.02, -187500.02, 0.000, 0.000, 0.000, 17:34:23.557
129, 34265.87, 21181.27, -187500.02, -187500.02, -187500.02, -187500.02, -187500.02, -187500.02, 0.000, 0.000, 0.000, 17:34:23.557
130, 34324.52, 21234.09, -187500.02, -187500.02, -187500.02, -187500.02, -187500.02, -187500.02, 0.000, 0.000, 0.000, 17:34:23.557
131, 34273.29, 21158.16, -187500.02, -187500.02, -187500.02, -187500.02, -187500.02, -187500.02, 0.000, 0.000, 0.000, 17:34:23.557
132, 34149.66, 21000.18, -187500.02, -187500.02, -187500.02, -187500.02, -187500.02, -187500.02, 0.000, 0.000, 0.000, 17:34:23.557
133, 34167.68, 21031.85, -187500.02, -187500.02, -187500.02, -187500.02, -187500.02, -187500.02, 0.000, 0.000, 0.000, 17:34:23.557
134, 34316.70, 21220.77, -187500.02, -187500.02, -187500.02, -187500.02, -187500.02, -187500.02, 0.000, 0.000, 0.000, 17:34:23.558
135, 34345.85, 21249.42, -187500.02, -187500.02, -187500.02, -187500.02, -187500.02, -187500.02, 0.006, -0.016, 1.022, 17:34:23.558
136, 34296.11, 21180.67, -187500.02, -187500.02, -187500.02, -187500.02, -187500.02, -187500.02, 0.000, 0.000, 0.000, 17:34:23.558
137, 34176.46, 21021.90, -187500.02, -187500.02, -187500.02, -187500.02, -187500.02, -187500.02, 0.000, 0.000, 0.000, 17:34:23.558
138, 34186.79, 21047.50, -187500.02, -187500.02, -187500.02, -187500.02, -187500.02, -187500.02, 0.000, 0.000, 0.000, 17:34:23.558
139, 34359.55, 21264.60, -187500.02, -187500.02, -187500.02, -187500.02, -187500.02, -187500.02, 0.000, 0.000, 0.000, 17:34:23.558
140, 34398.46, 21302.51, -187500.02, -187500.02, -187500.02, -187500.02, -187500.02, -187500.02, 0.000, 0.000, 0.000, 17:34:23.558
141, 34341.96, 21225.15, -187500.02, -187500.02, -187500.02, -187500.02, -187500.02, -187500.02, 0.000, 0.000, 0.000, 17:34:23.559
142, 34209.41, 21064.46, -187500.02, -187500.02, -187500.02, -187500.02, -187500.02, -187500.02, 0.000, 0.000, 0.000, 17:34:23.559
143, 34230.00, 21103.51, -187500.02, -187500.02, -187500.02, -187500.02, -187500.02, -187500.02, 0.000, 0.000, 0.000, 17:34:23.559
144, 34400.14, 21320.23, -187500.02, -187500.02, -187500.02, -187500.02, -187500.02, -187500.02, 0.000, 0.000, 0.000, 17:34:23.559
145, 34431.09, 21349.18, -187500.02, -187500.02, -187500.02, -187500.02, -187500.02, -187500.02, 0.006, -0.018, 1.022, 17:34:23.559
146, 34370.90, 21273.00, -187500.02, -187500.02, -187500.02, -187500.02, -187500.02, -187500.02, 0.000, 0.000, 0.000, 17:34:23.559
147, 34241.98, 21114.48, -187500.02, -187500.02, -187500.02, -187500.02, -187500.02, -187500.02, 0.000, 0.000, 0.000, 17:34:23.559
148, 34260.15, 21144.88, -187500.02, -187500.02, -187500.02, -187500.02, -187500.02, -187500.02, 0.000, 0.000, 0.000, 17:34:23.559
149, 34423.23, 21348.57, -187500.02, -187500.02, -187500.02, -187500.02, -187500.02, -187500.02, 0.000, 0.000, 0.000, 17:34:23.560
150, 34467.20, 21394.78, -187500.02, -187500.02, -187500.02, -187500.02, -187500.02, -187500.02, 0.000, 0.000, 0.000, 17:34:23.560
151, 34411.87, 21324.86, -187500.02, -187500.02, -187500.02, -187500.02, -187500.02, -187500.02, 0.000, 0.000, 0.000, 17:34:23.560
152, 34272.82, 21150.58, -187500.02, -187500.02, -187500.02, -187500.02, -187500.02, -187500.02, 0.000, 0.000, 0.000, 17:34:23.560
153, 34282.72, 21173.09, -187500.02, -187500.02, -187500.02, -187500.02, -187500.02, -187500.02, 0.000, 0.000, 0.000, 17:34:23.560
154, 34455.05, 21391.98, -187500.02, -187500.02, -187500.02, -187500.02, -187500.02, -187500.02, 0.000, 0.000, 0.000, 17:34:23.560
155, 34505.01, 21446.12, -187500.02, -187500.02, -187500.02, -187500.02, -187500.02, -187500.02, 0.004, -0.020, 1.014, 17:34:23.560
156, 34434.63, 21360.42, -187500.02, -187500.02, -187500.02, -187500.02, -187500.02, -187500.02, 0.000, 0.000, 0.000, 17:34:23.560
157, 34302.71, 21199.87, -187500.02, -187500.02, -187500.02, -187500.02, -187500.02, -187500.02, 0.000, 0.000, 0.000, 17:34:23.560
158, 34308.74, 21221.97, -187500.02, -187500.02, -187500.02, -187500.02, -187500.02, -187500.02, 0.000, 0.000, 0.000, 17:34:23.561
159, 34470.77, 21424.35, -187500.02, -187500.02, -187500.02, -187500.02, -187500.02, -187500.02, 0.000, 0.000, 0.000, 17:34:23.561
160, 34512.86, 21469.21, -187500.02, -187500.02, -187500.02, -187500.02, -187500.02, -187500.02, 0.000, 0.000, 0.000, 17:34:23.561
161, 34456.93, 21405.08, -187500.02, -187500.02, -187500.02, -187500.02, -187500.02, -187500.02, 0.000, 0.000, 0.000, 17:34:23.561
162, 34329.30, 21245.51, -187500.02, -187500.02, -187500.02, -187500.02, -187500.02, -187500.02, 0.000, 0.000, 0.000, 17:34:23.561
163, 34330.63, 21260.38, -187500.02, -187500.02, -187500.02, -187500.02, -187500.02, -187500.02, 0.000, 0.000, 0.000, 17:34:23.561
164, 34483.60, 21458.08, -187500.02, -187500.02, -187500.02, -187500.02, -187500.02, -187500.02, 0.000, 0.000, 0.000, 17:34:23.562
165, 34535.50, 21508.93, -187500.02, -187500.02, -187500.02, -187500.02, -187500.02, -187500.02, 0.002, -0.020, 1.026, 17:34:23.562
166, 34477.77, 21438.90, -187500.02, -187500.02, -187500.02, -187500.02, -187500.02, -187500.02, 0.000, 0.000, 0.000, 17:34:23.562
167, 34341.89, 21274.55, -187500.02, -187500.02, -187500.02, -187500.02, -187500.02, -187500.02, 0.000, 0.000, 0.000, 17:34:23.562
168, 34362.43, 21306.51, -187500.02, -187500.02, -187500.02, -187500.02, -187500.02, -187500.02, 0.000, 0.000, 0.000, 17:34:23.562
169, 34537.64, 21529.83, -187500.02, -187500.02, -187500.02, -187500.02, -187500.02, -187500.02, 0.000, 0.000, 0.000, 17:34:23.563
170, 34582.19, 21581.08, -187500.02, -187500.02, -187500.02, -187500.02, -187500.02, -187500.02, 0.000, 0.000, 0.000, 17:34:23.563
171, 34517.66, 21501.68, -187500.02, -187500.02, -187500.02, -187500.02, -187500.02, -187500.02, 0.000, 0.000, 0.000, 17:34:23.563
172, 34381.27, 21334.47, -187500.02, -187500.02, -187500.02, -187500.02, -187500.02, -187500.02, 0.000, 0.000, 0.000, 17:34:23.563
173, 34384.71, 21349.67, -187500.02, -187500.02, -187500.02, -187500.02, -187500.02, -187500.02, 0.000, 0.000, 0.000, 17:34:23.563
174, 34555.10, 21567.35, -187500.02, -187500.02, -187500.02, -187500.02, -187500.02, -187500.02, 0.000, 0.000, 0.000, 17:34:23.563
175, 34606.27, 21625.58, -187500.02, -187500.02, -187500.02, -187500.02, -187500.02, -187500.02, 0.006, -0.022, 1.028, 17:34:23.564
176, 34551.68, 21556.20, -187500.02, -187500.02, -187500.02, -187500.02, -187500.02, -187500.02, 0.000, 0.000, 0.000, 17:34:23.564
177, 34429.73, 21403.90, -187500.02, -187500.02, -187500.02, -187500.02, -187500.02, -187500.02, 0.000, 0.000, 0.000, 17:34:23.564
178, 34434.63, 21414.31, -187500.02, -187500.02, -187500.02, -187500.02, -187500.02, -187500.02, 0.000, 0.000, 0.000, 17:34:23.564
179, 34595.00, 21619.37, -187500.02, -187500.02, -187500.02, -187500.02, -187500.02, -187500.02, 0.000, 0.000, 0.000, 17:34:23.564
180, 34643.04, 21683.40, -187500.02, -187500.02, -187500.02, -187500.02, -187500.02, -187500.02, 0.000, 0.000, 0.000, 17:34:23.564
181, 34594.42, 21620.78, -187500.02, -187500.02, -187500.02, -187500.02, -187500.02, -187500.02, 0.000, 0.000, 0.000, 17:34:23.565
182, 34465.90, 21462.84, -187500.02, -187500.02, -187500.02, -187500.02, -187500.02, -187500.02, 0.000, 0.000, 0.000, 17:34:23.565
183, 34466.79, 21480.03, -187500.02, -187500.02, -187500.02, -187500.02, -187500.02, -187500.02, 0.000, 0.000, 0.000, 17:34:23.565
184, 34643.50, 21703.34, -187500.02, -187500.02, -187500.02, -187500.02, -187500.02, -187500.02, 0.000, 0.000, 0.000, 17:34:23.565
185, 34706.54, 21765.97, -187500.02, -187500.02, -187500.02, -187500.02, -187500.02, -187500.02, 0.002, -0.016, 1.022, 17:34:23.565
186, 34644.84, 21690.27, -187500.02, -187500.02, -187500.02, -187500.02, -187500.02, -187500.02, 0.000, 0.000, 0.000, 17:34:23.565
187, 34500.34, 21516.55, -187500.02, -187500.02, -187500.02, -187500.02, -187500.02, -187500.02, 0.000, 0.000, 0.000, 17:34:23.566
188, 34495.87, 21523.41, -187500.02, -187500.02, -187500.02, -187500.02, -187500.02, -187500.02, 0.000, 0.000, 0.000, 17:34:23.566
189, 34668.47, 21743.17, -187500.02, -187500.02, -187500.02, -187500.02, -187500.02, -187500.02, 0.000, 0.000, 0.000, 17:34:23.566
190, 34718.25, 21800.42, -187500.02, -187500.02, -187500.02, -187500.02, -187500.02, -187500.02, 0.000, 0.000, 0.000, 17:34:23.566
191, 34670.59, 21738.97, -187500.02, -187500.02, -187500.02, -187500.02, -187500.02, -187500.02, 0.000, 0.000, 0.000, 17:34:23.566
192, 34533.11, 21573.75, -187500.02, -187500.02, -187500.02, -187500.02, -187500.02, -187500.02, 0.000, 0.000, 0.000, 17:34:23.567
193, 34515.65, 21569.52, -187500.02, -187500.02, -187500.02, -187500.02, -187500.02, -187500.02, 0.000, 0.000, 0.000, 17:34:23.567
194, 34695.89, 21790.58, -187500.02, -187500.02, -187500.02, -187500.02, -187500.02, -187500.02, 0.000, 0.000, 0.000, 17:34:23.567
195, 34752.09, 21850.10, -187500.02, -187500.02, -187500.02, -187500.02, -187500.02, -187500.02, 0.000, -0.018, 1.026, 17:34:23.567
196, 34702.51, 21790.27, -187500.02, -187500.02, -187500.02, -187500.02, -187500.02, -187500.02, 0.000, 0.000, 0.000, 17:34:23.567
197, 34565.43, 21625.80, -187500.02, -187500.02, -187500.02, -187500.02, -187500.02, -187500.02, 0.000, 0.000, 0.000, 17:34:23.567
198, 34558.39, 21627.79, -187500.02, -187500.02, -187500.02, -187500.02, -187500.02, -187500.02, 0.000, 0.000, 0.000, 17:34:23.568
199, 34742.63, 21859.29, -187500.02, -187500.02, -187500.02, -187500.02, -187500.02, -187500.02, 0.000, 0.000, 0.000, 17:34:23.568
200, 34794.47, 21917.20, -187500.02, -187500.02, -187500.02, -187500.02, -187500.02, -187500.02, 0.000, 0.000, 0.000, 17:34:23.568
201, 34740.93, 21843.26, -187500.02, -187500.02, -187500.02, -187500.02, -187500.02, -187500.02, 0.000, 0.000, 0.000, 17:34:23.568
202, 34606.78, 21677.66, -187500.02, -187500.02, -187500.02, -187500.02, -187500.02, -187500.02, 0.000, 0.000, 0.000, 17:34:23.568
203, 34611.09, 21690.15, -187500.02, -187500.02, -187500.02, -187500.02, -187500.02, -187500.02, 0.000, 0.000, 0.000, 17:34:23.569
204, 34784.59, 21905.29, -187500.02, -187500.02, -187500.02, -187500.02, -187500.02, -187500.02, 0.000, 0.000, 0.000, 17:34:23.569
205, 34844.49, 21966.33, -187500.02, -187500.02, -187500.02, -187500.02, -187500.02, -187500.02, 0.000, -0.014, 1.022, 17:34:23.569
206, 34804.30, 21902.12, -187500.02, -187500.02, -187500.02, -187500.02, -187500.02, -187500.02, 0.000, 0.000, 0.000, 17:34:23.569
207, 34668.07, 21730.66, -187500.02, -187500.02, -187500.02, -187500.02, -187500.02, -187500.02, 0.000, 0.000, 0.000, 17:34:23.569
208, 34663.87, 21729.76, -187500.02, -187500.02, -187500.02, -187500.02, -187500.02, -187500.02, 0.000, 0.000, 0.000, 17:34:23.569
209, 34834.99, 21944.09, -187500.02, -187500.02, -187500.02, -187500.02, -187500.02, -187500.02, 0.000, 0.000, 0.000, 17:34:23.570
210, 34889.64, 22004.13, -187500.02, -187500.02, -187500.02, -187500.02, -187500.02, -187500.02, 0.000, 0.000, 0.000, 17:34:23.570
211, 34848.22, 21948.63, -187500.02, -187500.02, -187500.02, -187500.02, -187500.02, -187500.02, 0.000, 0.000, 0.000, 17:34:23.570
212, 34704.57, 21773.77, -187500.02, -187500.02, -187500.02, -187500.02, -187500.02, -187500.02, 0.000, 0.000, 0.000, 17:34:23.570
213, 34697.64, 21766.44, -187500.02, -187500.02, -187500.02, -187500.02, -187500.02, -187500.02, 0.000, 0.000, 0.000, 17:34:23.570
214, 34873.95, 21982.74, -187500.02, -187500.02, -187500.02, -187500.02, -187500.02, -187500.02, 0.000, 0.000, 0.000, 17:34:23.571
215, 34930.81, 22041.43, -187500.02, -187500.02, -187500.02, -187500.02, -187500.02, -187500.02, 0.002, -0.018, 1.028, 17:34:23.571
216, 34865.17, 21961.17, -187500.02, -187500.02, -187500.02, -187500.02, -187500.02, -187500.02, 0.000, 0.000, 0.000, 17:34:23.571
217, 34737.49, 21803.81, -187500.02, -187500.02, -187500.02, -187500.02, -187500.02, -187500.02, 0.000, 0.000, 0.000, 17:34:23.571
218, 34729.56, 21800.64, -187500.02, -187500.02, -187500.02, -187500.02, -187500.02, -187500.02, 0.000, 0.000, 0.000, 17:34:23.571
219, 34898.67, 22011.64, -187500.02, -187500.02, -187500.02, -187500.02, -187500.02, -187500.02, 0.000, 0.000, 0.000, 17:34:23.571
220, 34950.62, 22067.61, -187500.02, -187500.02, -187500.02, -187500.02, -187500.02, -187500.02, 0.000, 0.000, 0.000, 17:34:23.571
221, 34906.09, 22006.03, -187500.02, -187500.02, -187500.02, -187500.02, -187500.02, -187500.02, 0.000, 0.000, 0.000, 17:34:23.571
222, 34773.01, 21837.61, -187500.02, -187500.02, -187500.02, -187500.02, -187500.02, -187500.02, 0.000, 0.000, 0.000, 17:34:23.571
223, 34753.18, 21824.71, -187500.02, -187500.02, -187500.02, -187500.02, -187500.02, -187500.02, 0.000, 0.000, 0.000, 17:34:23.572
224, 34930.99, 22045.26, -187500.02, -187500.02, -187500.02, -187500.02, -187500.02, -187500.02, 0.000, 0.000, 0.000, 17:34:23.572
225, 35010.56, 22124.78, -187500.02, -187500.02, -187500.02, -187500.02, -187500.02, -187500.02, 0.006, -0.018, 1.022, 17:34:23.572
226, 34954.13, 22052.37, -187500.02, -187500.02, -187500.02, -187500.02, -187500.02, -187500.02, 0.000, 0.000, 0.000, 17:34:23.572
227, 34817.80, 21883.09, -187500.02, -187500.02, -187500.02, -187500.02, -187500.02, -187500.02, 0.000, 0.000, 0.000, 17:34:23.572
228, 34794.04, 21864.88, -187500.02, -187500.02, -187500.02, -187500.02, -187500.02, -187500.02, 0.000, 0.000, 0.000, 17:34:23.572
229, 34974.85, 22086.23, -187500.02, -187500.02, -187500.02, -187500.02, -187500.02, -187500.02, 0.000, 0.000, 0.000, 17:34:23.572
230, 35037.57, 22150.67, -187500.02, -187500.02, -187500.02, -187500.02, -187500.02, -187500.02, 0.000, 0.000, 0.000, 17:34:23.572
231, 34994.88, 22089.87, -187500.02, -187500.02, -187500.02, -187500.02, -187500.02, -187500.02, 0.000, 0.000, 0.000, 17:34:23.572
232, 34861.37, 21922.68, -187500.02, -187500.02, -187500.02, -187500.02, -187500.02, -187500.02, 0.000, 0.000, 0.000, 17:34:23.573
233, 34842.17, 21906.72, -187500.02, -187500.02, -187500.02, -187500.02, -187500.02, -187500.02, 0.000, 0.000, 0.000, 17:34:23.573
234, 35008.38, 22111.80, -187500.02, -187500.02, -187500.02, -187500.02, -187500.02, -187500.02, 0.000, 0.000, 0.000, 17:34:23.573
235, 35073.08, 22177.62, -187500.02, -187500.02, -187500.02, -187500.02, -187500.02, -187500.02, 0.004, -0.016, 1.028, 17:34:23.573
236, 35019.13, 22108.47, -187500.02, -187500.02, -187500.02, -187500.02, -187500.02, -187500.02, 0.000, 0.000, 0.000, 17:34:23.573
237, 34887.09, 21946.26, -187500.02, -187500.02, -187500.02, -187500.02, -187500.02, -187500.02, 0.000, 0.000, 0.000, 17:34:23.573
238, 34863.96, 21919.82, -187500.02, -187500.02, -187500.02, -187500.02, -187500.02, -187500.02, 0.000, 0.000, 0.000, 17:34:23.573
239, 35029.65, 22123.40, -187500.02, -187500.02, -187500.02, -187500.02, -187500.02, -187500.02, 0.000, 0.000, 0.000, 17:34:23.573
240, 35087.12, 22183.81, -187500.02, -187500.02, -187500.02, -187500.02, -187500.02, -187500.02, 0.000, 0.000, 0.000, 17:34:24.037
241, 35034.04, 22116.98, -187500.02, -187500.02, -187500.02, -187500.02, -187500.02, -187500.02, 0.000, 0.000, 0.000, 17:34:24.037
242, 34900.55, 21950.13, -187500.02, -187500.02, -187500.02, -187500.02, -187500.02, -187500.02, 0.000, 0.000, 0.000, 17:34:24.037
243, 34881.71, 21932.09, -187500.02, -187500.02, -187500.02, -187500.02, -187500.02, -187500.02, 0.000, 0.000, 0.000, 17:34:24.038
244, 35046.98, 22144.41, -187500.02, -187500.02, -187500.02, -187500.02, -187500.02, -187500.02, 0.000, -0.018, 1.032, 17:34:24.038
245, 35109.67, 22214.57, -187500.02, -187500.02, -187500.02, -187500.02, -187500.02, -187500.02, 0.000, 0.000, 0.000, 17:34:24.038
246, 35058.89, 22146.67, -187500.02, -187500.02, -187500.02, -187500.02, -187500.02, -187500.02, 0.000, 0.000, 0.000, 17:34:24.038
247, 34925.40, 21984.26, -187500.02, -187500.02, -187500.02, -187500.02, -187500.02, -187500.02, 0.000, 0.000, 0.000, 17:34:24.038
248, 34909.45, 21973.24, -187500.02, -187500.02, -187500.02, -187500.02, -187500.02, -187500.02, 0.000, 0.000, 0.000, 17:34:24.038
249, 35083.66, 22189.63, -187500.02, -187500.02, -187500.02, -187500.02, -187500.02, -187500.02, 0.000, 0.000, 0.000, 17:34:24.039
250, 35150.00, 22266.07, -187500.02, -187500.02, -187500.02, -187500.02, -187500.02, -187500.02, 0.000, 0.000, 0.000, 17:34:24.039
251, 35111.41, 22216.16, -187500.02, -187500.02, -187500.02, -187500.02, -187500.02, -187500.02, 0.000, 0.000, 0.000, 17:34:24.039
252, 34973.35, 22046.93, -187500.02, -187500.02, -187500.02, -187500.02, -187500.02, -187500.02, 0.000, 0.000, 0.000, 17:34:24.039
253, 34944.05, 22017.52, -187500.02, -187500.02, -187500.02, -187500.02, -187500.02, -187500.02, 0.000, 0.000, 0.000, 17:34:24.039
254, 35110.32, 22226.87, -187500.02, -187500.02, -187500.02, -187500.02, -187500.02, -187500.02, 0.002, -0.024, 1.028, 17:34:24.040
255, 35167.52, 22288.15, -187500.02, -187500.02, -187500.02, -187500.02, -187500.02, -187500.02, 0.000, 0.000, 0.000, 17:34:24.040
0, 35122.21, 22229.17, -187500.02, -187500.02, -187500.02, -187500.02, -187500.02, -187500.02, 0.000, 0.000, 0.000, 17:34:24.040
1, 34983.74, 22063.72, -187500.02, -187500.02, -187500.02, -187500.02, -187500.02, -187500.02, 0.000, 0.000, 0.000, 17:34:24.040
2, 34972.32, 22054.78, -187500.02, -187500.02, -187500.02, -187500.02, -187500.02, -187500.02, 0.000, 0.000, 0.000, 17:34:24.040
3, 35143.09, 22264.95, -187500.02, -187500.02, -187500.02, -187500.02, -187500.02, -187500.02, 0.000, 0.000, 0.000, 17:34:24.040
4, 35205.09, 22333.55, -187500.02, -187500.02, -187500.02, -187500.02, -187500.02, -187500.02, 0.000, 0.000, 0.000, 17:34:24.041
5, 35155.40, 22273.07, -187500.02, -187500.02, -187500.02, -187500.02, -187500.02, -187500.02, 0.000, 0.000, 0.000, 17:34:24.041
6, 35016.00, 22107.06, -187500.02, -187500.02, -187500.02, -187500.02, -187500.02, -187500.02, 0.000, 0.000, 0.000, 17:34:24.041
7, 34985.55, 22083.99, -187500.02, -187500.02, -187500.02, -187500.02, -187500.02, -187500.02, 0.000, 0.000, 0.000, 17:34:24.041
8, 35148.99, 22283.19, -187500.02, -187500.02, -187500.02, -187500.02, -187500.02, -187500.02, 0.000, -0.024, 1.028, 17:34:24.041
9, 35198.52, 22347.41, -187500.02, -187500.02, -187500.02, -187500.02, -187500.02, -187500.02, 0.000, 0.000, 0.000, 17:34:24.041
10, 35153.57, 22281.98, -187500.02, -187500.02, -187500.02, -187500.02, -187500.02, -187500.02, 0.000, 0.000, 0.000, 17:34:24.042
11, 34995.57, 22089.74, -187500.02, -187500.02, -187500.02, -187500.02, -187500.02, -187500.02, 0.000, 0.000, 0.000, 17:34:24.042
12, 34965.46, 22061.26, -187500.02, -187500.02, -187500.02, -187500.02, -187500.02, -187500.02, 0.000, 0.000, 0.000, 17:34:24.042
13, 35113.16, 22266.05, -187500.02, -187500.02, -187500.02, -187500.02, -187500.02, -187500.02, 0.000, 0.000, 0.000, 17:34:24.042
14, 35155.23, 22326.66, -187500.02, -187500.02, -187500.02, -187500.02, -187500.02, -187500.02, 0.000, 0.000, 0.000, 17:34:24.042
15, 35085.51, 22244.86, -187500.02, -187500.02, -187500.02, -187500.02, -187500.02, -187500.02, 0.000, 0.000, 0.000, 17:34:24.042
16, 34937.32, 22069.40, -187500.02, -187500.02, -187500.02, -187500.02, -187500.02, -187500.02, 0.000, 0.000, 0.000, 17:34:24.043
17, 34894.29, 22035.82, -187500.02, -187500.02, -187500.02, -187500.02, -187500.02, -187500.02, 0.000, 0.000, 0.000, 17:34:24.043
18, 35043.71, 22238.24, -187500.02, -187500.02, -187500.02, -187500.02, -187500.02, -187500.02, 0.004, -0.024, 1.026, 17:34:24.043
19, 35096.11, 22296.07, -187500.02, -187500.02, -187500.02, -187500.02, -187500.02, -187500.02, 0.000, 0.000, 0.000, 17:34:24.043
20, 35029.23, 22222.08, -187500.02, -187500.02, -187500.02, -187500.02, -187500.02, -187500.02, 0.000, 0.000, 0.000, 17:34:24.043
21, 34878.20, 22038.21, -187500.02, -187500.02, -187500.02, -187500.02, -187500.02, -187500.02, 0.000, 0.000, 0.000, 17:34:24.044
22, 34849.12, 22012.47, -187500.02, -187500.02, -187500.02, -187500.02, -187500.02, -187500.02, 0.000, 0.000, 0.000, 17:34:24.044
23, 35006.61, 22217.74, -187500.02, -187500.02, -187500.02, -187500.02, -187500.02, -187500.02, 0.000, 0.000, 0.000, 17:34:24.044
24, 35062.60, 22283.21, -187500.02, -187500.02, -187500.02, -187500.02, -187500.02, -187500.02, 0.000, 0.000, 0.000, 17:34:24.044
25, 35030.14, 22241.44, -187500.02, -187500.02, -187500.02, -187500.02, -187500.02, -187500.02, 0.000, 0.000, 0.000, 17:34:24.044
26, 34899.66, 22076.01, -187500.02, -187500.02, -187500.02, -187500.02, -187500.02, -187500.02, 0.000, 0.000, 0.000, 17:34:24.044
27, 34864.68, 22039.29, -187500.02, -187500.02, -187500.02, -187500.02, -187500.02, -187500.02, 0.000, 0.000, 0.000, 17:34:24.045
28, 35025.59, 22243.09, -187500.02, -187500.02, -187500.02, -187500.02, -187500.02, -187500.02, 0.002, -0.024, 1.022, 17:34:24.045
29, 35100.87, 22327.25, -187500.02, -187500.02, -187500.02, -187500.02, -187500.02, -187500.02, 0.000, 0.000, 0.000, 17:34:24.045
30, 35051.42, 22257.49, -187500.02, -187500.02, -187500.02, -187500.02, -187500.02, -187500.02, 0.000, 0.000, 0.000, 17:34:24.045
31, 34930.88, 22099.68, -187500.02, -187500.02, -187500.02, -187500.02, -187500.02, -187500.02, 0.000, 0.000, 0.000, 17:34:24.045
32, 34913.40, 22079.86, -187500.02, -187500.02, -187500.02, -187500.02, -187500.02, -187500.02, 0.000, 0.000, 0.000, 17:34:24.045
33, 35071.41, 22284.17, -187500.02, -187500.02, -187500.02, -187500.02, -187500.02, -187500.02, 0.000, 0.000, 0.000, 17:34:24.046
34, 35136.65, 22354.85, -187500.02, -187500.02, -187500.02, -187500.02, -187500.02, -187500.02, 0.000, 0.000, 0.000, 17:34:24.046
35, 35093.04, 22300.58, -187500.02, -187500.02, -187500.02, -187500.02, -187500.02, -187500.02, 0.000, 0.000, 0.000, 17:34:24.046
36, 34978.78, 22155.70, -187500.02, -187500.02, -187500.02, -187500.02, -187500.02, -187500.02, 0.000, 0.000, 0.000, 17:34:24.046
37, 34939.91, 22115.51, -187500.02, -187500.02, -187500.02, -187500.02, -187500.02, -187500.02, 0.000, 0.000, 0.000, 17:34:24.046
38, 35104.29, 22331.31, -187500.02, -187500.02, -187500.02, -187500.02, -187500.02, -187500.02, 0.000, -0.024, 1.022, 17:34:24.047
39, 35181.67, 22426.38, -187500.02, -187500.02, -187500.02, -187500.02, -187500.02, -187500.02, 0.000, 0.000, 0.000, 17:34:24.047
40, 35135.38, 22371.39, -187500.02, -187500.02, -187500.02, -187500.02, -187500.02, -187500.02, 0.000, 0.000, 0.000, 17:34:24.047
41, 35006.59, 22211.64, -187500.02, -187500.02, -187500.02, -187500.02, -187500.02, -187500.02, 0.000, 0.000, 0.000, 17:34:24.047
42, 34960.61, 22169.96, -187500.02, -187500.02, -187500.02, -187500.02, -187500.02, -187500.02, 0.000, 0.000, 0.000, 17:34:24.047
43, 35129.59, 22388.15, -187500.02, -187500.02, -187500.02, -187500.02, -187500.02, -187500.02, 0.000, 0.000, 0.000, 17:34:24.047
44, 35205.20, 22479.37, -187500.02, -187500.02, -187500.02, -187500.02, -187500.02, -187500.02, 0.000, 0.000, 0.000, 17:34:24.048
45, 35161.71, 22426.82, -187500.02, -187500.02, -187500.02, -187500.02, -187500.02, -187500.02, 0.000, 0.000, 0.000, 17:34:24.048
46, 35041.52, 22279.62, -187500.02, -187500.02, -187500.02, -187500.02, -187500.02, -187500.02, 0.000, 0.000, 0.000, 17:34:24.048
47, 35003.84, 22248.79, -187500.02, -187500.02, -187500.02, -187500.02, -187500.02, -187500.02, 0.000, 0.000, 0.000, 17:34:24.048
48, 35179.34, 22477.61, -187500.02, -187500.02, -187500.02, -187500.02, -187500.02, -187500.02, -0.006, -0.022, 1.024, 17:34:24.048
49, 35245.77, 22547.75, -187500.02, -187500.02, -187500.02, -187500.02, -187500.02, -187500.02, 0.000, 0.000, 0.000, 17:34:24.048
50, 35191.55, 22472.40, -187500.02, -187500.02, -187500.02, -187500.02, -187500.02, -187500.02, 0.000, 0.000, 0.000, 17:34:24.049
51, 35058.91, 22313.39, -187500.02, -187500.02, -187500.02, -187500.02, -187500.02, -187500.02, 0.000, 0.000, 0.000, 17:34:24.049
52, 35042.77, 22298.68, -187500.02, -187500.02, -187500.02, -187500.02, -187500.02, -187500.02, 0.000, 0.000, 0.000, 17:34:24.049
53, 35202.79, 22500.63, -187500.02, -187500.02, -187500.02, -187500.02, -187500.02, -187500.02, 0.000, 0.000, 0.000, 17:34:24.049
54, 35276.77, 22585.63, -187500.02, -187500.02, -187500.02, -187500.02, -187500.02, -187500.02, 0.000, 0.000, 0.000, 17:34:24.049
55, 35241.57, 22538.47, -187500.02, -187500.02, -187500.02, -187500.02, -187500.02, -187500.02, 0.000, 0.000, 0.000, 17:34:24.049
56, 35120.18, 22379.77, -187500.02, -187500.02, -187500.02, -187500.02, -187500.02, -187500.02, 0.000, 0.000, 0.000, 17:34:24.050
57, 35072.88, 22329.10, -187500.02, -187500.02, -187500.02, -187500.02, -187500.02, -187500.02, 0.000, 0.000, 0.000, 17:34:24.050
58, 35236.45, 22539.19, -187500.02, -187500.02, -187500.02, -187500.02, -187500.02, -187500.02, -0.002, -0.022, 1.026, 17:34:24.050
59, 35319.38, 22630.78, -187500.02, -187500.02, -187500.02, -187500.02, -187500.02, -187500.02, 0.000, 0.000, 0.000, 17:34:24.050
60, 35290.70, 22591.13, -187500.02, -187500.02, -187500.02, -187500.02, -187500.02, -187500.02, 0.000, 0.000, 0.000, 17:34:24.050
61, 35181.15, 22442.38, -187500.02, -187500.02, -187500.02, -187500.02, -187500.02, -187500.02, 0.000, 0.000, 0.000, 17:34:24.051
62, 35141.25, 22400.98, -187500.02, -187500.02, -187500.02, -187500.02, -187500.02, -187500.02, 0.000, 0.000, 0.000, 17:34:24.051
63, 35303.26, 22605.50, -187500.02, -187500.02, -187500.02, -187500.02, -187500.02, -187500.02, 0.000, 0.000, 0.000, 17:34:24.051
64, 35382.88, 22692.47, -187500.02, -187500.02, -187500.02, -187500.02, -187500.02, -187500.02, 0.000, 0.000, 0.000, 17:34:24.051
65, 35335.67, 22632.62, -187500.02, -187500.02, -187500.02, -187500.02, -187500.02, -187500.02, 0.000, 0.000, 0.000, 17:34:24.051
66, 35210.77, 22476.56, -187500.02, -187500.02, -187500.02, -187500.02, -187500.02, -187500.02, 0.000, 0.000, 0.000, 17:34:24.051
67, 35162.54, 22423.96, -187500.02, -187500.02, -187500.02, -187500.02, -187500.02, -187500.02, 0.000, 0.000, 0.000, 17:34:24.052
68, 35349.48, 22649.13, -187500.02, -187500.02, -187500.02, -187500.02, -187500.02, -187500.02, 0.002, -0.016, 1.022, 17:34:24.052
69, 35427.54, 22737.18, -187500.02, -187500.02, -187500.02, -187500.02, -187500.02, -187500.02, 0.000, 0.000, 0.000, 17:34:24.052
70, 35390.30, 22687.04, -187500.02, -187500.02, -187500.02, -187500.02, -187500.02, -187500.02, 0.000, 0.000, 0.000, 17:34:24.052
71, 35264.37, 22536.37, -187500.02, -187500.02, -187500.02, -187500.02, -187500.02, -187500.02, 0.000, 0.000, 0.000, 17:34:24.052
72, 35219.08, 22486.77, -187500.02, -187500.02, -187500.02, -187500.02, -187500.02, -187500.02, 0.000, 0.000, 0.000, 17:34:24.053
73, 35380.78, 22687.60, -187500.02, -187500.02, -187500.02, -187500.02, -187500.02, -187500.02, 0.000, 0.000, 0.000, 17:34:24.053
74, 35453.69, 22770.23, -187500.02, -187500.02, -187500.02, -187500.02, -187500.02, -187500.02, 0.000, 0.000, 0.000, 17:34:24.053
75, 35422.91, 22729.24, -187500.02, -187500.02, -187500.02, -187500.02, -187500.02, -187500.02, 0.000, 0.000, 0.000, 17:34:24.053
76, 35286.90, 22566.97, -187500.02, -187500.02, -187500.02, -187500.02, -187500.02, -187500.02, 0.000, 0.000, 0.000, 17:34:24.053
77, 35259.29, 22529.17, -187500.02, -187500.02, -187500.02, -187500.02, -187500.02, -187500.02, 0.000, 0.000, 0.000, 17:34:24.053
78, 35420.12, 22733.53, -187500.02, -187500.02, -187500.02, -187500.02, -187500.02, -187500.02, 0.006, -0.016, 1.022, 17:34:24.053
79, 35471.61, 22794.17, -187500.02, -187500.02, -187500.02, -187500.02, -187500.02, -187500.02, 0.000, 0.000, 0.000, 17:34:24.053
80, 35446.67, 22756.29, -187500.02, -187500.02, -187500.02, -187500.02, -187500.02, -187500.02, 0.000, 0.000, 0.000, 17:34:24.053
81, 35328.03, 22615.03, -187500.02, -187500.02, -187500.02, -187500.02, -187500.02, -187500.02, 0.000, 0.000, 0.000, 17:34:24.054
82, 35274.79, 22551.88, -187500.02, -187500.02, -187500.02, -187500.02, -187500.02, -187500.02, 0.000, 0.000, 0.000, 17:34:24.054
83, 35421.19, 22739.97, -187500.02, -187500.02, -187500.02, -187500.02, -187500.02, -187500.02, 0.000, 0.000, 0.000, 17:34:24.054
84, 35504.65, 22836.82, -187500.02, -187500.02, -187500.02, -187500.02, -187500.02, -187500.02, 0.000, 0.000, 0.000, 17:34:24.054
85, 35465.15, 22785.99, -187500.02, -187500.02, -187500.02, -187500.02, -187500.02, -187500.02, 0.000, 0.000, 0.000, 17:34:24.054
86, 35347.14, 22642.56, -187500.02, -187500.02, -187500.02, -187500.02, -187500.02, -187500.02, 0.000, 0.000, 0.000, 17:34:24.054
87, 35291.91, 22573.34, -187500.02, -187500.02, -187500.02, -187500.02, -187500.02, -187500.02, 0.000, 0.000, 0.000, 17:34:24.054
88, 35447.96, 22772.58, -187500.02, -187500.02, -187500.02, -187500.02, -187500.02, -187500.02, 0.002, -0.020, 1.018, 17:34:24.054
89, 35543.61, 22872.18, -187500.02, -187500.02, -187500.02, -187500.02, -187500.02, -187500.02, 0.000, 0.000, 0.000, 17:34:24.055
90, 35502.26, 22822.34, -187500.02, -187500.02, -187500.02, -187500.02, -187500.02, -187500.02, 0.000, 0.000, 0.000, 17:34:24.055
91, 35377.25, 22668.94, -187500.02, -187500.02, -187500.02, -187500.02, -187500.02, -187500.02, 0.000, 0.000, 0.000, 17:34:24.055
92, 35313.00, 22594.80, -187500.02, -187500.02, -187500.02, -187500.02, -187500.02, -187500.02, 0.000, 0.000, 0.000, 17:34:24.055
93, 35474.61, 22796.79, -187500.02, -187500.02, -187500.02, -187500.02, -187500.02, -187500.02, 0.000, 0.000, 0.000, 17:34:24.055
94, 35558.34, 22895.85, -187500.02, -187500.02, -187500.02, -187500.02, -187500.02, -187500.02, 0.000, 0.000, 0.000, 17:34:24.055
95, 35509.50, 22829.82, -187500.02, -187500.02, -187500.02, -187500.02, -187500.02, -187500.02, 0.000, 0.000, 0.000, 17:34:24.055
96, 35397.74, 22689.10, -187500.02, -187500.02, -187500.02, -187500.02, -187500.02, -187500.02, 0.000, 0.000, 0.000, 17:34:24.055
97, 35333.30, 22626.13, -187500.02, -187500.02, -187500.02, -187500.02, -187500.02, -187500.02, 0.000, 0.000, 0.000, 17:34:24.055
98, 35486.99, 22819.25, -187500.02, -187500.02, -187500.02, -187500.02, -187500.02, -187500.02, 0.006, -0.020, 1.020, 17:34:24.056
99, 35562.45, 22895.63, -187500.02, -187500.02, -187500.02, -187500.02, -187500.02, -187500.02, 0.000, 0.000, 0.000, 17:34:24.056
100, 35529.04, 22853.90, -187500.02, -187500.02, -187500.02, -187500.02, -187500.02, -187500.02, 0.000, 0.000, 0.000, 17:34:24.056
101, 35418.53, 22716.44, -187500.02, -187500.02, -187500.02, -187500.02, -187500.02, -187500.02, 0.000, 0.000, 0.000, 17:34:24.056
102, 35354.96, 22640.10, -187500.02, -187500.02, -187500.02, -187500.02, -187500.02, -187500.02, 0.000, 0.000, 0.000, 17:34:24.056
103, 35504.58, 22842.72, -187500.02, -187500.02, -187500.02, -187500.02, -187500.02, -187500.02, 0.000, 0.000, 0.000, 17:34:24.056
104, 35582.81, 22931.53, -187500.02, -187500.02, -187500.02, -187500.02, -187500.02, -187500.02, 0.000, 0.000, 0.000, 17:34:24.516
105, 35535.65, 22871.80, -187500.02, -187500.02, -187500.02, -187500.02, -187500.02, -187500.02, 0.000, 0.000, 0.000, 17:34:24.517
106, 35404.18, 22715.65, -187500.02, -187500.02, -187500.02, -187500.02, -187500.02, -187500.02, 0.000, 0.000, 0.000, 17:34:24.517
107, 35360.84, 22653.20, -187500.02, -187500.02, -187500.02, -187500.02, -187500.02, -187500.02, 0.010, -0.016, 1.018, 17:34:24.517
108, 35497.27, 22834.29, -187500.02, -187500.02, -187500.02, -187500.02, -187500.02, -187500.02, 0.000, 0.000, 0.000, 17:34:24.517
109, 35577.96, 22920.55, -187500.02, -187500.02, -187500.02, -187500.02, -187500.02, -187500.02, 0.000, 0.000, 0.000, 17:34:24.517
110, 35539.29, 22864.83, -187500.02, -187500.02, -187500.02, -187500.02, -187500.02, -187500.02, 0.000, 0.000, 0.000, 17:34:24.518
111, 35418.06, 22721.06, -187500.02, -187500.02, -187500.02, -187500.02, -187500.02, -187500.02, 0.000, 0.000, 0.000, 17:34:24.518
112, 35341.68, 22637.82, -187500.02, -187500.02, -187500.02, -187500.02, -187500.02, -187500.02, 0.000, 0.000, 0.000, 17:34:24.518
113, 35492.40, 22831.28, -187500.02, -187500.02, -187500.02, -187500.02, -187500.02, -187500.02, 0.000, 0.000, 0.000, 17:34:24.518
114, 35554.49, 22907.05, -187500.02, -187500.02, -187500.02, -187500.02, -187500.02, -187500.02, 0.000, 0.000, 0.000, 17:34:24.518
115, 35531.32, 22856.20, -187500.02, -187500.02, -187500.02, -187500.02, -187500.02, -187500.02, 0.000, 0.000, 0.000, 17:34:24.518
116, 35423.27, 22713.42, -187500.02, -187500.02, -187500.02, -187500.02, -187500.02, -187500.02, 0.000, 0.000, 0.000, 17:34:24.519
117, 35373.33, 22656.29, -187500.02, -187500.02, -187500.02, -187500.02, -187500.02, -187500.02, 0.008, -0.020, 1.024, 17:34:24.519
118, 35511.58, 22846.75, -187500.02, -187500.02, -187500.02, -187500.02, -187500.02, -187500.02, 0.000, 0.000, 0.000, 17:34:24.519
119, 35593.30, 22932.40, -187500.02, -187500.02, -187500.02, -187500.02, -187500.02, -187500.02, 0.000, 0.000, 0.000, 17:34:24.519
120, 35553.73, 22883.00, -187500.02, -187500.02, -187500.02, -187500.02, -187500.02, -187500.02, 0.000, 0.000, 0.000, 17:34:24.519
121, 35430.55, 22730.70, -187500.02, -187500.02, -187500.02, -187500.02, -187500.02, -187500.02, 0.000, 0.000, 0.000, 17:34:24.520
122, 35377.87, 22672.29, -187500.02, -187500.02, -187500.02, -187500.02, -187500.02, -187500.02, 0.000, 0.000, 0.000, 17:34:24.520
123, 35549.13, 22880.38, -187500.02, -187500.02, -187500.02, -187500.02, -187500.02, -187500.02, 0.000, 0.000, 0.000, 17:34:24.520
124, 35608.18, 22970.04, -187500.02, -187500.02, -187500.02, -187500.02, -187500.02, -187500.02, 0.000, 0.000, 0.000, 17:34:24.520
125, 35556.55, 22899.65, -187500.02, -187500.02, -187500.02, -187500.02, -187500.02, -187500.02, 0.000, 0.000, 0.000, 17:34:24.520
126, 35486.16, 22771.87, -187500.02, -187500.02, -187500.02, -187500.02, -187500.02, -187500.02, 0.000, 0.000, 0.000, 17:34:24.520
127, 35419.49, 22693.05, -187500.02, -187500.02, -187500.02, -187500.02, -187500.02, -187500.02, 0.006, -0.014, 1.024, 17:34:24.520
128, 35570.86, 22896.25, -187500.02, -187500.02, -187500.02, -187500.02, -187500.02, -187500.02, 0.000, 0.000, 0.000, 17:34:24.521
129, 35648.21, 22978.89, -187500.02, -187500.02, -187500.02, -187500.02, -187500.02, -187500.02, 0.000, 0.000, 0.000, 17:34:24.521
130, 35599.44, 22895.07, -187500.02, -187500.02, -187500.02, -187500.02, -187500.02, -187500.02, 0.000, 0.000, 0.000, 17:34:24.521
131, 35518.22, 22795.87, -187500.02, -187500.02, -187500.02, -187500.02, -187500.02, -187500.02, 0.000, 0.000, 0.000, 17:34:24.521
132, 35420.43, 22699.94, -187500.02, -187500.02, -187500.02, -187500.02, -187500.02, -187500.02, 0.000, 0.000, 0.000, 17:34:24.521
133, 35578.23, 22885.68, -187500.02, -187500.02, -187500.02, -187500.02, -187500.02, -187500.02, 0.000, 0.000, 0.000, 17:34:24.521
134, 35671.19, 22984.52, -187500.02, -187500.02, -187500.02, -187500.02, -187500.02, -187500.02, 0.000, 0.000, 0.000, 17:34:24.521
135, 35614.40, 22930.36, -187500.02, -187500.02, -187500.02, -187500.02, -187500.02, -187500.02, 0.000, 0.000, 0.000, 17:34:24.521
136, 35516.79, 22807.54, -187500.02, -187500.02, -187500.02, -187500.02, -187500.02, -187500.02, 0.000, 0.000, 0.000, 17:34:24.521
137, 35476.31, 22745.98, -187500.02, -187500.02, -187500.02, -187500.02, -187500.02, -187500.02, 0.008, -0.018, 1.028, 17:34:24.522
138, 35611.91, 22924.98, -187500.02, -187500.02, -187500.02, -187500.02, -187500.02, -187500.02, 0.000, 0.000, 0.000, 17:34:24.522
139, 35699.00, 23032.91, -187500.02, -187500.02, -187500.02, -187500.02, -187500.02, -187500.02, 0.000, 0.000, 0.000, 17:34:24.522
140, 35678.28, 22995.76, -187500.02, -187500.02, -187500.02, -187500.02, -187500.02, -187500.02, 0.000, 0.000, 0.000, 17:34:24.522
141, 35525.70, 22826.21, -187500.02, -187500.02, -187500.02, -187500.02, -187500.02, -187500.02, 0.000, 0.000, 0.000, 17:34:24.522
142, 35417.86, 22702.31, -187500.02, -187500.02, -187500.02, -187500.02, -187500.02, -187500.02, 0.000, 0.000, 0.000, 17:34:24.523
143, 35531.96, 22871.20, -187500.02, -187500.02, -187500.02, -187500.02, -187500.02, -187500.02, 0.000, 0.000, 0.000, 17:34:24.523
144, 35625.44, 22979.25, -187500.02, -187500.02, -187500.02, -187500.02, -187500.02, -187500.02, 0.000, 0.000, 0.000, 17:34:24.523
145, 35671.62, 22992.59, -187500.02, -187500.02, -187500.02, -187500.02, -187500.02, -187500.02, 0.000, 0.000, 0.000, 17:34:24.523
146, 35502.01, 22803.45, -187500.02, -187500.02, -187500.02, -187500.02, -187500.02, -187500.02, 0.000, 0.000, 0.000, 17:34:24.523
147, 35453.46, 22725.53, -187500.02, -187500.02, -187500.02, -187500.02, -187500.02, -187500.02, 0.008, -0.016, 1.018, 17:34:24.524
148, 35631.32, 22962.71, -187500.02, -187500.02, -187500.02, -187500.02, -187500.02, -187500.02, 0.000, 0.000, 0.000, 17:34:24.524
149, 35688.20, 23049.59, -187500.02, -187500.02, -187500.02, -187500.02, -187500.02, -187500.02, 0.000, 0.000, 0.000, 17:34:24.524
150, 35590.41, 22959.91, -187500.02, -187500.02, -187500.02, -187500.02, -187500.02, -187500.02, 0.000, 0.000, 0.000, 17:34:24.524
151, 35544.61, 22838.63, -187500.02, -187500.02, -187500.02, -187500.02, -187500.02, -187500.02, 0.000, 0.000, 0.000, 17:34:24.524
152, 35446.36, 22756.13, -187500.02, -187500.02, -187500.02, -187500.02, -187500.02, -187500.02, 0.000, 0.000, 0.000, 17:34:24.524
153, 35574.16, 22929.71, -187500.02, -187500.02, -187500.02, -187500.02, -187500.02, -187500.02, 0.000, 0.000, 0.000, 17:34:24.525
154, 35716.54, 23064.99, -187500.02, -187500.02, -187500.02, -187500.02, -187500.02, -187500.02, 0.000, 0.000, 0.000, 17:34:24.525
155, 35699.54, 23028.60, -187500.02, -187500.02, -187500.02, -187500.02, -187500.02, -187500.02, 0.000, 0.000, 0.000, 17:34:24.525
156, 35554.56, 22873.68, -187500.02, -187500.02, -187500.02, -187500.02, -187500.02, -187500.02, 0.000, 0.000, 0.000, 17:34:24.525
157, 35486.66, 22804.23, -187500.02, -187500.02, -187500.02, -187500.02, -187500.02, -187500.02, 0.008, -0.018, 1.022, 17:34:24.525
158, 35591.75, 22949.18, -187500.02, -187500.02, -187500.02, -187500.02, -187500.02, -187500.02, 0.000, 0.000, 0.000, 17:34:24.526
159, 35680.25, 23038.23, -187500.02, -187500.02, -187500.02, -187500.02, -187500.02, -187500.02, 0.000, 0.000, 0.000, 17:34:24.526
160, 35645.18, 22986.49, -187500.02, -187500.02, -187500.02, -187500.02, -187500.02, -187500.02, 0.000, 0.000, 0.000, 17:34:24.526
161, 35508.89, 22843.17, -187500.02, -187500.02, -187500.02, -187500.02, -187500.02, -187500.02, 0.000, 0.000, 0.000, 17:34:24.526
162, 35467.03, 22784.05, -187500.02, -187500.02, -187500.02, -187500.02, -187500.02, -187500.02, 0.000, 0.000, 0.000, 17:34:24.526
163, 35629.04, 22988.10, -187500.02, -187500.02, -187500.02, -187500.02, -187500.02, -187500.02, 0.000, 0.000, 0.000, 17:34:24.526
164, 35709.77, 23090.42, -187500.02, -187500.02, -187500.02, -187500.02, -187500.02, -187500.02, 0.000, 0.000, 0.000, 17:34:24.526
165, 35625.91, 22991.85, -187500.02, -187500.02, -187500.02, -187500.02, -187500.02, -187500.02, 0.000, 0.000, 0.000, 17:34:24.527
166, 35525.26, 22870.86, -187500.02, -187500.02, -187500.02, -187500.02, -187500.02, -187500.02, 0.000, 0.000, 0.000, 17:34:24.527
167, 35475.19, 22809.24, -187500.02, -187500.02, -187500.02, -187500.02, -187500.02, -187500.02, 0.006, -0.022, 1.022, 17:34:24.527
168, 35603.09, 22980.36, -187500.02, -187500.02, -187500.02, -187500.02, -187500.02, -187500.02, 0.000, 0.000, 0.000, 17:34:24.527
169, 35689.01, 23078.33, -187500.02, -187500.02, -187500.02, -187500.02, -187500.02, -187500.02, 0.000, 0.000, 0.000, 17:34:24.527
170, 35680.71, 23051.00, -187500.02, -187500.02, -187500.02, -187500.02, -187500.02, -187500.02, 0.000, 0.000, 0.000, 17:34:24.527
171, 35565.54, 22914.83, -187500.02, -187500.02, -187500.02, -187500.02, -187500.02, -187500.02, 0.000, 0.000, 0.000, 17:34:24.528
172, 35456.39, 22783.60, -187500.02, -187500.02, -187500.02, -187500.02, -187500.02, -187500.02, 0.000, 0.000, 0.000, 17:34:24.528
173, 35580.71, 22954.86, -187500.02, -187500.02, -187500.02, -187500.02, -187500.02, -187500.02, 0.000, 0.000, 0.000, 17:34:24.528
174, 35674.95, 23055.55, -187500.02, -187500.02, -187500.02, -187500.02, -187500.02, -187500.02, 0.000, 0.000, 0.000, 17:34:24.528
175, 35616.86, 23025.45, -187500.02, -187500.02, -187500.02, -187500.02, -187500.02, -187500.02, 0.000, 0.000, 0.000, 17:34:24.528
176, 35513.48, 22875.09, -187500.02, -187500.02, -187500.02, -187500.02, -187500.02, -187500.02, 0.000, 0.000, 0.000, 17:34:24.528
177, 35474.18, 22815.68, -187500.02, -187500.02, -187500.02, -187500.02, -187500.02, -187500.02, 0.006, -0.020, 1.024, 17:34:24.529
178, 35599.91, 22994.51, -187500.02, -187500.02, -187500.02, -187500.02, -187500.02, -187500.02, 0.000, 0.000, 0.000, 17:34:24.529
179, 35668.09, 23095.79, -187500.02, -187500.02, -187500.02, -187500.02, -187500.02, -187500.02, 0.000, 0.000, 0.000, 17:34:24.529
180, 35669.83, 23072.07, -187500.02, -187500.02, -187500.02, -187500.02, -187500.02, -187500.02, 0.000, 0.000, 0.000, 17:34:24.529
181, 35558.23, 22924.06, -187500.02, -187500.02, -187500.02, -187500.02, -187500.02, -187500.02, 0.000, 0.000, 0.000, 17:34:24.529
182, 35469.80, 22841.43, -187500.02, -187500.02, -187500.02, -187500.02, -187500.02, -187500.02, 0.000, 0.000, 0.000, 17:34:24.530
183, 35594.10, 22996.68, -187500.02, -187500.02, -187500.02, -187500.02, -187500.02, -187500.02, 0.000, 0.000, 0.000, 17:34:24.530
184, 35697.61, 23107.41, -187500.02, -187500.02, -187500.02, -187500.02, -187500.02, -187500.02, 0.000, 0.000, 0.000, 17:34:24.530
185, 35653.80, 23070.35, -187500.02, -187500.02, -187500.02, -187500.02, -187500.02, -187500.02, 0.000, 0.000, 0.000, 17:34:24.530
186, 35530.29, 22927.95, -187500.02, -187500.02, -187500.02, -187500.02, -187500.02, -187500.02, 0.000, 0.000, 0.000, 17:34:24.530
187, 35469.27, 22852.29, -187500.02, -187500.02, -187500.02, -187500.02, -187500.02, -187500.02, 0.012, -0.022, 1.022, 17:34:24.530
188, 35584.56, 22983.34, -187500.02, -187500.02, -187500.02, -187500.02, -187500.02, -187500.02, 0.000, 0.000, 0.000, 17:34:24.531
189, 35673.36, 23092.57, -187500.02, -187500.02, -187500.02, -187500.02, -187500.02, -187500.02, 0.000, 0.000, 0.000, 17:34:24.531
190, 35647.43, 23053.32, -187500.02, -187500.02, -187500.02, -187500.02, -187500.02, -187500.02, 0.000, 0.000, 0.000, 17:34:24.531
191, 35560.26, 22947.98, -187500.02, -187500.02, -187500.02, -187500.02, -187500.02, -187500.02, 0.000, 0.000, 0.000, 17:34:24.531
192, 35470.38, 22844.02, -187500.02, -187500.02, -187500.02, -187500.02, -187500.02, -187500.02, 0.000, 0.000, 0.000, 17:34:24.531
193, 35577.63, 22960.18, -187500.02, -187500.02, -187500.02, -187500.02, -187500.02, -187500.02, 0.000, 0.000, 0.000, 17:34:24.531
194, 35672.78, 23085.91, -187500.02, -187500.02, -187500.02, -187500.02, -187500.02, -187500.02, 0.000, 0.000, 0.000, 17:34:24.532
195, 35645.33, 23066.73, -187500.02, -187500.02, -187500.02, -187500.02, -187500.02, -187500.02, 0.000, 0.000, 0.000, 17:34:24.532
196, 35541.75, 22930.83, -187500.02, -187500.02, -187500.02, -187500.02, -187500.02, -187500.02, 0.000, 0.000, 0.000, 17:34:24.532
197, 35477.98, 22855.19, -187500.02, -187500.02, -187500.02, -187500.02, -187500.02, -187500.02, 0.006, -0.020, 1.020, 17:34:24.532
198, 35599.69, 22991.76, -187500.02, -187500.02, -187500.02, -187500.02, -187500.02, -187500.02, 0.000, 0.000, 0.000, 17:34:24.532
199, 35673.79, 23098.20, -187500.02, -187500.02, -187500.02, -187500.02, -187500.02, -187500.02, 0.000, 0.000, 0.000, 17:34:24.532
200, 35640.10, 23058.17, -187500.02, -187500.02, -187500.02, -187500.02, -187500.02, -187500.02, 0.000, 0.000, 0.000, 17:34:24.533
201, 35550.98, 22938.77, -187500.02, -187500.02, -187500.02, -187500.02, -187500.02, -187500.02, 0.000, 0.000, 0.000, 17:34:24.533
202, 35473.40, 22860.18, -187500.02, -187500.02, -187500.02, -187500.02, -187500.02, -187500.02, 0.000, 0.000, 0.000, 17:34:24.533
203, 35589.43, 22979.63, -187500.02, -187500.02, -187500.02, -187500.02, -187500.02, -187500.02, 0.000, 0.000, 0.000, 17:34:24.533
204, 35667.53, 23068.77, -187500.02, -187500.02, -187500.02, -187500.02, -187500.02, -187500.02, 0.000, 0.000, 0.000, 17:34:24.533
205, 35655.17, 23085.75, -187500.02, -187500.02, -187500.02, -187500.02, -187500.02, -187500.02, 0.000, 0.000, 0.000, 17:34:24.534
206, 35548.68, 22952.22, -187500.02, -187500.02, -187500.02, -187500.02, -187500.02, -187500.02, 0.000, 0.000, 0.000, 17:34:24.534
207, 35484.31, 22861.03, -187500.02, -187500.02, -187500.02, -187500.02, -187500.02, -187500.02, 0.012, -0.024, 1.022, 17:34:24.534
208, 35596.58, 22993.93, -187500.02, -187500.02, -187500.02, -187500.02, -187500.02, -187500.02, 0.000, 0.000, 0.000, 17:34:24.534
209, 35672.94, 23112.87, -187500.02, -187500.02, -187500.02, -187500.02, -187500.02, -187500.02, 0.000, 0.000, 0.000, 17:34:24.534
210, 35643.52, 23073.95, -187500.02, -187500.02, -187500.02, -187500.02, -187500.02, -187500.02, 0.000, 0.000, 0.000, 17:34:24.534
211, 35545.26, 22948.85, -187500.02, -187500.02, -187500.02, -187500.02, -187500.02, -187500.02, 0.000, 0.000, 0.000, 17:34:24.535
212, 35457.64, 22818.40, -187500.02, -187500.02, -187500.02, -187500.02, -187500.02, -187500.02, 0.000, 0.000, 0.000, 17:34:24.535
213, 35580.76, 23019.39, -187500.02, -187500.02, -187500.02, -187500.02, -187500.02, -187500.02, 0.000, 0.000, 0.000, 17:34:24.535
214, 35691.84, 23139.55, -187500.02, -187500.02, -187500.02, -187500.02, -187500.02, -187500.02, 0.000, 0.000, 0.000, 17:34:24.535
215, 35660.53, 23092.28, -187500.02, -187500.02, -187500.02, -187500.02, -187500.02, -187500.02, 0.000, 0.000, 0.000, 17:34:24.535
216, 35543.16, 22938.70, -187500.02, -187500.02, -187500.02, -187500.02, -187500.02, -187500.02, 0.000, 0.000, 0.000, 17:34:24.536
217, 35462.50, 22832.06, -187500.02, -187500.02, -187500.02, -187500.02, -187500.02, -187500.02, 0.012, -0.014, 1.022, 17:34:24.536
218, 35577.96, 22989.86, -187500.02, -187500.02, -187500.02, -187500.02, -187500.02, -187500.02, 0.000, 0.000, 0.000, 17:34:24.536
219, 35664.89, 23099.52, -187500.02, -187500.02, -187500.02, -187500.02, -187500.02, -187500.02, 0.000, 0.000, 0.000, 17:34:24.536
220, 35642.18, 23058.66, -187500.02, -187500.02, -187500.02, -187500.02, -187500.02, -187500.02, 0.000, 0.000, 0.000, 17:34:24.536
221, 35553.11, 22965.50, -187500.02, -187500.02, -187500.02, -187500.02, -187500.02, -187500.02, 0.000, 0.000, 0.000, 17:34:24.536
222, 35470.94, 22855.15, -187500.02, -187500.02, -187500.02, -187500.02, -187500.02, -187500.02, 0.000, 0.000, 0.000, 17:34:24.537
223, 35580.02, 22987.83, -187500.02, -187500.02, -187500.02, -187500.02, -187500.02, -187500.02, 0.000, 0.000, 0.000, 17:34:24.537
224, 35667.97, 23100.93, -187500.02, -187500.02, -187500.02, -187500.02, -187500.02, -187500.02, 0.000, 0.000, 0.000, 17:34:24.998
225, 35642.22, 23047.31, -187500.02, -187500.02, -187500.02, -187500.02, -187500.02, -187500.02, 0.000, 0.000, 0.000, 17:34:24.998
226, 35536.84, 22946.63, -187500.02, -187500.02, -187500.02, -187500.02, -187500.02, -187500.02, 0.006, -0.016, 1.024, 17:34:24.998
227, 35455.30, 22841.36, -187500.02, -187500.02, -187500.02, -187500.02, -187500.02, -187500.02, 0.000, 0.000, 0.000, 17:34:24.998
228, 35576.96, 23012.71, -187500.02, -187500.02, -187500.02, -187500.02, -187500.02, -187500.02, 0.000, 0.000, 0.000, 17:34:24.998
229, 35655.34, 23096.79, -187500.02, -187500.02, -187500.02, -187500.02, -187500.02, -187500.02, 0.000, 0.000, 0.000, 17:34:24.999
230, 35629.91, 23066.31, -187500.02, -187500.02, -187500.02, -187500.02, -187500.02, -187500.02, 0.000, 0.000, 0.000, 17:34:24.999
231, 35547.59, 22974.71, -187500.02, -187500.02, -187500.02, -187500.02, -187500.02, -187500.02, 0.000, 0.000, 0.000, 17:34:24.999
232, 35463.81, 22872.05, -187500.02, -187500.02, -187500.02, -187500.02, -187500.02, -187500.02, 0.000, 0.000, 0.000, 17:34:24.999
233, 35573.71, 23015.50, -187500.02, -187500.02, -187500.02, -187500.02, -187500.02, -187500.02, 0.000, 0.000, 0.000, 17:34:25.000
234, 35656.48, 23117.47, -187500.02, -187500.02, -187500.02, -187500.02, -187500.02, -187500.02, 0.000, 0.000, 0.000, 17:34:25.000
235, 35632.46, 23070.87, -187500.02, -187500.02, -187500.02, -187500.02, -187500.02, -187500.02, 0.000, 0.000, 0.000, 17:34:25.000
236, 35537.21, 22960.00, -187500.02, -187500.02, -187500.02, -187500.02, -187500.02, -187500.02, 0.006, -0.012, 1.024, 17:34:25.000
237, 35448.39, 22861.27, -187500.02, -187500.02, -187500.02, -187500.02, -187500.02, -187500.02, 0.000, 0.000, 0.000, 17:34:25.000
238, 35551.68, 22990.36, -187500.02, -187500.02, -187500.02, -187500.02, -187500.02, -187500.02, 0.000, 0.000, 0.000, 17:34:25.001
239, 35636.68, 23103.52, -187500.02, -187500.02, -187500.02, -187500.02, -187500.02, -187500.02, 0.000, 0.000, 0.000, 17:34:25.001
240, 35621.28, 23078.80, -187500.02, -187500.02, -187500.02, -187500.02, -187500.02, -187500.02, 0.000, 0.000, 0.000, 17:34:25.001
241, 35540.30, 22963.18, -187500.02, -187500.02, -187500.02, -187500.02, -187500.02, -187500.02, 0.000, 0.000, 0.000, 17:34:25.001
242, 35442.22, 22847.46, -187500.02, -187500.02, -187500.02, -187500.02, -187500.02, -187500.02, 0.000, 0.000, 0.000, 17:34:25.001
243, 35553.45, 22992.43, -187500.02, -187500.02, -187500.02, -187500.02, -187500.02, -187500.02, 0.000, 0.000, 0.000, 17:34:25.001
244, 35650.54, 23123.50, -187500.02, -187500.02, -187500.02, -187500.02, -187500.02, -187500.02, 0.000, 0.000, 0.000, 17:34:25.002
245, 35617.32, 23077.93, -187500.02, -187500.02, -187500.02, -187500.02, -187500.02, -187500.02, 0.000, 0.000, 0.000, 17:34:25.002
246, 35524.18, 22954.46, -187500.02, -187500.02, -187500.02, -187500.02, -187500.02, -187500.02, 0.004, -0.018, 1.016, 17:34:25.002
247, 35441.42, 22850.59, -187500.02, -187500.02, -187500.02, -187500.02, -187500.02, -187500.02, 0.000, 0.000, 0.000, 17:34:25.002
248, 35547.61, 22994.40, -187500.02, -187500.02, -187500.02, -187500.02, -187500.02, -187500.02, 0.000, 0.000, 0.000, 17:34:25.002
249, 35658.50, 23128.85, -187500.02, -187500.02, -187500.02, -187500.02, -187500.02, -187500.02, 0.000, 0.000, 0.000, 17:34:25.002
250, 35618.62, 23078.31, -187500.02, -187500.02, -187500.02, -187500.02, -187500.02, -187500.02, 0.000, 0.000, 0.000, 17:34:25.003
251, 35509.84, 22944.27, -187500.02, -187500.02, -187500.02, -187500.02, -187500.02, -187500.02, 0.000, 0.000, 0.000, 17:34:25.003
252, 35423.29, 22839.37, -187500.02, -187500.02, -187500.02, -187500.02, -187500.02, -187500.02, 0.000, 0.000, 0.000, 17:34:25.003
253, 35523.27, 22977.88, -187500.02, -187500.02, -187500.02, -187500.02, -187500.02, -187500.02, 0.000, 0.000, 0.000, 17:34:25.003
254, 35618.98, 23096.86, -187500.02, -187500.02, -187500.02, -187500.02, -187500.02, -187500.02, 0.000, 0.000, 0.000, 17:34:25.003
255, 35602.89, 23075.58, -187500.02, -187500.02, -187500.02, -187500.02, -187500.02, -187500.02, 0.000, 0.000, 0.000, 17:34:25.004
0, 35515.76, 22963.15, -187500.02, -187500.02, -187500.02, -187500.02, -187500.02, -187500.02, 0.000, -0.024, 1.016, 17:34:25.004
1, 35423.91, 22852.33, -187500.02, -187500.02, -187500.02, -187500.02, -187500.02, -187500.02, 0.000, 0.000, 0.000, 17:34:25.004
2, 35545.98, 23009.85, -187500.02, -187500.02, -187500.02, -187500.02, -187500.02, -187500.02, 0.000, 0.000, 0.000, 17:34:25.004
3, 35645.29, 23130.99, -187500.02, -187500.02, -187500.02, -187500.02, -187500.02, -187500.02, 0.000, 0.000, 0.000, 17:34:25.004
4, 35607.13, 23089.75, -187500.02, -187500.02, -187500.02, -187500.02, -187500.02, -187500.02, 0.000, 0.000, 0.000, 17:34:25.004
5, 35498.91, 22960.70, -187500.02, -187500.02, -187500.02, -187500.02, -187500.02, -187500.02, 0.000, 0.000, 0.000, 17:34:25.005
6, 35395.19, 22835.73, -187500.02, -187500.02, -187500.02, -187500.02, -187500.02, -187500.02, 0.000, 0.000, 0.000, 17:34:25.005
7, 35508.49, 22977.39, -187500.02, -187500.02, -187500.02, -187500.02, -187500.02, -187500.02, 0.000, 0.000, 0.000, 17:34:25.005
8, 35639.09, 23132.24, -187500.02, -187500.02, -187500.02, -187500.02, -187500.02, -187500.02, 0.000, 0.000, 0.000, 17:34:25.005
9, 35607.29, 23098.20, -187500.02, -187500.02, -187500.02, -187500.02, -187500.02, -187500.02, 0.000, 0.000, 0.000, 17:34:25.005
10, 35477.94, 22946.59, -187500.02, -187500.02, -187500.02, -187500.02, -187500.02, -187500.02, 0.004, -0.024, 1.022, 17:34:25.006
11, 35379.32, 22825.85, -187500.02, -187500.02, -187500.02, -187500.02, -187500.02, -187500.02, 0.000, 0.000, 0.000, 17:34:25.006
12, 35489.56, 22967.80, -187500.02, -187500.02, -187500.02, -187500.02, -187500.02, -187500.02, 0.000, 0.000, 0.000, 17:34:25.006
13, 35591.60, 23094.07, -187500.02, -187500.02, -187500.02, -187500.02, -187500.02, -187500.02, 0.000, 0.000, 0.000, 17:34:25.006
14, 35568.75, 23061.01, -187500.02, -187500.02, -187500.02, -187500.02, -187500.02, -187500.02, 0.000, 0.000, 0.000, 17:34:25.006
15, 35464.13, 22931.41, -187500.02, -187500.02, -187500.02, -187500.02, -187500.02, -187500.02, 0.000, 0.000, 0.000, 17:34:25.007
16, 35384.98, 22831.21, -187500.02, -187500.02, -187500.02, -187500.02, -187500.02, -187500.02, 0.000, 0.000, 0.000, 17:34:25.007
17, 35495.15, 22977.68, -187500.02, -187500.02, -187500.02, -187500.02, -187500.02, -187500.02, 0.000, 0.000, 0.000, 17:34:25.007
18, 35583.15, 23087.27, -187500.02, -187500.02, -187500.02, -187500.02, -187500.02, -187500.02, 0.000, 0.000, 0.000, 17:34:25.007
19, 35557.33, 23051.76, -187500.02, -187500.02, -187500.02, -187500.02, -187500.02, -187500.02, 0.000, 0.000, 0.000, 17:34:25.007
20, 35469.38, 22940.85, -187500.02, -187500.02, -187500.02, -187500.02, -187500.02, -187500.02, 0.004, -0.024, 1.030, 17:34:25.007
21, 35376.57, 22827.37, -187500.02, -187500.02, -187500.02, -187500.02, -187500.02, -187500.02, 0.000, 0.000, 0.000, 17:34:25.008
22, 35481.92, 22967.74, -187500.02, -187500.02, -187500.02, -187500.02, -187500.02, -187500.02, 0.000, 0.000, 0.000, 17:34:25.008
23, 35574.88, 23087.72, -187500.02, -187500.02, -187500.02, -187500.02, -187500.02, -187500.02, 0.000, 0.000, 0.000, 17:34:25.008
24, 35541.02, 23044.09, -187500.02, -187500.02, -187500.02, -187500.02, -187500.02, -187500.02, 0.000, 0.000, 0.000, 17:34:25.008
25, 35447.50, 22925.13, -187500.02, -187500.02, -187500.02, -187500.02, -187500.02, -187500.02, 0.000, 0.000, 0.000, 17:34:25.008
26, 35344.25, 22800.88, -187500.02, -187500.02, -187500.02, -187500.02, -187500.02, -187500.02, 0.000, 0.000, 0.000, 17:34:25.008
27, 35454.40, 22946.05, -187500.02, -187500.02, -187500.02, -187500.02, -187500.02, -187500.02, 0.000, 0.000, 0.000, 17:34:25.009
28, 35559.41, 23072.28, -187500.02, -187500.02, -187500.02, -187500.02, -187500.02, -187500.02, 0.000, 0.000, 0.000, 17:34:25.009
29, 35550.54, 23060.03, -187500.02, -187500.02, -187500.02, -187500.02, -187500.02, -187500.02, 0.000, 0.000, 0.000, 17:34:25.009
30, 35453.42, 22941.40, -187500.02, -187500.02, -187500.02, -187500.02, -187500.02, -187500.02, 0.002, -0.022, 1.038, 17:34:25.009
31, 35338.78, 22810.38, -187500.02, -187500.02, -187500.02, -187500.02, -187500.02, -187500.02, 0.000, 0.000, 0.000, 17:34:25.009
32, 35434.75, 22942.70, -187500.02, -187500.02, -187500.02, -187500.02, -187500.02, -187500.02, 0.000, 0.000, 0.000, 17:34:25.009
33, 35529.75, 23056.96, -187500.02, -187500.02, -187500.02, -187500.02, -187500.02, -187500.02, 0.000, 0.000, 0.000, 17:34:25.010
34, 35493.07, 23007.72, -187500.02, -187500.02, -187500.02, -187500.02, -187500.02, -187500.02, 0.000, 0.000, 0.000, 17:34:25.010
35, 35382.32, 22876.52, -187500.02, -187500.02, -187500.02, -187500.02, -187500.02, -187500.02, 0.000, 0.000, 0.000, 17:34:25.010
36, 35271.70, 22742.92, -187500.02, -187500.02, -187500.02, -187500.02, -187500.02, -187500.02, 0.000, 0.000, 0.000, 17:34:25.010
37, 35389.65, 22898.42, -187500.02, -187500.02, -187500.02, -187500.02, -187500.02, -187500.02, 0.000, 0.000, 0.000, 17:34:25.010
38, 35497.56, 23033.18, -187500.02, -187500.02, -187500.02, -187500.02, -187500.02, -187500.02, 0.000, 0.000, 0.000, 17:34:25.010
39, 35467.50, 22990.11, -187500.02, -187500.02, -187500.02, -187500.02, -187500.02, -187500.02, 0.000, 0.000, 0.000, 17:34:25.011
40, 35372.19, 22867.35, -187500.02, -187500.02, -187500.02, -187500.02, -187500.02, -187500.02, 0.006, -0.018, 1.032, 17:34:25.011
41, 35271.68, 22748.46, -187500.02, -187500.02, -187500.02, -187500.02, -187500.02, -187500.02, 0.000, 0.000, 0.000, 17:34:25.011
42, 35394.16, 22909.06, -187500.02, -187500.02, -187500.02, -187500.02, -187500.02, -187500.02, 0.000, 0.000, 0.000, 17:34:25.011
43, 35522.73, 23059.62, -187500.02, -187500.02, -187500.02, -187500.02, -187500.02, -187500.02, 0.000, 0.000, 0.000, 17:34:25.011
44, 35493.07, 23020.15, -187500.02, -187500.02, -187500.02, -187500.02, -187500.02, -187500.02, 0.000, 0.000, 0.000, 17:34:25.011
45, 35393.25, 22895.63, -187500.02, -187500.02, -187500.02, -187500.02, -187500.02, -187500.02, 0.000, 0.000, 0.000, 17:34:25.012
46, 35285.31, 22765.99, -187500.02, -187500.02, -187500.02, -187500.02, -187500.02, -187500.02, 0.000, 0.000, 0.000, 17:34:25.012
47, 35407.31, 22920.19, -187500.02, -187500.02, -187500.02, -187500.02, -187500.02, -187500.02, 0.000, 0.000, 0.000, 17:34:25.012
48, 35527.65, 23066.80, -187500.02, -187500.02, -187500.02, -187500.02, -187500.02, -187500.02, 0.000, 0.000, 0.000, 17:34:25.012
49, 35489.81, 23019.79, -187500.02, -187500.02, -187500.02, -187500.02, -187500.02, -187500.02, 0.000, 0.000, 0.000, 17:34:25.012
50, 35378.90, 22887.16, -187500.02, -187500.02, -187500.02, -187500.02, -187500.02, -187500.02, 0.004, -0.018, 1.022, 17:34:25.012
51, 35277.00, 22766.84, -187500.02, -187500.02, -187500.02, -187500.02, -187500.02, -187500.02, 0.000, 0.000, 0.000, 17:34:25.013
52, 35383.59, 22906.04, -187500.02, -187500.02, -187500.02, -187500.02, -187500.02, -187500.02, 0.000, 0.000, 0.000, 17:34:25.013
53, 35484.09, 23029.54, -187500.02, -187500.02, -187500.02, -187500.02, -187500.02, -187500.02, 0.000, 0.000, 0.000, 17:34:25.013
54, 35450.83, 22985.44, -187500.02, -187500.02, -187500.02, -187500.02, -187500.02, -187500.02, 0.000, 0.000, 0.000, 17:34:25.013
55, 35340.07, 22853.96, -187500.02, -187500.02, -187500.02, -187500.02, -187500.02, -187500.02, 0.000, 0.000, 0.000, 17:34:25.013
56, 35247.79, 22739.35, -187500.02, -187500.02, -187500.02, -187500.02, -187500.02, -187500.02, 0.000, 0.000, 0.000, 17:34:25.013
57, 35369.98, 22895.14, -187500.02, -187500.02, -187500.02, -187500.02, -187500.02, -187500.02, 0.000, 0.000, 0.000, 17:34:25.014
58, 35495.39, 23038.05, -187500.02, -187500.02, -187500.02, -187500.02, -187500.02, -187500.02, 0.000, 0.000, 0.000, 17:34:25.014
59, 35468.37, 23008.37, -187500.02, -187500.02, -187500.02, -187500.02, -187500.02, -187500.02, 0.000, 0.000, 0.000, 17:34:25.014
60, 35348.14, 22868.72, -187500.02, -187500.02, -187500.02, -187500.02, -187500.02, -187500.02, 0.004, -0.016, 1.022, 17:34:25.014
61, 35232.61, 22732.64, -187500.02, -187500.02, -187500.02, -187500.02, -187500.02, -187500.02, 0.000, 0.000, 0.000, 17:34:25.014
62, 35358.71, 22892.01, -187500.02, -187500.02, -187500.02, -187500.02, -187500.02, -187500.02, 0.000, 0.000, 0.000, 17:34:25.014
63, 35489.68, 23044.83, -187500.02, -187500.02, -187500.02, -187500.02, -187500.02, -187500.02, 0.000, 0.000, 0.000, 17:34:25.015
64, 35460.46, 23008.46, -187500.02, -187500.02, -187500.02, -187500.02, -187500.02, -187500.02, 0.000, 0.000, 0.000, 17:34:25.015
65, 35343.43, 22867.67, -187500.02, -187500.02, -187500.02, -187500.02, -187500.02, -187500.02, 0.000, 0.000, 0.000, 17:34:25.015
66, 35228.23, 22731.07, -187500.02, -187500.02, -187500.02, -187500.02, -187500.02, -187500.02, 0.000, 0.000, 0.000, 17:34:25.015
67, 35343.34, 22885.03, -187500.02, -187500.02, -187500.02, -187500.02, -187500.02, -187500.02, 0.000, 0.000, 0.000, 17:34:25.015
68, 35459.88, 23026.68, -187500.02, -187500.02, -187500.02, -187500.02, -187500.02, -187500.02, 0.000, 0.000, 0.000, 17:34:25.016
69, 35441.89, 22998.22, -187500.02, -187500.02, -187500.02, -187500.02, -187500.02, -187500.02, 0.000, 0.000, 0.000, 17:34:25.016
70, 35326.35, 22853.14, -187500.02, -187500.02, -187500.02, -187500.02, -187500.02, -187500.02, 0.004, -0.018, 1.020, 17:34:25.016
71, 35209.34, 22713.98, -187500.02, -187500.02, -187500.02, -187500.02, -187500.02, -187500.02, 0.000, 0.000, 0.000, 17:34:25.016
72, 35331.16, 22862.17, -187500.02, -187500.02, -187500.02, -187500.02, -187500.02, -187500.02, 0.000, 0.000, 0.000, 17:34:25.016
73, 35440.90, 23003.25, -187500.02, -187500.02, -187500.02, -187500.02, -187500.02, -187500.02, 0.000, 0.000, 0.000, 17:34:25.016
74, 35417.84, 22975.65, -187500.02, -187500.02, -187500.02, -187500.02, -187500.02, -187500.02, 0.000, 0.000, 0.000, 17:34:25.017
75, 35309.99, 22846.48, -187500.02, -187500.02, -187500.02, -187500.02, -187500.02, -187500.02, 0.000, 0.000, 0.000, 17:34:25.017
76, 35202.75, 22716.72, -187500.02, -187500.02, -187500.02, -187500.02, -187500.02, -187500.02, 0.000, 0.000, 0.000, 17:34:25.017
77, 35335.40, 22879.69, -187500.02, -187500.02, -187500.02, -187500.02, -187500.02, -187500.02, 0.000, 0.000, 0.000, 17:34:25.017
78, 35471.88, 23037.52, -187500.02, -187500.02, -187500.02, -187500.02, -187500.02, -187500.02, 0.000, 0.000, 0.000, 17:34:25.017
79, 35437.21, 22995.83, -187500.02, -187500.02, -187500.02, -187500.02, -187500.02, -187500.02, 0.000, 0.000, 0.000, 17:34:25.017
80, 35311.91, 22850.70, -187500.02, -187500.02, -187500.02, -187500.02, -187500.02, -187500.02, 0.004, -0.018, 1.018, 17:34:25.017
81, 35197.20, 22710.82, -187500.02, -187500.02, -187500.02, -187500.02, -187500.02, -187500.02, 0.000, 0.000, 0.000, 17:34:25.017
82, 35316.54, 22859.71, -187500.02, -187500.02, -187500.02, -187500.02, -187500.02, -187500.02, 0.000, 0.000, 0.000, 17:34:25.018
83, 35434.98, 23003.48, -187500.02, -187500.02, -187500.02, -187500.02, -187500.02, -187500.02, 0.000, 0.000, 0.000, 17:34:25.018
84, 35402.79, 22959.24, -187500.02, -187500.02, -187500.02, -187500.02, -187500.02, -187500.02, 0.000, 0.000, 0.000, 17:34:25.018
85, 35297.80, 22833.56, -187500.02, -187500.02, -187500.02, -187500.02, -187500.02, -187500.02, 0.000, 0.000, 0.000, 17:34:25.018
86, 35183.07, 22696.79, -187500.02, -187500.02, -187500.02, -187500.02, -187500.02, -187500.02, 0.000, 0.000, 0.000, 17:34:25.018
87, 35293.22, 22837.20, -187500.02, -187500.02, -187500.02, -187500.02, -187500.02, -187500.02, 0.000, 0.000, 0.000, 17:34:25.018
88, 35413.93, 22982.71, -187500.02, -187500.02, -187500.02, -187500.02, -187500.02, -187500.02, 0.000, 0.000, 0.000, 17:34:25.018
89, 35399.77, 22959.02, -187500.02, -187500.02, -187500.02, -187500.02, -187500.02, -187500.02, 0.002, -0.016, 1.018, 17:34:25.477
90, 35286.95, 22824.91, -187500.02, -187500.02, -187500.02, -187500.02, -187500.02, -187500.02, 0.000, 0.000, 0.000, 17:34:25.477
91, 35174.31, 22687.69, -187500.02, -187500.02, -187500.02, -187500.02, -187500.02, -187500.02, 0.000, 0.000, 0.000, 17:34:25.477
92, 35283.41, 22828.46, -187500.02, -187500.02, -187500.02, -187500.02, -187500.02, -187500.02, 0.000, 0.000, 0.000, 17:34:25.478
93, 35400.02, 22969.79, -187500.02, -187500.02, -187500.02, -187500.02, -187500.02, -187500.02, 0.000, 0.000, 0.000, 17:34:25.478
94, 35376.20, 22938.25, -187500.02, -187500.02, -187500.02, -187500.02, -187500.02, -187500.02, 0.000, 0.000, 0.000, 17:34:25.478
95, 35268.01, 22809.20, -187500.02, -187500.02, -187500.02, -187500.02, -187500.02, -187500.02, 0.000, 0.000, 0.000, 17:34:25.478
96, 35162.40, 22679.40, -187500.02, -187500.02, -187500.02, -187500.02, -187500.02, -187500.02, 0.000, 0.000, 0.000, 17:34:25.478
97, 35273.76, 22815.21, -187500.02, -187500.02, -187500.02, -187500.02, -187500.02, -187500.02, 0.000, 0.000, 0.000, 17:34:25.478
98, 35392.33, 22958.01, -187500.02, -187500.02, -187500.02, -187500.02, -187500.02, -187500.02, 0.000, 0.000, 0.000, 17:34:25.479
99, 35370.14, 22928.60, -187500.02, -187500.02, -187500.02, -187500.02, -187500.02, -187500.02, 0.006, -0.020, 1.022, 17:34:25.479
100, 35269.06, 22807.90, -187500.02, -187500.02, -187500.02, -187500.02, -187500.02, -187500.02, 0.000, 0.000, 0.000, 17:34:25.479
101, 35152.21, 22669.56, -187500.02, -187500.02, -187500.02, -187500.02, -187500.02, -187500.02, 0.000, 0.000, 0.000, 17:34:25.479
102, 35252.66, 22797.53, -187500.02, -187500.02, -187500.02, -187500.02, -187500.02, -187500.02, 0.000, 0.000, 0.000, 17:34:25.479
103, 35378.27, 22950.41, -187500.02, -187500.02, -187500.02, -187500.02, -187500.02, -187500.02, 0.000, 0.000, 0.000, 17:34:25.479
104, 35365.24, 22929.00, -187500.02, -187500.02, -187500.02, -187500.02, -187500.02, -187500.02, 0.000, 0.000, 0.000, 17:34:25.480
105, 35277.29, 22819.19, -187500.02, -187500.02, -187500.02, -187500.02, -187500.02, -187500.02, 0.000, 0.000, 0.000, 17:34:25.480
106, 35171.43, 22690.24, -187500.02, -187500.02, -187500.02, -187500.02, -187500.02, -187500.02, 0.000, 0.000, 0.000, 17:34:25.480
107, 35269.66, 22815.95, -187500.02, -187500.02, -187500.02, -187500.02, -187500.02, -187500.02, 0.000, 0.000, 0.000, 17:34:25.480
108, 35365.35, 22938.61, -187500.02, -187500.02, -187500.02, -187500.02, -187500.02, -187500.02, 0.000, 0.000, 0.000, 17:34:25.480
109, 35348.46, 22917.67, -187500.02, -187500.02, -187500.02, -187500.02, -187500.02, -187500.02, 0.008, -0.020, 1.028, 17:34:25.480
110, 35252.41, 22797.53, -187500.02, -187500.02, -187500.02, -187500.02, -187500.02, -187500.02, 0.000, 0.000, 0.000, 17:34:25.481
111, 35138.95, 22655.19, -187500.02, -187500.02, -187500.02, -187500.02, -187500.02, -187500.02, 0.000, 0.000, 0.000, 17:34:25.481
112, 35223.66, 22768.69, -187500.02, -187500.02, -187500.02, -187500.02, -187500.02, -187500.02, 0.000, 0.000, 0.000, 17:34:25.481
113, 35332.81, 22904.53, -187500.02, -187500.02, -187500.02, -187500.02, -187500.02, -187500.02, 0.000, 0.000, 0.000, 17:34:25.481
114, 35327.36, 22895.20, -187500.02, -187500.02, -187500.02, -187500.02, -187500.02, -187500.02, 0.000, 0.000, 0.000, 17:34:25.481
115, 35229.97, 22775.33, -187500.02, -187500.02, -187500.02, -187500.02, -187500.02, -187500.02, 0.000, 0.000, 0.000, 17:34:25.481
116, 35119.98, 22637.87, -187500.02, -187500.02, -187500.02, -187500.02, -187500.02, -187500.02, 0.000, 0.000, 0.000, 17:34:25.482
117, 35216.07, 22768.56, -187500.02, -187500.02, -187500.02, -187500.02, -187500.02, -187500.02, 0.000, 0.000, 0.000, 17:34:25.482
118, 35341.75, 22920.69, -187500.02, -187500.02, -187500.02, -187500.02, -187500.02, -187500.02, 0.000, 0.000, 0.000, 17:34:25.482
119, 35325.59, 22893.55, -187500.02, -187500.02, -187500.02, -187500.02, -187500.02, -187500.02, 0.008, -0.018, 1.024, 17:34:25.482
120, 35226.08, 22767.84, -187500.02, -187500.02, -187500.02, -187500.02, -187500.02, -187500.02, 0.000, 0.000, 0.000, 17:34:25.482
121, 35120.71, 22639.05, -187500.02, -187500.02, -187500.02, -187500.02, -187500.02, -187500.02, 0.000, 0.000, 0.000, 17:34:25.482
122, 35211.51, 22766.77, -187500.02, -187500.02, -187500.02, -187500.02, -187500.02, -187500.02, 0.000, 0.000, 0.000, 17:34:25.483
123, 35323.54, 22906.25, -187500.02, -187500.02, -187500.02, -187500.02, -187500.02, -187500.02, 0.000, 0.000, 0.000, 17:34:25.483
124, 35306.23, 22868.94, -187500.02, -187500.02, -187500.02, -187500.02, -187500.02, -187500.02, 0.000, 0.000, 0.000, 17:34:25.483
125, 35205.14, 22711.92, -187500.02, -187500.02, -187500.02, -187500.02, -187500.02, -187500.02, 0.000, 0.000, 0.000, 17:34:25.483
126, 35093.94, 22594.42, -187500.02, -187500.02, -187500.02, -187500.02, -187500.02, -187500.02, 0.000, 0.000, 0.000, 17:34:25.483
127, 35193.69, 22750.65, -187500.02, -187500.02, -187500.02, -187500.02, -187500.02, -187500.02, 0.000, 0.000, 0.000, 17:34:25.483
128, 35297.76, 22856.04, -187500.02, -187500.02, -187500.02, -187500.02, -187500.02, -187500.02, 0.000, 0.000, 0.000, 17:34:25.483
129, 35310.93, 22892.28, -187500.02, -187500.02, -187500.02, -187500.02, -187500.02, -187500.02, 0.004, -0.018, 1.024, 17:34:25.483
130, 35230.04, 22794.98, -187500.02, -187500.02, -187500.02, -187500.02, -187500.02, -187500.02, 0.000, 0.000, 0.000, 17:34:25.484
131, 35106.86, 22637.96, -187500.02, -187500.02, -187500.02, -187500.02, -187500.02, -187500.02, 0.000, 0.000, 0.000, 17:34:25.484
132, 35195.66, 22754.32, -187500.02, -187500.02, -187500.02, -187500.02, -187500.02, -187500.02, 0.000, 0.000, 0.000, 17:34:25.484
133, 35304.78, 22888.59, -187500.02, -187500.02, -187500.02, -187500.02, -187500.02, -187500.02, 0.000, 0.000, 0.000, 17:34:25.484
134, 35272.50, 22837.02, -187500.02, -187500.02, -187500.02, -187500.02, -187500.02, -187500.02, 0.000, 0.000, 0.000, 17:34:25.484
135, 35157.19, 22667.62, -187500.02, -187500.02, -187500.02, -187500.02, -187500.02, -187500.02, 0.000, 0.000, 0.000, 17:34:25.484
136, 35060.52, 22579.15, -187500.02, -187500.02, -187500.02, -187500.02, -187500.02, -187500.02, 0.000, 0.000, 0.000, 17:34:25.484
137, 35156.34, 22719.65, -187500.02, -187500.02, -187500.02, -187500.02, -187500.02, -187500.02, 0.000, 0.000, 0.000, 17:34:25.484
138, 35236.85, 22818.49, -187500.02, -187500.02, -187500.02, -187500.02, -187500.02, -187500.02, 0.000, 0.000, 0.000, 17:34:25.485
139, 35205.58, 22778.08, -187500.02, -187500.02, -187500.02, -187500.02, -187500.02, -187500.02, -0.004, -0.020, 1.026, 17:34:25.485
140, 35211.11, 22764.20, -187500.02, -187500.02, -187500.02, -187500.02, -187500.02, -187500.02, 0.000, 0.000, 0.000, 17:34:25.485
141, 35070.04, 22576.40, -187500.02, -187500.02, -187500.02, -187500.02, -187500.02, -187500.02, 0.000, 0.000, 0.000, 17:34:25.485
142, 35146.35, 22681.57, -187500.02, -187500.02, -187500.02, -187500.02, -187500.02, -187500.02, 0.000, 0.000, 0.000, 17:34:25.485
143, 35269.11, 22853.83, -187500.02, -187500.02, -187500.02, -187500.02, -187500.02, -187500.02, 0.000, 0.000, 0.000, 17:34:25.485
144, 35240.63, 22821.11, -187500.02, -187500.02, -187500.02, -187500.02, -187500.02, -187500.02, 0.000, 0.000, 0.000, 17:34:25.485
145, 35129.48, 22695.80, -187500.02, -187500.02, -187500.02, -187500.02, -187500.02, -187500.02, 0.000, 0.000, 0.000, 17:34:25.485
146, 35070.69, 22599.63, -187500.02, -187500.02, -187500.02, -187500.02, -187500.02, -187500.02, 0.000, 0.000, 0.000, 17:34:25.485
147, 35160.81, 22698.17, -187500.02, -187500.02, -187500.02, -187500.02, -187500.02, -187500.02, 0.000, 0.000, 0.000, 17:34:25.486
148, 35270.02, 22827.41, -187500.02, -187500.02, -187500.02, -187500.02, -187500.02, -187500.02, 0.000, 0.000, 0.000, 17:34:25.486
149, 35264.70, 22843.82, -187500.02, -187500.02, -187500.02, -187500.02, -187500.02, -187500.02, -0.004, -0.022, 1.030, 17:34:25.486
150, 35149.86, 22697.79, -187500.02, -187500.02, -187500.02, -187500.02, -187500.02, -187500.02, 0.000, 0.000, 0.000, 17:34:25.486
151, 35042.24, 22570.37, -187500.02, -187500.02, -187500.02, -187500.02, -187500.02, -187500.02, 0.000, 0.000, 0.000, 17:34:25.486
152, 35123.66, 22682.46, -187500.02, -187500.02, -187500.02, -187500.02, -187500.02, -187500.02, 0.000, 0.000, 0.000, 17:34:25.486
153, 35231.87, 22807.29, -187500.02, -187500.02, -187500.02, -187500.02, -187500.02, -187500.02, 0.000, 0.000, 0.000, 17:34:25.486
154, 35232.11, 22772.92, -187500.02, -187500.02, -187500.02, -187500.02, -187500.02, -187500.02, 0.000, 0.000, 0.000, 17:34:25.486
155, 35103.82, 22663.26, -187500.02, -187500.02, -187500.02, -187500.02, -187500.02, -187500.02, 0.000, 0.000, 0.000, 17:34:25.487
156, 35002.99, 22525.51, -187500.02, -187500.02, -187500.02, -187500.02, -187500.02, -187500.02, 0.000, 0.000, 0.000, 17:34:25.487
157, 35098.47, 22658.81, -187500.02, -187500.02, -187500.02, -187500.02, -187500.02, -187500.02, 0.000, 0.000, 0.000, 17:34:25.487
158, 35213.16, 22793.77, -187500.02, -187500.02, -187500.02, -187500.02, -187500.02, -187500.02, 0.000, 0.000, 0.000, 17:34:25.487
159, 35212.85, 22773.97, -187500.02, -187500.02, -187500.02, -187500.02, -187500.02, -187500.02, 0.000, -0.018, 1.028, 17:34:25.487
160, 35133.79, 22681.21, -187500.02, -187500.02, -187500.02, -187500.02, -187500.02, -187500.02, 0.000, 0.000, 0.000, 17:34:25.487
161, 35029.83, 22549.74, -187500.02, -187500.02, -187500.02, -187500.02, -187500.02, -187500.02, 0.000, 0.000, 0.000, 17:34:25.487
162, 35118.50, 22652.78, -187500.02, -187500.02, -187500.02, -187500.02, -187500.02, -187500.02, 0.000, 0.000, 0.000, 17:34:25.487
163, 35244.50, 22794.29, -187500.02, -187500.02, -187500.02, -187500.02, -187500.02, -187500.02, 0.000, 0.000, 0.000, 17:34:25.488
164, 35237.99, 22801.71, -187500.02, -187500.02, -187500.02, -187500.02, -187500.02, -187500.02, 0.000, 0.000, 0.000, 17:34:25.488
165, 35134.32, 22681.01, -187500.02, -187500.02, -187500.02, -187500.02, -187500.02, -187500.02, 0.000, 0.000, 0.000, 17:34:25.488
166, 35028.69, 22544.39, -187500.02, -187500.02, -187500.02, -187500.02, -187500.02, -187500.02, 0.000, 0.000, 0.000, 17:34:25.488
167, 35123.98, 22659.13, -187500.02, -187500.02, -187500.02, -187500.02, -187500.02, -187500.02, 0.000, 0.000, 0.000, 17:34:25.488
168, 35237.41, 22789.35, -187500.02, -187500.02, -187500.02, -187500.02, -187500.02, -187500.02, 0.000, 0.000, 0.000, 17:34:25.488
169, 35224.70, 22767.17, -187500.02, -187500.02, -187500.02, -187500.02, -187500.02, -187500.02, -0.002, -0.018, 1.028, 17:34:25.488
170, 35145.08, 22685.86, -187500.02, -187500.02, -187500.02, -187500.02, -187500.02, -187500.02, 0.000, 0.000, 0.000, 17:34:25.488
171, 35020.40, 22528.17, -187500.02, -187500.02, -187500.02, -187500.02, -187500.02, -187500.02, 0.000, 0.000, 0.000, 17:34:25.489
172, 35102.03, 22623.07, -187500.02, -187500.02, -187500.02, -187500.02, -187500.02, -187500.02, 0.000, 0.000, 0.000, 17:34:25.489
173, 35224.31, 22785.10, -187500.02, -187500.02, -187500.02, -187500.02, -187500.02, -187500.02, 0.000, 0.000, 0.000, 17:34:25.489
174, 35228.23, 22778.39, -187500.02, -187500.02, -187500.02, -187500.02, -187500.02, -187500.02, 0.000, 0.000, 0.000, 17:34:25.489
175, 35132.31, 22663.48, -187500.02, -187500.02, -187500.02, -187500.02, -187500.02, -187500.02, 0.000, 0.000, 0.000, 17:34:25.489
176, 35008.26, 22511.71, -187500.02, -187500.02, -187500.02, -187500.02, -187500.02, -187500.02, 0.000, 0.000, 0.000, 17:34:25.490
177, 35064.81, 22588.90, -187500.02, -187500.02, -187500.02, -187500.02, -187500.02, -187500.02, 0.000, 0.000, 0.000, 17:34:25.490
178, 35206.37, 22755.21, -187500.02, -187500.02, -187500.02, -187500.02, -187500.02, -187500.02, 0.000, 0.000, 0.000, 17:34:25.490
179, 35223.29, 22768.45, -187500.02, -187500.02, -187500.02, -187500.02, -187500.02, -187500.02, 0.008, -0.012, 1.022, 17:34:25.490
180, 35136.36, 22669.00, -187500.02, -187500.02, -187500.02, -187500.02, -187500.02, -187500.02, 0.000, 0.000, 0.000, 17:34:25.490
181, 35019.06, 22522.53, -187500.02, -187500.02, -187500.02, -187500.02, -187500.02, -187500.02, 0.000, 0.000, 0.000, 17:34:25.491
182, 35080.23, 22603.56, -187500.02, -187500.02, -187500.02, -187500.02, -187500.02, -187500.02, 0.000, 0.000, 0.000, 17:34:25.491
183, 35209.32, 22762.32, -187500.02, -187500.02, -187500.02, -187500.02, -187500.02, -187500.02, 0.000, 0.000, 0.000, 17:34:25.491
184, 35195.37, 22746.01, -187500.02, -187500.02, -187500.02, -187500.02, -187500.02, -187500.02, 0.000, 0.000, 0.000, 17:34:25.491
185, 35118.19, 22645.20, -187500.02, -187500.02, -187500.02, -187500.02, -187500.02, -187500.02, 0.000, 0.000, 0.000, 17:34:25.491
186, 34985.08, 22490.08, -187500.02, -187500.02, -187500.02, -187500.02, -187500.02, -187500.02, 0.000, 0.000, 0.000, 17:34:25.492
187, 35052.07, 22580.78, -187500.02, -187500.02, -187500.02, -187500.02, -187500.02, -187500.02, 0.000, 0.000, 0.000, 17:34:25.492
188, 35175.95, 22737.49, -187500.02, -187500.02, -187500.02, -187500.02, -187500.02, -187500.02, 0.000, 0.000, 0.000, 17:34:25.492
189, 35183.75, 22724.06, -187500.02, -187500.02, -187500.02, -187500.02, -187500.02, -187500.02, 0.004, -0.014, 1.028, 17:34:25.492
190, 35087.70, 22605.97, -187500.02, -187500.02, -187500.02, -187500.02, -187500.02, -187500.02, 0.000, 0.000, 0.000, 17:34:25.492
191, 34968.03, 22464.31, -187500.02, -187500.02, -187500.02, -187500.02, -187500.02, -187500.02, 0.000, 0.000, 0.000, 17:34:25.492
192, 35042.95, 22563.86, -187500.02, -187500.02, -187500.02, -187500.02, -187500.02, -187500.02, 0.000, 0.000, 0.000, 17:34:25.493
193, 35151.56, 22701.48, -187500.02, -187500.02, -187500.02, -187500.02, -187500.02, -187500.02, 0.000, 0.000, 0.000, 17:34:25.493
194, 35135.53, 22675.29, -187500.02, -187500.02, -187500.02, -187500.02, -187500.02, -187500.02, 0.000, 0.000, 0.000, 17:34:25.493
195, 35048.90, 22576.15, -187500.02, -187500.02, -187500.02, -187500.02, -187500.02, -187500.02, 0.000, 0.000, 0.000, 17:34:25.493
196, 34938.26, 22442.13, -187500.02, -187500.02, -187500.02, -187500.02, -187500.02, -187500.02, 0.000, 0.000, 0.000, 17:34:25.493
197, 35057.46, 22575.51, -187500.02, -187500.02, -187500.02, -187500.02, -187500.02, -187500.02, 0.000, 0.000, 0.000, 17:34:25.493
198, 35174.78, 22725.93, -187500.02, -187500.02, -187500.02, -187500.02, -187500.02, -187500.02, 0.000, 0.000, 0.000, 17:34:25.494
199, 35151.69, 22698.11, -187500.02, -187500.02, -187500.02, -187500.02, -187500.02, -187500.02, 0.000, -0.020, 1.022, 17:34:25.494
200, 34993.15, 22524.50, -187500.02, -187500.02, -187500.02, -187500.02, -187500.02, -187500.02, 0.000, 0.000, 0.000, 17:34:25.494
201, 34924.55, 22428.39, -187500.02, -187500.02, -187500.02, -187500.02, -187500.02, -187500.02, 0.000, 0.000, 0.000, 17:34:25.494
202, 35074.11, 22587.46, -187500.02, -187500.02, -187500.02, -187500.02, -187500.02, -187500.02, 0.000, 0.000, 0.000, 17:34:25.494
203, 35178.43, 22722.96, -187500.02, -187500.02, -187500.02, -187500.02, -187500.02, -187500.02, 0.000, 0.000, 0.000, 17:34:25.494
204, 35165.28, 22710.04, -187500.02, -187500.02, -187500.02, -187500.02, -187500.02, -187500.02, 0.000, 0.000, 0.000, 17:34:25.494
205, 35083.14, 22606.67, -187500.02, -187500.02, -187500.02, -187500.02, -187500.02, -187500.02, 0.000, 0.000, 0.000, 17:34:25.495
206, 34949.45, 22444.68, -187500.02, -187500.02, -187500.02, -187500.02, -187500.02, -187500.02, 0.000, 0.000, 0.000, 17:34:25.495
207, 35004.29, 22525.37, -187500.02, -187500.02, -187500.02, -187500.02, -187500.02, -187500.02, 0.000, 0.000, 0.000, 17:34:25.495
208, 35132.09, 22683.00, -187500.02, -187500.02, -187500.02, -187500.02, -187500.02, -187500.02, 0.000, 0.000, 0.000, 17:34:25.495
209, 35114.05, 22661.56, -187500.02, -187500.02, -187500.02, -187500.02, -187500.02, -187500.02, 0.002, -0.018, 1.026, 17:34:25.958
210, 34996.30, 22519.47, -187500.02, -187500.02, -187500.02, -187500.02, -187500.02, -187500.02, 0.000, 0.000, 0.000, 17:34:25.959
211, 34903.45, 22401.68, -187500.02, -187500.02, -187500.02, -187500.02, -187500.02, -187500.02, 0.000, 0.000, 0.000, 17:34:25.959
212, 34953.88, 22484.09, -187500.02, -187500.02, -187500.02, -187500.02, -187500.02, -187500.02, 0.000, 0.000, 0.000, 17:34:25.959
213, 35125.07, 22669.41, -187500.02, -187500.02, -187500.02, -187500.02, -187500.02, -187500.02, 0.000, 0.000, 0.000, 17:34:25.959
214, 35134.68, 22681.16, -187500.02, -187500.02, -187500.02, -187500.02, -187500.02, -187500.02, 0.000, 0.000, 0.000, 17:34:25.959
215, 35066.55, 22588.31, -187500.02, -187500.02, -187500.02, -187500.02, -187500.02, -187500.02, 0.000, 0.000, 0.000, 17:34:25.960
216, 34910.90, 22397.95, -187500.02, -187500.02, -187500.02, -187500.02, -187500.02, -187500.02, 0.000, 0.000, 0.000, 17:34:25.960
217, 34955.51, 22469.98, -187500.02, -187500.02, -187500.02, -187500.02, -187500.02, -187500.02, 0.000, 0.000, 0.000, 17:34:25.960
218, 35099.57, 22648.04, -187500.02, -187500.02, -187500.02, -187500.02, -187500.02, -187500.02, 0.004, -0.014, 1.032, 17:34:25.960
219, 35120.16, 22656.80, -187500.02, -187500.02, -187500.02, -187500.02, -187500.02, -187500.02, 0.000, 0.000, 0.000, 17:34:25.960
220, 35034.48, 22561.67, -187500.02, -187500.02, -187500.02, -187500.02, -187500.02, -187500.02, 0.000, 0.000, 0.000, 17:34:25.960
221, 34921.31, 22423.72, -187500.02, -187500.02, -187500.02, -187500.02, -187500.02, -187500.02, 0.000, 0.000, 0.000, 17:34:25.961
222, 34972.77, 22499.36, -187500.02, -187500.02, -187500.02, -187500.02, -187500.02, -187500.02, 0.000, 0.000, 0.000, 17:34:25.961
223, 35089.04, 22646.96, -187500.02, -187500.02, -187500.02, -187500.02, -187500.02, -187500.02, 0.000, 0.000, 0.000, 17:34:25.961
224, 35087.90, 22633.04, -187500.02, -187500.02, -187500.02, -187500.02, -187500.02, -187500.02, 0.000, 0.000, 0.000, 17:34:25.961
225, 35006.38, 22535.34, -187500.02, -187500.02, -187500.02, -187500.02, -187500.02, -187500.02, 0.000, 0.000, 0.000, 17:34:25.961
226, 34898.54, 22402.21, -187500.02, -187500.02, -187500.02, -187500.02, -187500.02, -187500.02, 0.000, 0.000, 0.000, 17:34:25.961
227, 34955.85, 22481.56, -187500.02, -187500.02, -187500.02, -187500.02, -187500.02, -187500.02, 0.000, 0.000, 0.000, 17:34:25.962
228, 35076.41, 22631.79, -187500.02, -187500.02, -187500.02, -187500.02, -187500.02, -187500.02, 0.006, -0.016, 1.032, 17:34:25.962
229, 35094.99, 22644.64, -187500.02, -187500.02, -187500.02, -187500.02, -187500.02, -187500.02, 0.000, 0.000, 0.000, 17:34:25.962
230, 35001.36, 22533.42, -187500.02, -187500.02, -187500.02, -187500.02, -187500.02, -187500.02, 0.000, 0.000, 0.000, 17:34:25.962
231, 34890.58, 22395.87, -187500.02, -187500.02, -187500.02, -187500.02, -187500.02, -187500.02, 0.000, 0.000, 0.000, 17:34:25.962
232, 34936.11, 22470.28, -187500.02, -187500.02, -187500.02, -187500.02, -187500.02, -187500.02, 0.000, 0.000, 0.000, 17:34:25.963
233, 35086.34, 22639.59, -187500.02, -187500.02, -187500.02, -187500.02, -187500.02, -187500.02, 0.000, 0.000, 0.000, 17:34:25.963
234, 35083.14, 22631.95, -187500.02, -187500.02, -187500.02, -187500.02, -187500.02, -187500.02, 0.000, 0.000, 0.000, 17:34:25.963
235, 34995.28, 22526.96, -187500.02, -187500.02, -187500.02, -187500.02, -187500.02, -187500.02, 0.000, 0.000, 0.000, 17:34:25.963
236, 34870.15, 22377.20, -187500.02, -187500.02, -187500.02, -187500.02, -187500.02, -187500.02, 0.000, 0.000, 0.000, 17:34:25.963
237, 34913.13, 22441.26, -187500.02, -187500.02, -187500.02, -187500.02, -187500.02, -187500.02, 0.000, 0.000, 0.000, 17:34:25.963
238, 35066.02, 22609.66, -187500.02, -187500.02, -187500.02, -187500.02, -187500.02, -187500.02, 0.006, -0.020, 1.030, 17:34:25.963
239, 35073.82, 22610.11, -187500.02, -187500.02, -187500.02, -187500.02, -187500.02, -187500.02, 0.000, 0.000, 0.000, 17:34:25.963
240, 35005.36, 22532.28, -187500.02, -187500.02, -187500.02, -187500.02, -187500.02, -187500.02, 0.000, 0.000, 0.000, 17:34:25.964
241, 34878.91, 22377.58, -187500.02, -187500.02, -187500.02, -187500.02, -187500.02, -187500.02, 0.000, 0.000, 0.000, 17:34:25.964
242, 34950.84, 22461.07, -187500.02, -187500.02, -187500.02, -187500.02, -187500.02, -187500.02, 0.000, 0.000, 0.000, 17:34:25.964
243, 35075.16, 22612.95, -187500.02, -187500.02, -187500.02, -187500.02, -187500.02, -187500.02, 0.000, 0.000, 0.000, 17:34:25.964
244, 35056.52, 22594.24, -187500.02, -187500.02, -187500.02, -187500.02, -187500.02, -187500.02, 0.000, 0.000, 0.000, 17:34:25.964
245, 34962.60, 22489.72, -187500.02, -187500.02, -187500.02, -187500.02, -187500.02, -187500.02, 0.000, 0.000, 0.000, 17:34:25.964
246, 34845.88, 22353.20, -187500.02, -187500.02, -187500.02, -187500.02, -187500.02, -187500.02, 0.000, 0.000, 0.000, 17:34:25.964
247, 34911.88, 22424.63, -187500.02, -187500.02, -187500.02, -187500.02, -187500.02, -187500.02, 0.000, 0.000, 0.000, 17:34:25.964
248, 35041.59, 22585.83, -187500.02, -187500.02, -187500.02, -187500.02, -187500.02, -187500.02, 0.006, -0.020, 1.028, 17:34:25.964
249, 35056.65, 22588.87, -187500.02, -187500.02, -187500.02, -187500.02, -187500.02, -187500.02, 0.000, 0.000, 0.000, 17:34:25.965
250, 34977.04, 22495.22, -187500.02, -187500.02, -187500.02, -187500.02, -187500.02, -187500.02, 0.000, 0.000, 0.000, 17:34:25.965
251, 34852.02, 22349.46, -187500.02, -187500.02, -187500.02, -187500.02, -187500.02, -187500.02, 0.000, 0.000, 0.000, 17:34:25.965
252, 34905.62, 22416.81, -187500.02, -187500.02, -187500.02, -187500.02, -187500.02, -187500.02, 0.000, 0.000, 0.000, 17:34:25.965
253, 35035.26, 22577.65, -187500.02, -187500.02, -187500.02, -187500.02, -187500.02, -187500.02, 0.000, 0.000, 0.000, 17:34:25.965
254, 35023.33, 22568.73, -187500.02, -187500.02, -187500.02, -187500.02, -187500.02, -187500.02, 0.000, 0.000, 0.000, 17:34:25.965
255, 34949.68, 22476.78, -187500.02, -187500.02, -187500.02, -187500.02, -187500.02, -187500.02, 0.000, 0.000, 0.000, 17:34:25.965
0, 34833.07, 22333.53, -187500.02, -187500.02, -187500.02, -187500.02, -187500.02, -187500.02, 0.000, 0.000, 0.000, 17:34:25.965
1, 34880.77, 22397.14, -187500.02, -187500.02, -187500.02, -187500.02, -187500.02, -187500.02, 0.000, 0.000, 0.000, 17:34:25.965
2, 35011.91, 22558.54, -187500.02, -187500.02, -187500.02, -187500.02, -187500.02, -187500.02, 0.002, -0.014, 1.030, 17:34:25.966
3, 35022.75, 22564.15, -187500.02, -187500.02, -187500.02, -187500.02, -187500.02, -187500.02, 0.000, 0.000, 0.000, 17:34:25.966
4, 34949.21, 22476.96, -187500.02, -187500.02, -187500.02, -187500.02, -187500.02, -187500.02, 0.000, 0.000, 0.000, 17:34:25.966
5, 34823.21, 22322.40, -187500.02, -187500.02, -187500.02, -187500.02, -187500.02, -187500.02, 0.000, 0.000, 0.000, 17:34:25.966
6, 34867.49, 22379.77, -187500.02, -187500.02, -187500.02, -187500.02, -187500.02, -187500.02, 0.000, 0.000, 0.000, 17:34:25.966
7, 35000.21, 22544.51, -187500.02, -187500.02, -187500.02, -187500.02, -187500.02, -187500.02, 0.000, 0.000, 0.000, 17:34:25.966
8, 35016.20, 22548.75, -187500.02, -187500.02, -187500.02, -187500.02, -187500.02, -187500.02, 0.000, 0.000, 0.000, 17:34:25.967
9, 34930.70, 22451.07, -187500.02, -187500.02, -187500.02, -187500.02, -187500.02, -187500.02, 0.000, 0.000, 0.000, 17:34:25.967
10, 34789.46, 22287.91, -187500.02, -187500.02, -187500.02, -187500.02, -187500.02, -187500.02, 0.000, 0.000, 0.000, 17:34:25.967
11, 34853.05, 22360.86, -187500.02, -187500.02, -187500.02, -187500.02, -187500.02, -187500.02, 0.000, 0.000, 0.000, 17:34:25.967
12, 35005.98, 22538.00, -187500.02, -187500.02, -187500.02, -187500.02, -187500.02, -187500.02, 0.004, -0.018, 1.028, 17:34:25.967
13, 35014.52, 22548.30, -187500.02, -187500.02, -187500.02, -187500.02, -187500.02, -187500.02, 0.000, 0.000, 0.000, 17:34:25.967
14, 34937.96, 22462.27, -187500.02, -187500.02, -187500.02, -187500.02, -187500.02, -187500.02, 0.000, 0.000, 0.000, 17:34:25.967
15, 34815.50, 22306.84, -187500.02, -187500.02, -187500.02, -187500.02, -187500.02, -187500.02, 0.000, 0.000, 0.000, 17:34:25.967
16, 34864.23, 22367.72, -187500.02, -187500.02, -187500.02, -187500.02, -187500.02, -187500.02, 0.000, 0.000, 0.000, 17:34:25.968
17, 35002.07, 22540.30, -187500.02, -187500.02, -187500.02, -187500.02, -187500.02, -187500.02, 0.000, 0.000, 0.000, 17:34:25.968
18, 34999.54, 22539.01, -187500.02, -187500.02, -187500.02, -187500.02, -187500.02, -187500.02, 0.000, 0.000, 0.000, 17:34:25.968
19, 34916.71, 22433.19, -187500.02, -187500.02, -187500.02, -187500.02, -187500.02, -187500.02, 0.000, 0.000, 0.000, 17:34:25.968
20, 34791.65, 22279.12, -187500.02, -187500.02, -187500.02, -187500.02, -187500.02, -187500.02, 0.000, 0.000, 0.000, 17:34:25.968
21, 34857.77, 22364.69, -187500.02, -187500.02, -187500.02, -187500.02, -187500.02, -187500.02, 0.000, 0.000, 0.000, 17:34:25.968
22, 35003.59, 22541.35, -187500.02, -187500.02, -187500.02, -187500.02, -187500.02, -187500.02, 0.006, -0.014, 1.024, 17:34:25.969
23, 35006.83, 22536.15, -187500.02, -187500.02, -187500.02, -187500.02, -187500.02, -187500.02, 0.000, 0.000, 0.000, 17:34:25.969
24, 34922.66, 22432.48, -187500.02, -187500.02, -187500.02, -187500.02, -187500.02, -187500.02, 0.000, 0.000, 0.000, 17:34:25.969
25, 34797.06, 22269.94, -187500.02, -187500.02, -187500.02, -187500.02, -187500.02, -187500.02, 0.000, 0.000, 0.000, 17:34:25.969
26, 34840.13, 22340.43, -187500.02, -187500.02, -187500.02, -187500.02, -187500.02, -187500.02, 0.000, 0.000, 0.000, 17:34:25.969
27, 34968.61, 22504.34, -187500.02, -187500.02, -187500.02, -187500.02, -187500.02, -187500.02, 0.000, 0.000, 0.000, 17:34:25.970
28, 34963.52, 22496.07, -187500.02, -187500.02, -187500.02, -187500.02, -187500.02, -187500.02, 0.000, 0.000, 0.000, 17:34:25.970
29, 34900.32, 22414.40, -187500.02, -187500.02, -187500.02, -187500.02, -187500.02, -187500.02, 0.000, 0.000, 0.000, 17:34:25.970
30, 34784.10, 22268.19, -187500.02, -187500.02, -187500.02, -187500.02, -187500.02, -187500.02, 0.000, 0.000, 0.000, 17:34:25.970
31, 34835.50, 22338.58, -187500.02, -187500.02, -187500.02, -187500.02, -187500.02, -187500.02, 0.000, 0.000, 0.000, 17:34:25.970
32, 34958.93, 22493.54, -187500.02, -187500.02, -187500.02, -187500.02, -187500.02, -187500.02, 0.004, -0.014, 1.026, 17:34:25.970
33, 34950.39, 22482.19, -187500.02, -187500.02, -187500.02, -187500.02, -187500.02, -187500.02, 0.000, 0.000, 0.000, 17:34:25.971
34, 34872.88, 22386.14, -187500.02, -187500.02, -187500.02, -187500.02, -187500.02, -187500.02, 0.000, 0.000, 0.000, 17:34:25.971
35, 34748.04, 22228.23, -187500.02, -187500.02, -187500.02, -187500.02, -187500.02, -187500.02, 0.000, 0.000, 0.000, 17:34:25.971
36, 34788.05, 22283.28, -187500.02, -187500.02, -187500.02, -187500.02, -187500.02, -187500.02, 0.000, 0.000, 0.000, 17:34:25.971
37, 34923.46, 22454.43, -187500.02, -187500.02, -187500.02, -187500.02, -187500.02, -187500.02, 0.000, 0.000, 0.000, 17:34:25.971
38, 34928.02, 22455.25, -187500.02, -187500.02, -187500.02, -187500.02, -187500.02, -187500.02, 0.000, 0.000, 0.000, 17:34:25.971
39, 34857.93, 22372.04, -187500.02, -187500.02, -187500.02, -187500.02, -187500.02, -187500.02, 0.000, 0.000, 0.000, 17:34:25.972
40, 34749.54, 22226.48, -187500.02, -187500.02, -187500.02, -187500.02, -187500.02, -187500.02, 0.000, 0.000, 0.000, 17:34:25.972
41, 34793.57, 22277.71, -187500.02, -187500.02, -187500.02, -187500.02, -187500.02, -187500.02, 0.000, 0.000, 0.000, 17:34:25.972
42, 34931.17, 22454.00, -187500.02, -187500.02, -187500.02, -187500.02, -187500.02, -187500.02, 0.006, -0.014, 1.026, 17:34:25.972
43, 34942.50, 22471.19, -187500.02, -187500.02, -187500.02, -187500.02, -187500.02, -187500.02, 0.000, 0.000, 0.000, 17:34:25.972
44, 34872.72, 22383.19, -187500.02, -187500.02, -187500.02, -187500.02, -187500.02, -187500.02, 0.000, 0.000, 0.000, 17:34:25.973
45, 34756.34, 22217.23, -187500.02, -187500.02, -187500.02, -187500.02, -187500.02, -187500.02, 0.000, 0.000, 0.000, 17:34:25.973
46, 34798.38, 22291.95, -187500.02, -187500.02, -187500.02, -187500.02, -187500.02, -187500.02, 0.000, 0.000, 0.000, 17:34:25.973
47, 34934.64, 22472.02, -187500.02, -187500.02, -187500.02, -187500.02, -187500.02, -187500.02, 0.000, 0.000, 0.000, 17:34:25.973
48, 34944.49, 22472.51, -187500.02, -187500.02, -187500.02, -187500.02, -187500.02, -187500.02, 0.000, 0.000, 0.000, 17:34:25.973
49, 34863.58, 22373.92, -187500.02, -187500.02, -187500.02, -187500.02, -187500.02, -187500.02, 0.000, 0.000, 0.000, 17:34:25.973
50, 34743.33, 22224.70, -187500.02, -187500.02, -187500.02, -187500.02, -187500.02, -187500.02, 0.000, 0.000, 0.000, 17:34:25.973
51, 34783.23, 22267.77, -187500.02, -187500.02, -187500.02, -187500.02, -187500.02, -187500.02, 0.000, 0.000, 0.000, 17:34:25.974
52, 34913.07, 22428.07, -187500.02, -187500.02, -187500.02, -187500.02, -187500.02, -187500.02, 0.006, -0.018, 1.032, 17:34:25.974
53, 34920.89, 22442.00, -187500.02, -187500.02, -187500.02, -187500.02, -187500.02, -187500.02, 0.000, 0.000, 0.000, 17:34:25.974
54, 34816.04, 22325.77, -187500.02, -187500.02, -187500.02, -187500.02, -187500.02, -187500.02, 0.000, 0.000, 0.000, 17:34:25.974
55, 34702.51, 22173.00, -187500.02, -187500.02, -187500.02, -187500.02, -187500.02, -187500.02, 0.000, 0.000, 0.000, 17:34:25.974
56, 34772.88, 22246.98, -187500.02, -187500.02, -187500.02, -187500.02, -187500.02, -187500.02, 0.000, 0.000, 0.000, 17:34:25.975
57, 34891.72, 22401.25, -187500.02, -187500.02, -187500.02, -187500.02, -187500.02, -187500.02, 0.000, 0.000, 0.000, 17:34:25.975
58, 34898.85, 22414.13, -187500.02, -187500.02, -187500.02, -187500.02, -187500.02, -187500.02, 0.000, 0.000, 0.000, 17:34:25.975
59, 34831.48, 22327.69, -187500.02, -187500.02, -187500.02, -187500.02, -187500.02, -187500.02, 0.000, 0.000, 0.000, 17:34:25.975
60, 34714.76, 22179.70, -187500.02, -187500.02, -187500.02, -187500.02, -187500.02, -187500.02, 0.000, 0.000, 0.000, 17:34:25.975
61, 34751.33, 22223.89, -187500.02, -187500.02, -187500.02, -187500.02, -187500.02, -187500.02, 0.000, 0.000, 0.000, 17:34:25.975
62, 34886.63, 22396.94, -187500.02, -187500.02, -187500.02, -187500.02, -187500.02, -187500.02, 0.000, -0.018, 1.030, 17:34:25.976
63, 34905.94, 22412.79, -187500.02, -187500.02, -187500.02, -187500.02, -187500.02, -187500.02, 0.000, 0.000, 0.000, 17:34:25.976
64, 34828.58, 22318.13, -187500.02, -187500.02, -187500.02, -187500.02, -187500.02, -187500.02, 0.000, 0.000, 0.000, 17:34:25.976
65, 34688.74, 22152.63, -187500.02, -187500.02, -187500.02, -187500.02, -187500.02, -187500.02, 0.000, 0.000, 0.000, 17:34:25.976
66, 34712.50, 22195.24, -187500.02, -187500.02, -187500.02, -187500.02, -187500.02, -187500.02, 0.000, 0.000, 0.000, 17:34:25.976
67, 34874.89, 22378.48, -187500.02, -187500.02, -187500.02, -187500.02, -187500.02, -187500.02, 0.000, 0.000, 0.000, 17:34:25.976
68, 34887.27, 22387.06, -187500.02, -187500.02, -187500.02, -187500.02, -187500.02, -187500.02, 0.000, 0.000, 0.000, 17:34:25.977
69, 34814.16, 22303.24, -187500.02, -187500.02, -187500.02, -187500.02, -187500.02, -187500.02, 0.000, 0.000, 0.000, 17:34:25.977
70, 34687.74, 22148.25, -187500.02, -187500.02, -187500.02, -187500.02, -187500.02, -187500.02, 0.000, 0.000, 0.000, 17:34:25.977
71, 34729.38, 22201.43, -187500.02, -187500.02, -187500.02, -187500.02, -187500.02, -187500.02, 0.000, 0.000, 0.000, 17:34:25.977
72, 34872.92, 22379.84, -187500.02, -187500.02, -187500.02, -187500.02, -187500.02, -187500.02, 0.002, -0.014, 1.032, 17:34:25.977
73, 34881.98, 22384.22, -187500.02, -187500.02, -187500.02, -187500.02, -187500.02, -187500.02, 0.000, 0.000, 0.000, 17:34:26.438
74, 34816.37, 22306.55, -187500.02, -187500.02, -187500.02, -187500.02, -187500.02, -187500.02, 0.000, 0.000, 0.000, 17:34:26.438
75, 34697.24, 22159.25, -187500.02, -187500.02, -187500.02, -187500.02, -187500.02, -187500.02, 0.000, 0.000, 0.000, 17:34:26.438
76, 34722.36, 22193.49, -187500.02, -187500.02, -187500.02, -187500.02, -187500.02, -187500.02, 0.000, 0.000, 0.000, 17:34:26.438
77, 34855.80, 22357.06, -187500.02, -187500.02, -187500.02, -187500.02, -187500.02, -187500.02, 0.000, 0.000, 0.000, 17:34:26.438
78, 34886.60, 22390.14, -187500.02, -187500.02, -187500.02, -187500.02, -187500.02, -187500.02, 0.000, 0.000, 0.000, 17:34:26.439
79, 34814.59, 22302.03, -187500.02, -187500.02, -187500.02, -187500.02, -187500.02, -187500.02, 0.000, 0.000, 0.000, 17:34:26.439
80, 34680.81, 22143.67, -187500.02, -187500.02, -187500.02, -187500.02, -187500.02, -187500.02, 0.000, 0.000, 0.000, 17:34:26.439
81, 34711.09, 22182.29, -187500.02, -187500.02, -187500.02, -187500.02, -187500.02, -187500.02, 0.002, -0.018, 1.024, 17:34:26.439
82, 34839.64, 22347.68, -187500.02, -187500.02, -187500.02, -187500.02, -187500.02, -187500.02, 0.000, 0.000, 0.000, 17:34:26.439
83, 34868.21, 22381.87, -187500.02, -187500.02, -187500.02, -187500.02, -187500.02, -187500.02, 0.000, 0.000, 0.000, 17:34:26.440
84, 34800.70, 22293.94, -187500.02, -187500.02, -187500.02, -187500.02, -187500.02, -187500.02, 0.000, 0.000, 0.000, 17:34:26.440
85, 34650.03, 22118.35, -187500.02, -187500.02, -187500.02, -187500.02, -187500.02, -187500.02, 0.000, 0.000, 0.000, 17:34:26.440
86, 34697.80, 22185.40, -187500.02, -187500.02, -187500.02, -187500.02, -187500.02, -187500.02, 0.000, 0.000, 0.000, 17:34:26.440
87, 34839.46, 22353.53, -187500.02, -187500.02, -187500.02, -187500.02, -187500.02, -187500.02, 0.000, 0.000, 0.000, 17:34:26.440
88, 34857.63, 22369.13, -187500.02, -187500.02, -187500.02, -187500.02, -187500.02, -187500.02, 0.000, 0.000, 0.000, 17:34:26.441
89, 34778.44, 22275.05, -187500.02, -187500.02, -187500.02, -187500.02, -187500.02, -187500.02, 0.000, 0.000, 0.000, 17:34:26.441
90, 34653.45, 22123.15, -187500.02, -187500.02, -187500.02, -187500.02, -187500.02, -187500.02, 0.000, 0.000, 0.000, 17:34:26.441
91, 34678.60, 22160.35, -187500.02, -187500.02, -187500.02, -187500.02, -187500.02, -187500.02, 0.004, -0.012, 1.030, 17:34:26.441
92, 34833.67, 22347.47, -187500.02, -187500.02, -187500.02, -187500.02, -187500.02, -187500.02, 0.000, 0.000, 0.000, 17:34:26.441
93, 34849.12, 22359.75, -187500.02, -187500.02, -187500.02, -187500.02, -187500.02, -187500.02, 0.000, 0.000, 0.000, 17:34:26.442
94, 34775.76, 22269.87, -187500.02, -187500.02, -187500.02, -187500.02, -187500.02, -187500.02, 0.000, 0.000, 0.000, 17:34:26.442
95, 34645.40, 22106.23, -187500.02, -187500.02, -187500.02, -187500.02, -187500.02, -187500.02, 0.000, 0.000, 0.000, 17:34:26.442
96, 34668.85, 22140.27, -187500.02, -187500.02, -187500.02, -187500.02, -187500.02, -187500.02, 0.000, 0.000, 0.000, 17:34:26.442
97, 34819.12, 22323.45, -187500.02, -187500.02, -187500.02, -187500.02, -187500.02, -187500.02, 0.000, 0.000, 0.000, 17:34:26.442
98, 34831.91, 22336.28, -187500.02, -187500.02, -187500.02, -187500.02, -187500.02, -187500.02, 0.000, 0.000, 0.000, 17:34:26.442
99, 34760.02, 22248.19, -187500.02, -187500.02, -187500.02, -187500.02, -187500.02, -187500.02, 0.000, 0.000, 0.000, 17:34:26.443
100, 34642.88, 22103.95, -187500.02, -187500.02, -187500.02, -187500.02, -187500.02, -187500.02, 0.000, 0.000, 0.000, 17:34:26.443
101, 34671.64, 22142.73, -187500.02, -187500.02, -187500.02, -187500.02, -187500.02, -187500.02, 0.000, -0.016, 1.028, 17:34:26.443
102, 34811.93, 22314.10, -187500.02, -187500.02, -187500.02, -187500.02, -187500.02, -187500.02, 0.000, 0.000, 0.000, 17:34:26.443
103, 34824.20, 22324.90, -187500.02, -187500.02, -187500.02, -187500.02, -187500.02, -187500.02, 0.000, 0.000, 0.000, 17:34:26.443
104, 34742.52, 22226.28, -187500.02, -187500.02, -187500.02, -187500.02, -187500.02, -187500.02, 0.000, 0.000, 0.000, 17:34:26.444
105, 34616.21, 22068.39, -187500.02, -187500.02, -187500.02, -187500.02, -187500.02, -187500.02, 0.000, 0.000, 0.000, 17:34:26.444
106, 34640.69, 22103.04, -187500.02, -187500.02, -187500.02, -187500.02, -187500.02, -187500.02, 0.000, 0.000, 0.000, 17:34:26.444
107, 34798.02, 22300.25, -187500.02, -187500.02, -187500.02, -187500.02, -187500.02, -187500.02, 0.000, 0.000, 0.000, 17:34:26.444
108, 34815.25, 22314.80, -187500.02, -187500.02, -187500.02, -187500.02, -187500.02, -187500.02, 0.000, 0.000, 0.000, 17:34:26.444
109, 34739.62, 22221.21, -187500.02, -187500.02, -187500.02, -187500.02, -187500.02, -187500.02, 0.000, 0.000, 0.000, 17:34:26.444
110, 34628.30, 22079.86, -187500.02, -187500.02, -187500.02, -187500.02, -187500.02, -187500.02, 0.000, 0.000, 0.000, 17:34:26.445
111, 34643.53, 22104.47, -187500.02, -187500.02, -187500.02, -187500.02, -187500.02, -187500.02, 0.000, -0.016, 1.018, 17:34:26.445
112, 34775.49, 22271.14, -187500.02, -187500.02, -187500.02, -187500.02, -187500.02, -187500.02, 0.000, 0.000, 0.000, 17:34:26.445
113, 34800.84, 22297.45, -187500.02, -187500.02, -187500.02, -187500.02, -187500.02, -187500.02, 0.000, 0.000, 0.000, 17:34:26.445
114, 34744.94, 22222.93, -187500.02, -187500.02, -187500.02, -187500.02, -187500.02, -187500.02, 0.000, 0.000, 0.000, 17:34:26.445
115, 34616.05, 22064.32, -187500.02, -187500.02, -187500.02, -187500.02, -187500.02, -187500.02, 0.000, 0.000, 0.000, 17:34:26.446
116, 34650.86, 22105.61, -187500.02, -187500.02, -187500.02, -187500.02, -187500.02, -187500.02, 0.000, 0.000, 0.000, 17:34:26.446
117, 34773.84, 22260.77, -187500.02, -187500.02, -187500.02, -187500.02, -187500.02, -187500.02, 0.000, 0.000, 0.000, 17:34:26.446
118, 34787.94, 22277.07, -187500.02, -187500.02, -187500.02, -187500.02, -187500.02, -187500.02, 0.000, 0.000, 0.000, 17:34:26.446
119, 34730.27, 22201.92, -187500.02, -187500.02, -187500.02, -187500.02, -187500.02, -187500.02, 0.000, 0.000, 0.000, 17:34:26.446
120, 34599.11, 22035.94, -187500.02, -187500.02, -187500.02, -187500.02, -187500.02, -187500.02, 0.000, 0.000, 0.000, 17:34:26.446
121, 34624.89, 22070.36, -187500.02, -187500.02, -187500.02, -187500.02, -187500.02, -187500.02, 0.000, -0.014, 1.024, 17:34:26.447
122, 34781.28, 22271.90, -187500.02, -187500.02, -187500.02, -187500.02, -187500.02, -187500.02, 0.000, 0.000, 0.000, 17:34:26.447
123, 34800.55, 22290.43, -187500.02, -187500.02, -187500.02, -187500.02, -187500.02, -187500.02, 0.000, 0.000, 0.000, 17:34:26.447
124, 34712.30, 22185.31, -187500.02, -187500.02, -187500.02, -187500.02, -187500.02, -187500.02, 0.000, 0.000, 0.000, 17:34:26.447
125, 34586.82, 22027.02, -187500.02, -187500.02, -187500.02, -187500.02, -187500.02, -187500.02, 0.000, 0.000, 0.000, 17:34:26.447
126, 34604.12, 22055.45, -187500.02, -187500.02, -187500.02, -187500.02, -187500.02, -187500.02, 0.000, 0.000, 0.000, 17:34:26.447
127, 34751.80, 22242.15, -187500.02, -187500.02, -187500.02, -187500.02, -187500.02, -187500.02, 0.000, 0.000, 0.000, 17:34:26.447
128, 34778.84, 22267.72, -187500.02, -187500.02, -187500.02, -187500.02, -187500.02, -187500.02, 0.000, 0.000, 0.000, 17:34:26.447
129, 34720.59, 22193.34, -187500.02, -187500.02, -187500.02, -187500.02, -187500.02, -187500.02, 0.000, 0.000, 0.000, 17:34:26.448
130, 34585.77, 22027.35, -187500.02, -187500.02, -187500.02, -187500.02, -187500.02, -187500.02, 0.000, 0.000, 0.000, 17:34:26.448
131, 34602.15, 22048.61, -187500.02, -187500.02, -187500.02, -187500.02, -187500.02, -187500.02, 0.008, -0.016, 1.022, 17:34:26.448
132, 34748.38, 22224.54, -187500.02, -187500.02, -187500.02, -187500.02, -187500.02, -187500.02, 0.000, 0.000, 0.000, 17:34:26.448
133, 34772.81, 22251.47, -187500.02, -187500.02, -187500.02, -187500.02, -187500.02, -187500.02, 0.000, 0.000, 0.000, 17:34:26.448
134, 34700.59, 22170.25, -187500.02, -187500.02, -187500.02, -187500.02, -187500.02, -187500.02, 0.000, 0.000, 0.000, 17:34:26.448
135, 34571.22, 22009.96, -187500.02, -187500.02, -187500.02, -187500.02, -187500.02, -187500.02, 0.000, 0.000, 0.000, 17:34:26.448
136, 34586.48, 22036.76, -187500.02, -187500.02, -187500.02, -187500.02, -187500.02, -187500.02, 0.000, 0.000, 0.000, 17:34:26.448
137, 34730.05, 22223.89, -187500.02, -187500.02, -187500.02, -187500.02, -187500.02, -187500.02, 0.000, 0.000, 0.000, 17:34:26.448
138, 34751.62, 22246.42, -187500.02, -187500.02, -187500.02, -187500.02, -187500.02, -187500.02, 0.000, 0.000, 0.000, 17:34:26.449
139, 34693.55, 22176.24, -187500.02, -187500.02, -187500.02, -187500.02, -187500.02, -187500.02, 0.000, 0.000, 0.000, 17:34:26.449
140, 34555.73, 22006.68, -187500.02, -187500.02, -187500.02, -187500.02, -187500.02, -187500.02, 0.000, 0.000, 0.000, 17:34:26.449
141, 34562.41, 22016.87, -187500.02, -187500.02, -187500.02, -187500.02, -187500.02, -187500.02, 0.006, -0.016, 1.026, 17:34:26.449
142, 34706.76, 22190.86, -187500.02, -187500.02, -187500.02, -187500.02, -187500.02, -187500.02, 0.000, 0.000, 0.000, 17:34:26.449
143, 34740.29, 22223.42, -187500.02, -187500.02, -187500.02, -187500.02, -187500.02, -187500.02, 0.000, 0.000, 0.000, 17:34:26.449
144, 34677.70, 22149.37, -187500.02, -187500.02, -187500.02, -187500.02, -187500.02, -187500.02, 0.000, 0.000, 0.000, 17:34:26.450
145, 34529.46, 21970.94, -187500.02, -187500.02, -187500.02, -187500.02, -187500.02, -187500.02, 0.000, 0.000, 0.000, 17:34:26.450
146, 34512.12, 21962.55, -187500.02, -187500.02, -187500.02, -187500.02, -187500.02, -187500.02, 0.000, 0.000, 0.000, 17:34:26.450
147, 34653.09, 22143.54, -187500.02, -187500.02, -187500.02, -187500.02, -187500.02, -187500.02, 0.000, 0.000, 0.000, 17:34:26.450
148, 34691.85, 22183.95, -187500.02, -187500.02, -187500.02, -187500.02, -187500.02, -187500.02, 0.000, 0.000, 0.000, 17:34:26.450
