%OpenBCI Raw EEG Data
%
%Sample Rate = 250.0 Hz
%First Column = SampleIndex
%Last Column = Timestamp 
%Other Columns = EEG data in microvolts followed by Accel Data (in G) interleaved with Aux Data
0, 31788.18, 13819.50, 187500.00, 187500.00, -187500.02, -187500.02, -187500.02, -187500.02, 0.014, -0.018, 1.028, 16:53:57.348
1, 31690.28, 13669.57, 187500.00, 187500.00, -187500.02, -187500.02, -187500.02, -187500.02, 0.000, 0.000, 0.000, 16:53:57.349
2, 31782.93, 13944.27, 187500.00, 187500.00, -187500.02, -187500.02, -187500.02, -187500.02, 0.000, 0.000, 0.000, 16:53:57.349
3, 32070.19, 14270.00, 187500.00, 187500.00, -187500.02, -187500.02, -187500.02, -187500.02, 0.000, 0.000, 0.000, 16:53:57.349
4, 32006.56, 14101.89, 187500.00, 187500.00, -187500.02, -187500.02, -187500.02, -187500.02, 0.000, 0.000, 0.000, 16:53:57.349
5, 31769.00, 13800.70, 187500.00, 187500.00, -187500.02, -187500.02, -187500.02, -187500.02, 0.000, 0.000, 0.000, 16:53:57.349
6, 31666.81, 13647.75, 187500.00, 187500.00, -187500.02, -187500.02, -187500.02, -187500.02, 0.000, 0.000, 0.000, 16:53:57.349
7, 31754.68, 13915.93, 187500.00, 187500.00, -187500.02, -187500.02, -187500.02, -187500.02, 0.012, -0.012, 1.040, 16:53:57.349
8, 32049.36, 14245.03, 187500.00, 187500.00, -187500.02, -187500.02, -187500.02, -187500.02, 0.000, 0.000, 0.000, 16:53:57.350
9, 32000.61, 14089.94, 187500.00, 187500.00, -187500.02, -187500.02, -187500.02, -187500.02, 0.000, 0.000, 0.000, 16:53:57.350
10, 31766.72, 13787.47, 187500.00, 187500.00, -187500.02, -187500.02, -187500.02, -187500.02, 0.000, 0.000, 0.000, 16:53:57.350
11, 31662.05, 13627.79, 187500.00, 187500.00, -187500.02, -187500.02, -187500.02, -187500.02, 0.000, 0.000, 0.000, 16:53:57.350
12, 31746.54, 13903.59, 187500.00, 187500.00, -187500.02, -187500.02, -187500.02, -187500.02, 0.000, 0.000, 0.000, 16:53:57.350
13, 32042.97, 14238.51, 187500.00, 187500.00, -187500.02, -187500.02, -187500.02, -187500.02, 0.000, 0.000, 0.000, 16:53:57.350
14, 31986.33, 14077.11, 187500.00, 187500.00, -187500.02, -187500.02, -187500.02, -187500.02, 0.000, 0.000, 0.000, 16:53:57.350
15, 31765.67, 13802.60, 187500.00, 187500.00, -187500.02, -187500.02, -187500.02, -187500.02, 0.000, 0.000, 0.000, 16:53:57.350
16, 31670.05, 13646.59, 187500.00, 187500.00, -187500.02, -187500.02, -187500.02, -187500.02, 0.000, 0.000, 0.000, 16:53:57.350
17, 31757.58, 13912.04, 187500.00, 187500.00, -187500.02, -187500.02, -187500.02, -187500.02, 0.012, -0.018, 1.028, 16:53:57.351
18, 32057.03, 14246.62, 187500.00, 187500.00, -187500.02, -187500.02, -187500.02, -187500.02, 0.000, 0.000, 0.000, 16:53:57.351
19, 31983.51, 14073.28, 187500.00, 187500.00, -187500.02, -187500.02, -187500.02, -187500.02, 0.000, 0.000, 0.000, 16:53:57.351
20, 31744.86, 13775.16, 187500.00, 187500.00, -187500.02, -187500.02, -187500.02, -187500.02, 0.000, 0.000, 0.000, 16:53:57.351
21, 31652.37, 13619.23, 187500.00, 187500.00, -187500.02, -187500.02, -187500.02, -187500.02, 0.000, 0.000, 0.000, 16:53:57.351
22, 31741.62, 13896.57, 187500.00, 187500.00, -187500.02, -187500.02, -187500.02, -187500.02, 0.000, 0.000, 0.000, 16:53:57.351
23, 32044.42, 14235.24, 187500.00, 187500.00, -187500.02, -187500.02, -187500.02, -187500.02, 0.000, 0.000, 0.000, 16:53:57.351
24, 31981.79, 14070.45, 187500.00, 187500.00, -187500.02, -187500.02, -187500.02, -187500.02, 0.000, 0.000, 0.000, 16:53:57.352
25, 31749.85, 13776.23, 187500.00, 187500.00, -187500.02, -187500.02, -187500.02, -187500.02, 0.000, 0.000, 0.000, 16:53:57.352
26, 31661.09, 13629.09, 187500.00, 187500.00, -187500.02, -187500.02, -187500.02, -187500.02, 0.000, 0.000, 0.000, 16:53:57.352
27, 31742.29, 13891.65, 187500.00, 187500.00, -187500.02, -187500.02, -187500.02, -187500.02, 0.014, -0.014, 1.036, 16:53:57.352
28, 32047.06, 14235.58, 187500.00, 187500.00, -187500.02, -187500.02, -187500.02, -187500.02, 0.000, 0.000, 0.000, 16:53:57.352
29, 31988.81, 14076.17, 187500.00, 187500.00, -187500.02, -187500.02, -187500.02, -187500.02, 0.000, 0.000, 0.000, 16:53:57.352
30, 31752.53, 13777.41, 187500.00, 187500.00, -187500.02, -187500.02, -187500.02, -187500.02, 0.000, 0.000, 0.000, 16:53:57.353
31, 31655.39, 13618.78, 187500.00, 187500.00, -187500.02, -187500.02, -187500.02, -187500.02, 0.000, 0.000, 0.000, 16:53:57.353
32, 31754.05, 13909.22, 187500.00, 187500.00, -187500.02, -187500.02, -187500.02, -187500.02, 0.000, 0.000, 0.000, 16:53:57.353
33, 32057.97, 14258.74, 187500.00, 187500.00, -187500.02, -187500.02, -187500.02, -187500.02, 0.000, 0.000, 0.000, 16:53:57.353
34, 31998.60, 14087.99, 187500.00, 187500.00, -187500.02, -187500.02, -187500.02, -187500.02, 0.000, 0.000, 0.000, 16:53:57.353
35, 31764.53, 13787.20, 187500.00, 187500.00, -187500.02, -187500.02, -187500.02, -187500.02, 0.000, 0.000, 0.000, 16:53:57.354
36, 31662.05, 13627.10, 187500.00, 187500.00, -187500.02, -187500.02, -187500.02, -187500.02, 0.012, -0.016, 1.038, 16:53:57.354
37, 31744.13, 13898.34, 187500.00, 187500.00, -187500.02, -187500.02, -187500.02, -187500.02, 0.000, 0.000, 0.000, 16:53:57.354
38, 32054.52, 14249.77, 187500.00, 187500.00, -187500.02, -187500.02, -187500.02, -187500.02, 0.000, 0.000, 0.000, 16:53:57.354
39, 32009.33, 14094.54, 187500.00, 187500.00, -187500.02, -187500.02, -187500.02, -187500.02, 0.000, 0.000, 0.000, 16:53:57.354
40, 31776.87, 13795.07, 187500.00, 187500.00, -187500.02, -187500.02, -187500.02, -187500.02, 0.000, 0.000, 0.000, 16:53:57.354
41, 31679.19, 13636.49, 187500.00, 187500.00, -187500.02, -187500.02, -187500.02, -187500.02, 0.000, 0.000, 0.000, 16:53:57.355
42, 31751.95, 13899.81, 187500.00, 187500.00, -187500.02, -187500.02, -187500.02, -187500.02, 0.000, 0.000, 0.000, 16:53:57.355
43, 32048.06, 14238.04, 187500.00, 187500.00, -187500.02, -187500.02, -187500.02, -187500.02, 0.000, 0.000, 0.000, 16:53:57.355
44, 31992.92, 14078.45, 187500.00, 187500.00, -187500.02, -187500.02, -187500.02, -187500.02, 0.000, 0.000, 0.000, 16:53:57.355
45, 31756.49, 13781.28, 187500.00, 187500.00, -187500.02, -187500.02, -187500.02, -187500.02, 0.000, 0.000, 0.000, 16:53:57.355
46, 31648.08, 13612.77, 187500.00, 187500.00, -187500.02, -187500.02, -187500.02, -187500.02, 0.012, -0.014, 1.028, 16:53:57.356
47, 31739.25, 13895.72, 187500.00, 187500.00, -187500.02, -187500.02, -187500.02, -187500.02, 0.000, 0.000, 0.000, 16:53:57.356
48, 32038.56, 14242.71, 187500.00, 187500.00, -187500.02, -187500.02, -187500.02, -187500.02, 0.000, 0.000, 0.000, 16:53:57.356
49, 31982.10, 14073.84, 187500.00, 187500.00, -187500.02, -187500.02, -187500.02, -187500.02, 0.000, 0.000, 0.000, 16:53:57.356
50, 31767.91, 13794.49, 187500.00, 187500.00, -187500.02, -187500.02, -187500.02, -187500.02, 0.000, 0.000, 0.000, 16:53:57.356
51, 31667.08, 13631.17, 187500.00, 187500.00, -187500.02, -187500.02, -187500.02, -187500.02, 0.000, 0.000, 0.000, 16:53:57.356
52, 31754.05, 13906.32, 187500.00, 187500.00, -187500.02, -187500.02, -187500.02, -187500.02, 0.000, 0.000, 0.000, 16:53:57.356
53, 32059.06, 14251.38, 187500.00, 187500.00, -187500.02, -187500.02, -187500.02, -187500.02, 0.000, 0.000, 0.000, 16:53:57.356
54, 32004.39, 14085.85, 187500.00, 187500.00, -187500.02, -187500.02, -187500.02, -187500.02, 0.000, 0.000, 0.000, 16:53:57.357
55, 31773.09, 13791.88, 187500.00, 187500.00, -187500.02, -187500.02, -187500.02, -187500.02, 0.000, 0.000, 0.000, 16:53:57.357
56, 31655.23, 13625.31, 187500.00, 187500.00, -187500.02, -187500.02, -187500.02, -187500.02, 0.008, -0.014, 1.024, 16:53:57.357
57, 31750.27, 13911.46, 187500.00, 187500.00, -187500.02, -187500.02, -187500.02, -187500.02, 0.000, 0.000, 0.000, 16:53:57.357
58, 32051.13, 14252.32, 187500.00, 187500.00, -187500.02, -187500.02, -187500.02, -187500.02, 0.000, 0.000, 0.000, 16:53:57.357
59, 31996.19, 14087.16, 187500.00, 187500.00, -187500.02, -187500.02, -187500.02, -187500.02, 0.000, 0.000, 0.000, 16:53:57.357
60, 31756.53, 13782.20, 187500.00, 187500.00, -187500.02, -187500.02, -187500.02, -187500.02, 0.000, 0.000, 0.000, 16:53:57.358
61, 31649.15, 13617.89, 187500.00, 187500.00, -187500.02, -187500.02, -187500.02, -187500.02, 0.000, 0.000, 0.000, 16:53:57.358
62, 31741.35, 13895.81, 187500.00, 187500.00, -187500.02, -187500.02, -187500.02, -187500.02, 0.000, 0.000, 0.000, 16:53:57.358
63, 32042.70, 14242.55, 187500.00, 187500.00, -187500.02, -187500.02, -187500.02, -187500.02, 0.000, 0.000, 0.000, 16:53:57.358
64, 31993.21, 14089.02, 187500.00, 187500.00, -187500.02, -187500.02, -187500.02, -187500.02, 0.000, 0.000, 0.000, 16:53:57.359
65, 31755.90, 13788.70, 187500.00, 187500.00, -187500.02, -187500.02, -187500.02, -187500.02, 0.000, 0.000, 0.000, 16:53:57.359
66, 31665.89, 13640.55, 187500.00, 187500.00, -187500.02, -187500.02, -187500.02, -187500.02, 0.012, -0.018, 1.032, 16:53:57.359
67, 31745.24, 13902.02, 187500.00, 187500.00, -187500.02, -187500.02, -187500.02, -187500.02, 0.000, 0.000, 0.000, 16:53:57.360
68, 32046.46, 14243.92, 187500.00, 187500.00, -187500.02, -187500.02, -187500.02, -187500.02, 0.000, 0.000, 0.000, 16:53:57.360
69, 31992.36, 14084.21, 187500.00, 187500.00, -187500.02, -187500.02, -187500.02, -187500.02, 0.000, 0.000, 0.000, 16:53:57.360
70, 31761.38, 13791.16, 187500.00, 187500.00, -187500.02, -187500.02, -187500.02, -187500.02, 0.000, 0.000, 0.000, 16:53:57.360
71, 31655.86, 13624.53, 187500.00, 187500.00, -187500.02, -187500.02, -187500.02, -187500.02, 0.000, 0.000, 0.000, 16:53:57.360
72, 31741.98, 13895.70, 187500.00, 187500.00, -187500.02, -187500.02, -187500.02, -187500.02, 0.000, 0.000, 0.000, 16:53:57.360
73, 32052.65, 14250.22, 187500.00, 187500.00, -187500.02, -187500.02, -187500.02, -187500.02, 0.000, 0.000, 0.000, 16:53:57.360
74, 31990.31, 14080.57, 187500.00, 187500.00, -187500.02, -187500.02, -187500.02, -187500.02, 0.000, 0.000, 0.000, 16:53:57.360
75, 31747.01, 13771.65, 187500.00, 187500.00, -187500.02, -187500.02, -187500.02, -187500.02, 0.000, 0.000, 0.000, 16:53:57.361
76, 31652.48, 13614.07, 187500.00, 187500.00, -187500.02, -187500.02, -187500.02, -187500.02, 0.016, -0.022, 1.026, 16:53:57.361
77, 31747.03, 13899.70, 187500.00, 187500.00, -187500.02, -187500.02, -187500.02, -187500.02, 0.000, 0.000, 0.000, 16:53:57.361
78, 32049.49, 14249.10, 187500.00, 187500.00, -187500.02, -187500.02, -187500.02, -187500.02, 0.000, 0.000, 0.000, 16:53:57.361
79, 31986.69, 14077.78, 187500.00, 187500.00, -187500.02, -187500.02, -187500.02, -187500.02, 0.000, 0.000, 0.000, 16:53:57.361
80, 31754.18, 13783.40, 187500.00, 187500.00, -187500.02, -187500.02, -187500.02, -187500.02, 0.000, 0.000, 0.000, 16:53:57.361
81, 31652.66, 13620.28, 187500.00, 187500.00, -187500.02, -187500.02, -187500.02, -187500.02, 0.000, 0.000, 0.000, 16:53:57.361
82, 31748.73, 13897.04, 187500.00, 187500.00, -187500.02, -187500.02, -187500.02, -187500.02, 0.000, 0.000, 0.000, 16:53:57.361
83, 32053.41, 14249.15, 187500.00, 187500.00, -187500.02, -187500.02, -187500.02, -187500.02, 0.000, 0.000, 0.000, 16:53:57.361
84, 31995.04, 14087.66, 187500.00, 187500.00, -187500.02, -187500.02, -187500.02, -187500.02, 0.000, 0.000, 0.000, 16:53:57.362
85, 31764.35, 13790.71, 187500.00, 187500.00, -187500.02, -187500.02, -187500.02, -187500.02, 0.000, 0.000, 0.000, 16:53:57.362
86, 31662.21, 13636.55, 187500.00, 187500.00, -187500.02, -187500.02, -187500.02, -187500.02, 0.014, -0.018, 1.018, 16:53:57.362
87, 31743.63, 13906.29, 187500.00, 187500.00, -187500.02, -187500.02, -187500.02, -187500.02, 0.000, 0.000, 0.000, 16:53:57.362
88, 32043.66, 14247.60, 187500.00, 187500.00, -187500.02, -187500.02, -187500.02, -187500.02, 0.000, 0.000, 0.000, 16:53:57.362
89, 32005.55, 14100.28, 187500.00, 187500.00, -187500.02, -187500.02, -187500.02, -187500.02, 0.000, 0.000, 0.000, 16:53:57.363
90, 31775.19, 13807.50, 187500.00, 187500.00, -187500.02, -187500.02, -187500.02, -187500.02, 0.000, 0.000, 0.000, 16:53:57.363
91, 31667.66, 13638.88, 187500.00, 187500.00, -187500.02, -187500.02, -187500.02, -187500.02, 0.000, 0.000, 0.000, 16:53:57.363
92, 31741.67, 13901.04, 187500.00, 187500.00, -187500.02, -187500.02, -187500.02, -187500.02, 0.000, 0.000, 0.000, 16:53:57.363
93, 32049.14, 14249.55, 187500.00, 187500.00, -187500.02, -187500.02, -187500.02, -187500.02, 0.000, 0.000, 0.000, 16:53:57.363
94, 31988.25, 14083.74, 187500.00, 187500.00, -187500.02, -187500.02, -187500.02, -187500.02, 0.000, 0.000, 0.000, 16:53:57.363
95, 31749.76, 13788.66, 187500.00, 187500.00, -187500.02, -187500.02, -187500.02, -187500.02, 0.000, 0.000, 0.000, 16:53:57.363
96, 31645.11, 13625.53, 187500.00, 187500.00, -187500.02, -187500.02, -187500.02, -187500.02, 0.014, -0.022, 1.024, 16:53:57.363
97, 31719.98, 13881.28, 187500.00, 187500.00, -187500.02, -187500.02, -187500.02, -187500.02, 0.000, 0.000, 0.000, 16:53:57.364
98, 32034.14, 14241.61, 187500.00, 187500.00, -187500.02, -187500.02, -187500.02, -187500.02, 0.000, 0.000, 0.000, 16:53:57.364
99, 31984.88, 14083.88, 187500.00, 187500.00, -187500.02, -187500.02, -187500.02, -187500.02, 0.000, 0.000, 0.000, 16:53:57.364
100, 31737.13, 13774.89, 187500.00, 187500.00, -187500.02, -187500.02, -187500.02, -187500.02, 0.000, 0.000, 0.000, 16:53:57.364
101, 31628.37, 13608.55, 187500.00, 187500.00, -187500.02, -187500.02, -187500.02, -187500.02, 0.000, 0.000, 0.000, 16:53:57.364
102, 31711.04, 13882.53, 187500.00, 187500.00, -187500.02, -187500.02, -187500.02, -187500.02, 0.000, 0.000, 0.000, 16:53:57.364
103, 32031.12, 14252.43, 187500.00, 187500.00, -187500.02, -187500.02, -187500.02, -187500.02, 0.000, 0.000, 0.000, 16:53:57.364
104, 31988.77, 14103.19, 187500.00, 187500.00, -187500.02, -187500.02, -187500.02, -187500.02, 0.000, 0.000, 0.000, 16:53:57.364
105, 31755.30, 13801.71, 187500.00, 187500.00, -187500.02, -187500.02, -187500.02, -187500.02, 0.000, 0.000, 0.000, 16:53:57.364
106, 31651.99, 13635.97, 187500.00, 187500.00, -187500.02, -187500.02, -187500.02, -187500.02, 0.008, -0.014, 1.024, 16:53:57.365
107, 31723.18, 13889.35, 187500.00, 187500.00, -187500.02, -187500.02, -187500.02, -187500.02, 0.000, 0.000, 0.000, 16:53:57.365
108, 32043.15, 14255.50, 187500.00, 187500.00, -187500.02, -187500.02, -187500.02, -187500.02, 0.000, 0.000, 0.000, 16:53:57.365
109, 32003.58, 14111.84, 187500.00, 187500.00, -187500.02, -187500.02, -187500.02, -187500.02, 0.000, 0.000, 0.000, 16:53:57.365
110, 31760.40, 13807.12, 187500.00, 187500.00, -187500.02, -187500.02, -187500.02, -187500.02, 0.000, 0.000, 0.000, 16:53:57.365
111, 31652.62, 13637.87, 187500.00, 187500.00, -187500.02, -187500.02, -187500.02, -187500.02, 0.000, 0.000, 0.000, 16:53:57.365
112, 31727.32, 13898.43, 187500.00, 187500.00, -187500.02, -187500.02, -187500.02, -187500.02, 0.000, 0.000, 0.000, 16:53:57.365
113, 32045.90, 14266.36, 187500.00, 187500.00, -187500.02, -187500.02, -187500.02, -187500.02, 0.000, 0.000, 0.000, 16:53:57.365
114, 32010.13, 14118.50, 187500.00, 187500.00, -187500.02, -187500.02, -187500.02, -187500.02, 0.000, 0.000, 0.000, 16:53:57.366
115, 31768.98, 13816.08, 187500.00, 187500.00, -187500.02, -187500.02, -187500.02, -187500.02, 0.000, 0.000, 0.000, 16:53:57.366
116, 31646.38, 13631.61, 187500.00, 187500.00, -187500.02, -187500.02, -187500.02, -187500.02, 0.014, -0.018, 1.024, 16:53:57.366
117, 31718.49, 13890.00, 187500.00, 187500.00, -187500.02, -187500.02, -187500.02, -187500.02, 0.000, 0.000, 0.000, 16:53:57.366
118, 32042.41, 14264.08, 187500.00, 187500.00, -187500.02, -187500.02, -187500.02, -187500.02, 0.000, 0.000, 0.000, 16:53:57.366
119, 32001.35, 14117.45, 187500.00, 187500.00, -187500.02, -187500.02, -187500.02, -187500.02, 0.000, 0.000, 0.000, 16:53:57.366
120, 31766.81, 13817.51, 187500.00, 187500.00, -187500.02, -187500.02, -187500.02, -187500.02, 0.000, 0.000, 0.000, 16:53:57.829
121, 31643.90, 13624.48, 187500.00, 187500.00, -187500.02, -187500.02, -187500.02, -187500.02, 0.000, 0.000, 0.000, 16:53:57.829
122, 31706.19, 13880.68, 187500.00, 187500.00, -187500.02, -187500.02, -187500.02, -187500.02, 0.000, 0.000, 0.000, 16:53:57.829
123, 32027.37, 14257.57, 187500.00, 187500.00, -187500.02, -187500.02, -187500.02, -187500.02, 0.000, 0.000, 0.000, 16:53:57.830
124, 31999.25, 14116.83, 187500.00, 187500.00, -187500.02, -187500.02, -187500.02, -187500.02, 0.000, 0.000, 0.000, 16:53:57.830
125, 31767.26, 13818.00, 187500.00, 187500.00, -187500.02, -187500.02, -187500.02, -187500.02, 0.000, 0.000, 0.000, 16:53:57.830
126, 31639.38, 13622.90, 187500.00, 187500.00, -187500.02, -187500.02, -187500.02, -187500.02, 0.014, -0.020, 1.030, 16:53:57.830
127, 31713.73, 13884.43, 187500.00, 187500.00, -187500.02, -187500.02, -187500.02, -187500.02, 0.000, 0.000, 0.000, 16:53:57.830
128, 32043.97, 14263.90, 187500.00, 187500.00, -187500.02, -187500.02, -187500.02, -187500.02, 0.000, 0.000, 0.000, 16:53:57.831
129, 32011.14, 14121.29, 187500.00, 187500.00, -187500.02, -187500.02, -187500.02, -187500.02, 0.000, 0.000, 0.000, 16:53:57.831
130, 31761.52, 13807.39, 187500.00, 187500.00, -187500.02, -187500.02, -187500.02, -187500.02, 0.000, 0.000, 0.000, 16:53:57.831
131, 31649.13, 13634.43, 187500.00, 187500.00, -187500.02, -187500.02, -187500.02, -187500.02, 0.000, 0.000, 0.000, 16:53:57.831
132, 31723.05, 13903.95, 187500.00, 187500.00, -187500.02, -187500.02, -187500.02, -187500.02, 0.000, 0.000, 0.000, 16:53:57.831
133, 32053.09, 14284.44, 187500.00, 187500.00, -187500.02, -187500.02, -187500.02, -187500.02, 0.000, 0.000, 0.000, 16:53:57.831
134, 32005.86, 14115.37, 187500.00, 187500.00, -187500.02, -187500.02, -187500.02, -187500.02, 0.000, 0.000, 0.000, 16:53:57.832
135, 31761.52, 13801.51, 187500.00, 187500.00, -187500.02, -187500.02, -187500.02, -187500.02, 0.000, 0.000, 0.000, 16:53:57.832
136, 31652.60, 13627.66, 187500.00, 187500.00, -187500.02, -187500.02, -187500.02, -187500.02, 0.014, -0.020, 1.030, 16:53:57.832
137, 31736.50, 13905.49, 187500.00, 187500.00, -187500.02, -187500.02, -187500.02, -187500.02, 0.000, 0.000, 0.000, 16:53:57.832
138, 32054.55, 14277.96, 187500.00, 187500.00, -187500.02, -187500.02, -187500.02, -187500.02, 0.000, 0.000, 0.000, 16:53:57.832
139, 32013.22, 14120.40, 187500.00, 187500.00, -187500.02, -187500.02, -187500.02, -187500.02, 0.000, 0.000, 0.000, 16:53:57.832
140, 31771.33, 13814.18, 187500.00, 187500.00, -187500.02, -187500.02, -187500.02, -187500.02, 0.000, 0.000, 0.000, 16:53:57.832
141, 31648.30, 13624.91, 187500.00, 187500.00, -187500.02, -187500.02, -187500.02, -187500.02, 0.000, 0.000, 0.000, 16:53:57.832
142, 31727.23, 13889.69, 187500.00, 187500.00, -187500.02, -187500.02, -187500.02, -187500.02, 0.000, 0.000, 0.000, 16:53:57.833
143, 32074.44, 14285.51, 187500.00, 187500.00, -187500.02, -187500.02, -187500.02, -187500.02, 0.000, 0.000, 0.000, 16:53:57.833
144, 32037.65, 14134.82, 187500.00, 187500.00, -187500.02, -187500.02, -187500.02, -187500.02, 0.000, 0.000, 0.000, 16:53:57.833
145, 31794.55, 13837.32, 187500.00, 187500.00, -187500.02, -187500.02, -187500.02, -187500.02, 0.000, 0.000, 0.000, 16:53:57.833
146, 31669.16, 13650.41, 187500.00, 187500.00, -187500.02, -187500.02, -187500.02, -187500.02, 0.012, -0.026, 1.030, 16:53:57.833
147, 31731.52, 13898.40, 187500.00, 187500.00, -187500.02, -187500.02, -187500.02, -187500.02, 0.000, 0.000, 0.000, 16:53:57.833
148, 32059.46, 14276.30, 187500.00, 187500.00, -187500.02, -187500.02, -187500.02, -187500.02, 0.000, 0.000, 0.000, 16:53:57.833
149, 32035.59, 14140.12, 187500.00, 187500.00, -187500.02, -187500.02, -187500.02, -187500.02, 0.000, 0.000, 0.000, 16:53:57.833
150, 31792.09, 13827.82, 187500.00, 187500.00, -187500.02, -187500.02, -187500.02, -187500.02, 0.000, 0.000, 0.000, 16:53:57.834
151, 31674.86, 13649.67, 187500.00, 187500.00, -187500.02, -187500.02, -187500.02, -187500.02, 0.000, 0.000, 0.000, 16:53:57.834
152, 31748.75, 13912.82, 187500.00, 187500.00, -187500.02, -187500.02, -187500.02, -187500.02, 0.000, 0.000, 0.000, 16:53:57.834
153, 32096.57, 14308.38, 187500.00, 187500.00, -187500.02, -187500.02, -187500.02, -187500.02, 0.000, 0.000, 0.000, 16:53:57.834
154, 32069.48, 14170.56, 187500.00, 187500.00, -187500.02, -187500.02, -187500.02, -187500.02, 0.000, 0.000, 0.000, 16:53:57.834
155, 31829.20, 13864.09, 187500.00, 187500.00, -187500.02, -187500.02, -187500.02, -187500.02, 0.000, 0.000, 0.000, 16:53:57.834
156, 31702.17, 13669.81, 187500.00, 187500.00, -187500.02, -187500.02, -187500.02, -187500.02, 0.014, -0.020, 1.028, 16:53:57.835
157, 31757.87, 13913.36, 187500.00, 187500.00, -187500.02, -187500.02, -187500.02, -187500.02, 0.000, 0.000, 0.000, 16:53:57.835
158, 32097.28, 14307.53, 187500.00, 187500.00, -187500.02, -187500.02, -187500.02, -187500.02, 0.000, 0.000, 0.000, 16:53:57.835
159, 32064.98, 14168.35, 187500.00, 187500.00, -187500.02, -187500.02, -187500.02, -187500.02, 0.000, 0.000, 0.000, 16:53:57.835
160, 31826.38, 13866.17, 187500.00, 187500.00, -187500.02, -187500.02, -187500.02, -187500.02, 0.000, 0.000, 0.000, 16:53:57.835
161, 31691.82, 13675.09, 187500.00, 187500.00, -187500.02, -187500.02, -187500.02, -187500.02, 0.000, 0.000, 0.000, 16:53:57.836
162, 31763.35, 13931.37, 187500.00, 187500.00, -187500.02, -187500.02, -187500.02, -187500.02, 0.000, 0.000, 0.000, 16:53:57.836
163, 32099.05, 14304.20, 187500.00, 187500.00, -187500.02, -187500.02, -187500.02, -187500.02, 0.000, 0.000, 0.000, 16:53:57.836
164, 32050.41, 14148.18, 187500.00, 187500.00, -187500.02, -187500.02, -187500.02, -187500.02, 0.000, 0.000, 0.000, 16:53:57.836
165, 31825.84, 13857.32, 187500.00, 187500.00, -187500.02, -187500.02, -187500.02, -187500.02, 0.012, -0.014, 1.028, 16:53:57.836
166, 31712.12, 13674.08, 187500.00, 187500.00, -187500.02, -187500.02, -187500.02, -187500.02, 0.000, 0.000, 0.000, 16:53:57.836
167, 31777.65, 13925.29, 187500.00, 187500.00, -187500.02, -187500.02, -187500.02, -187500.02, 0.000, 0.000, 0.000, 16:53:57.837
168, 32115.30, 14316.98, 187500.00, 187500.00, -187500.02, -187500.02, -187500.02, -187500.02, 0.000, 0.000, 0.000, 16:53:57.837
169, 32073.46, 14164.77, 187500.00, 187500.00, -187500.02, -187500.02, -187500.02, -187500.02, 0.000, 0.000, 0.000, 16:53:57.837
170, 31820.14, 13848.29, 187500.00, 187500.00, -187500.02, -187500.02, -187500.02, -187500.02, 0.000, 0.000, 0.000, 16:53:57.837
171, 31682.32, 13643.46, 187500.00, 187500.00, -187500.02, -187500.02, -187500.02, -187500.02, 0.000, 0.000, 0.000, 16:53:57.837
172, 31744.71, 13894.92, 187500.00, 187500.00, -187500.02, -187500.02, -187500.02, -187500.02, 0.000, 0.000, 0.000, 16:53:57.838
173, 32089.13, 14290.16, 187500.00, 187500.00, -187500.02, -187500.02, -187500.02, -187500.02, 0.000, 0.000, 0.000, 16:53:57.838
174, 32055.60, 14148.30, 187500.00, 187500.00, -187500.02, -187500.02, -187500.02, -187500.02, 0.000, 0.000, 0.000, 16:53:57.838
175, 31808.68, 13839.46, 187500.00, 187500.00, -187500.02, -187500.02, -187500.02, -187500.02, 0.012, -0.016, 1.022, 16:53:57.838
176, 31687.04, 13651.95, 187500.00, 187500.00, -187500.02, -187500.02, -187500.02, -187500.02, 0.000, 0.000, 0.000, 16:53:57.838
177, 31751.57, 13900.88, 187500.00, 187500.00, -187500.02, -187500.02, -187500.02, -187500.02, 0.000, 0.000, 0.000, 16:53:57.838
178, 32095.79, 14298.34, 187500.00, 187500.00, -187500.02, -187500.02, -187500.02, -187500.02, 0.000, 0.000, 0.000, 16:53:57.839
179, 32070.79, 14163.56, 187500.00, 187500.00, -187500.02, -187500.02, -187500.02, -187500.02, 0.000, 0.000, 0.000, 16:53:57.839
180, 31819.70, 13847.38, 187500.00, 187500.00, -187500.02, -187500.02, -187500.02, -187500.02, 0.000, 0.000, 0.000, 16:53:57.839
181, 31695.09, 13653.54, 187500.00, 187500.00, -187500.02, -187500.02, -187500.02, -187500.02, 0.000, 0.000, 0.000, 16:53:57.839
182, 31752.87, 13900.15, 187500.00, 187500.00, -187500.02, -187500.02, -187500.02, -187500.02, 0.000, 0.000, 0.000, 16:53:57.839
183, 32095.34, 14297.94, 187500.00, 187500.00, -187500.02, -187500.02, -187500.02, -187500.02, 0.000, 0.000, 0.000, 16:53:57.840
184, 32073.05, 14165.89, 187500.00, 187500.00, -187500.02, -187500.02, -187500.02, -187500.02, 0.000, 0.000, 0.000, 16:53:57.840
185, 31819.67, 13850.17, 187500.00, 187500.00, -187500.02, -187500.02, -187500.02, -187500.02, 0.012, -0.020, 1.024, 16:53:57.840
186, 31693.59, 13654.55, 187500.00, 187500.00, -187500.02, -187500.02, -187500.02, -187500.02, 0.000, 0.000, 0.000, 16:53:57.840
187, 31756.33, 13901.31, 187500.00, 187500.00, -187500.02, -187500.02, -187500.02, -187500.02, 0.000, 0.000, 0.000, 16:53:57.840
188, 32097.98, 14295.75, 187500.00, 187500.00, -187500.02, -187500.02, -187500.02, -187500.02, 0.000, 0.000, 0.000, 16:53:57.840
189, 32075.62, 14162.11, 187500.00, 187500.00, -187500.02, -187500.02, -187500.02, -187500.02, 0.000, 0.000, 0.000, 16:53:57.841
190, 31827.45, 13850.15, 187500.00, 187500.00, -187500.02, -187500.02, -187500.02, -187500.02, 0.000, 0.000, 0.000, 16:53:57.841
191, 31692.20, 13648.71, 187500.00, 187500.00, -187500.02, -187500.02, -187500.02, -187500.02, 0.000, 0.000, 0.000, 16:53:57.841
192, 31746.18, 13886.58, 187500.00, 187500.00, -187500.02, -187500.02, -187500.02, -187500.02, 0.000, 0.000, 0.000, 16:53:57.841
193, 32090.71, 14286.50, 187500.00, 187500.00, -187500.02, -187500.02, -187500.02, -187500.02, 0.000, 0.000, 0.000, 16:53:57.841
194, 32065.74, 14156.45, 187500.00, 187500.00, -187500.02, -187500.02, -187500.02, -187500.02, 0.000, 0.000, 0.000, 16:53:57.842
195, 31804.43, 13829.16, 187500.00, 187500.00, -187500.02, -187500.02, -187500.02, -187500.02, 0.010, -0.014, 1.022, 16:53:57.842
196, 31666.16, 13621.49, 187500.00, 187500.00, -187500.02, -187500.02, -187500.02, -187500.02, 0.000, 0.000, 0.000, 16:53:57.842
197, 31719.16, 13856.34, 187500.00, 187500.00, -187500.02, -187500.02, -187500.02, -187500.02, 0.000, 0.000, 0.000, 16:53:57.842
198, 32067.44, 14260.30, 187500.00, 187500.00, -187500.02, -187500.02, -187500.02, -187500.02, 0.000, 0.000, 0.000, 16:53:57.842
199, 32056.20, 14140.65, 187500.00, 187500.00, -187500.02, -187500.02, -187500.02, -187500.02, 0.000, 0.000, 0.000, 16:53:57.843
200, 31795.56, 13814.54, 187500.00, 187500.00, -187500.02, -187500.02, -187500.02, -187500.02, 0.000, 0.000, 0.000, 16:53:57.843
201, 31662.77, 13615.52, 187500.00, 187500.00, -187500.02, -187500.02, -187500.02, -187500.02, 0.000, 0.000, 0.000, 16:53:57.843
202, 31719.09, 13853.25, 187500.00, 187500.00, -187500.02, -187500.02, -187500.02, -187500.02, 0.000, 0.000, 0.000, 16:53:57.843
203, 32066.41, 14248.23, 187500.00, 187500.00, -187500.02, -187500.02, -187500.02, -187500.02, 0.000, 0.000, 0.000, 16:53:57.843
204, 32059.31, 14135.38, 187500.00, 187500.00, -187500.02, -187500.02, -187500.02, -187500.02, 0.000, 0.000, 0.000, 16:53:57.843
205, 31808.23, 13826.43, 187500.00, 187500.00, -187500.02, -187500.02, -187500.02, -187500.02, 0.012, -0.012, 1.024, 16:53:57.843
206, 31680.87, 13641.98, 187500.00, 187500.00, -187500.02, -187500.02, -187500.02, -187500.02, 0.000, 0.000, 0.000, 16:53:57.843
207, 31718.04, 13862.57, 187500.00, 187500.00, -187500.02, -187500.02, -187500.02, -187500.02, 0.000, 0.000, 0.000, 16:53:57.844
208, 32079.00, 14267.52, 187500.00, 187500.00, -187500.02, -187500.02, -187500.02, -187500.02, 0.000, 0.000, 0.000, 16:53:57.844
209, 32063.51, 14146.02, 187500.00, 187500.00, -187500.02, -187500.02, -187500.02, -187500.02, 0.000, 0.000, 0.000, 16:53:57.844
210, 31819.74, 13843.02, 187500.00, 187500.00, -187500.02, -187500.02, -187500.02, -187500.02, 0.000, 0.000, 0.000, 16:53:57.844
211, 31689.16, 13642.34, 187500.00, 187500.00, -187500.02, -187500.02, -187500.02, -187500.02, 0.000, 0.000, 0.000, 16:53:57.844
212, 31735.77, 13870.78, 187500.00, 187500.00, -187500.02, -187500.02, -187500.02, -187500.02, 0.000, 0.000, 0.000, 16:53:57.844
213, 32091.31, 14282.61, 187500.00, 187500.00, -187500.02, -187500.02, -187500.02, -187500.02, 0.000, 0.000, 0.000, 16:53:57.845
214, 32069.54, 14152.65, 187500.00, 187500.00, -187500.02, -187500.02, -187500.02, -187500.02, 0.000, 0.000, 0.000, 16:53:57.845
215, 31823.14, 13839.10, 187500.00, 187500.00, -187500.02, -187500.02, -187500.02, -187500.02, 0.008, -0.010, 1.022, 16:53:57.845
216, 31687.20, 13635.50, 187500.00, 187500.00, -187500.02, -187500.02, -187500.02, -187500.02, 0.000, 0.000, 0.000, 16:53:57.845
217, 31746.36, 13882.98, 187500.00, 187500.00, -187500.02, -187500.02, -187500.02, -187500.02, 0.000, 0.000, 0.000, 16:53:57.845
218, 32098.89, 14290.83, 187500.00, 187500.00, -187500.02, -187500.02, -187500.02, -187500.02, 0.000, 0.000, 0.000, 16:53:57.846
219, 32075.62, 14155.65, 187500.00, 187500.00, -187500.02, -187500.02, -187500.02, -187500.02, 0.000, 0.000, 0.000, 16:53:57.846
220, 31820.57, 13834.23, 187500.00, 187500.00, -187500.02, -187500.02, -187500.02, -187500.02, 0.000, 0.000, 0.000, 16:53:57.846
221, 31684.22, 13629.76, 187500.00, 187500.00, -187500.02, -187500.02, -187500.02, -187500.02, 0.000, 0.000, 0.000, 16:53:57.846
222, 31744.64, 13880.25, 187500.00, 187500.00, -187500.02, -187500.02, -187500.02, -187500.02, 0.000, 0.000, 0.000, 16:53:57.846
223, 32098.09, 14291.91, 187500.00, 187500.00, -187500.02, -187500.02, -187500.02, -187500.02, 0.000, 0.000, 0.000, 16:53:57.846
224, 32078.80, 14162.40, 187500.00, 187500.00, -187500.02, -187500.02, -187500.02, -187500.02, 0.000, 0.000, 0.000, 16:53:57.847
225, 31834.43, 13851.00, 187500.00, 187500.00, -187500.02, -187500.02, -187500.02, -187500.02, 0.008, -0.014, 1.022, 16:53:57.847
226, 31700.12, 13644.02, 187500.00, 187500.00, -187500.02, -187500.02, -187500.02, -187500.02, 0.000, 0.000, 0.000, 16:53:57.847
227, 31747.77, 13880.08, 187500.00, 187500.00, -187500.02, -187500.02, -187500.02, -187500.02, 0.000, 0.000, 0.000, 16:53:57.847
228, 32099.05, 14292.78, 187500.00, 187500.00, -187500.02, -187500.02, -187500.02, -187500.02, 0.000, 0.000, 0.000, 16:53:57.847
229, 32088.05, 14174.11, 187500.00, 187500.00, -187500.02, -187500.02, -187500.02, -187500.02, 0.000, 0.000, 0.000, 16:53:57.847
230, 31832.93, 13855.60, 187500.00, 187500.00, -187500.02, -187500.02, -187500.02, -187500.02, 0.000, 0.000, 0.000, 16:53:57.848
231, 31712.07, 13663.98, 187500.00, 187500.00, -187500.02, -187500.02, -187500.02, -187500.02, 0.000, 0.000, 0.000, 16:53:57.848
232, 31761.27, 13894.69, 187500.00, 187500.00, -187500.02, -187500.02, -187500.02, -187500.02, 0.000, 0.000, 0.000, 16:53:57.848
233, 32111.14, 14304.89, 187500.00, 187500.00, -187500.02, -187500.02, -187500.02, -187500.02, 0.000, 0.000, 0.000, 16:53:57.848
234, 32086.84, 14177.89, 187500.00, 187500.00, -187500.02, -187500.02, -187500.02, -187500.02, 0.000, 0.000, 0.000, 16:53:57.848
235, 31840.84, 13860.72, 187500.00, 187500.00, -187500.02, -187500.02, -187500.02, -187500.02, 0.018, -0.016, 1.024, 16:53:57.848
236, 31703.33, 13652.69, 187500.00, 187500.00, -187500.02, -187500.02, -187500.02, -187500.02, 0.000, 0.000, 0.000, 16:53:57.849
237, 31756.75, 13896.06, 187500.00, 187500.00, -187500.02, -187500.02, -187500.02, -187500.02, 0.000, 0.000, 0.000, 16:53:57.849
238, 32097.21, 14294.95, 187500.00, 187500.00, -187500.02, -187500.02, -187500.02, -187500.02, 0.000, 0.000, 0.000, 16:53:57.849
239, 32091.00, 14177.93, 187500.00, 187500.00, -187500.02, -187500.02, -187500.02, -187500.02, 0.000, 0.000, 0.000, 16:53:57.849
240, 31843.26, 13862.51, 187500.00, 187500.00, -187500.02, -187500.02, -187500.02, -187500.02, 0.000, 0.000, 0.000, 16:53:58.309
241, 31704.23, 13648.49, 187500.00, 187500.00, -187500.02, -187500.02, -187500.02, -187500.02, 0.000, 0.000, 0.000, 16:53:58.309
242, 31754.72, 13889.84, 187500.00, 187500.00, -187500.02, -187500.02, -187500.02, -187500.02, 0.000, 0.000, 0.000, 16:53:58.309
243, 32104.46, 14301.38, 187500.00, 187500.00, -187500.02, -187500.02, -187500.02, -187500.02, 0.000, 0.000, 0.000, 16:53:58.310
244, 32083.09, 14167.41, 187500.00, 187500.00, -187500.02, -187500.02, -187500.02, -187500.02, 0.000, 0.000, 0.000, 16:53:58.310
245, 31822.71, 13838.55, 187500.00, 187500.00, -187500.02, -187500.02, -187500.02, -187500.02, 0.014, -0.022, 1.026, 16:53:58.310
246, 31685.61, 13627.03, 187500.00, 187500.00, -187500.02, -187500.02, -187500.02, -187500.02, 0.000, 0.000, 0.000, 16:53:58.310
247, 31750.52, 13883.20, 187500.00, 187500.00, -187500.02, -187500.02, -187500.02, -187500.02, 0.000, 0.000, 0.000, 16:53:58.310
248, 32113.17, 14307.44, 187500.00, 187500.00, -187500.02, -187500.02, -187500.02, -187500.02, 0.000, 0.000, 0.000, 16:53:58.311
249, 32095.18, 14176.01, 187500.00, 187500.00, -187500.02, -187500.02, -187500.02, -187500.02, 0.000, 0.000, 0.000, 16:53:58.311
250, 31851.86, 13865.52, 187500.00, 187500.00, -187500.02, -187500.02, -187500.02, -187500.02, 0.000, 0.000, 0.000, 16:53:58.311
251, 31716.59, 13656.80, 187500.00, 187500.00, -187500.02, -187500.02, -187500.02, -187500.02, 0.000, 0.000, 0.000, 16:53:58.311
252, 31755.35, 13884.77, 187500.00, 187500.00, -187500.02, -187500.02, -187500.02, -187500.02, 0.000, 0.000, 0.000, 16:53:58.311
253, 32107.21, 14302.66, 187500.00, 187500.00, -187500.02, -187500.02, -187500.02, -187500.02, 0.000, 0.000, 0.000, 16:53:58.312
254, 32087.69, 14170.29, 187500.00, 187500.00, -187500.02, -187500.02, -187500.02, -187500.02, 0.000, 0.000, 0.000, 16:53:58.312
255, 31833.69, 13850.91, 187500.00, 187500.00, -187500.02, -187500.02, -187500.02, -187500.02, 0.018, -0.016, 1.030, 16:53:58.312
0, 31709.93, 13652.24, 187500.00, 187500.00, -187500.02, -187500.02, -187500.02, -187500.02, 0.000, 0.000, 0.000, 16:53:58.312
1, 31757.07, 13889.93, 187500.00, 187500.00, -187500.02, -187500.02, -187500.02, -187500.02, 0.000, 0.000, 0.000, 16:53:58.312
2, 32104.28, 14302.05, 187500.00, 187500.00, -187500.02, -187500.02, -187500.02, -187500.02, 0.000, 0.000, 0.000, 16:53:58.312
3, 32097.28, 14184.95, 187500.00, 187500.00, -187500.02, -187500.02, -187500.02, -187500.02, 0.000, 0.000, 0.000, 16:53:58.312
4, 31858.46, 13878.53, 187500.00, 187500.00, -187500.02, -187500.02, -187500.02, -187500.02, 0.000, 0.000, 0.000, 16:53:58.312
5, 31720.23, 13664.43, 187500.00, 187500.00, -187500.02, -187500.02, -187500.02, -187500.02, 0.000, 0.000, 0.000, 16:53:58.312
6, 31753.74, 13894.16, 187500.00, 187500.00, -187500.02, -187500.02, -187500.02, -187500.02, 0.000, 0.000, 0.000, 16:53:58.313
7, 32106.07, 14312.80, 187500.00, 187500.00, -187500.02, -187500.02, -187500.02, -187500.02, 0.000, 0.000, 0.000, 16:53:58.313
8, 32103.97, 14196.35, 187500.00, 187500.00, -187500.02, -187500.02, -187500.02, -187500.02, 0.000, 0.000, 0.000, 16:53:58.313
9, 31853.43, 13875.49, 187500.00, 187500.00, -187500.02, -187500.02, -187500.02, -187500.02, 0.016, -0.016, 1.034, 16:53:58.313
10, 31718.42, 13664.20, 187500.00, 187500.00, -187500.02, -187500.02, -187500.02, -187500.02, 0.000, 0.000, 0.000, 16:53:58.313
11, 31767.44, 13896.50, 187500.00, 187500.00, -187500.02, -187500.02, -187500.02, -187500.02, 0.000, 0.000, 0.000, 16:53:58.313
12, 32115.86, 14309.88, 187500.00, 187500.00, -187500.02, -187500.02, -187500.02, -187500.02, 0.000, 0.000, 0.000, 16:53:58.313
13, 32095.18, 14177.91, 187500.00, 187500.00, -187500.02, -187500.02, -187500.02, -187500.02, 0.000, 0.000, 0.000, 16:53:58.313
14, 31845.22, 13857.66, 187500.00, 187500.00, -187500.02, -187500.02, -187500.02, -187500.02, 0.000, 0.000, 0.000, 16:53:58.314
15, 31702.84, 13640.87, 187500.00, 187500.00, -187500.02, -187500.02, -187500.02, -187500.02, 0.000, 0.000, 0.000, 16:53:58.314
16, 31741.26, 13875.69, 187500.00, 187500.00, -187500.02, -187500.02, -187500.02, -187500.02, 0.000, 0.000, 0.000, 16:53:58.314
17, 32100.66, 14301.36, 187500.00, 187500.00, -187500.02, -187500.02, -187500.02, -187500.02, 0.000, 0.000, 0.000, 16:53:58.314
18, 32088.41, 14172.19, 187500.00, 187500.00, -187500.02, -187500.02, -187500.02, -187500.02, 0.000, 0.000, 0.000, 16:53:58.314
19, 31833.76, 13848.67, 187500.00, 187500.00, -187500.02, -187500.02, -187500.02, -187500.02, 0.006, -0.020, 1.026, 16:53:58.314
20, 31693.95, 13632.37, 187500.00, 187500.00, -187500.02, -187500.02, -187500.02, -187500.02, 0.000, 0.000, 0.000, 16:53:58.314
21, 31733.11, 13865.52, 187500.00, 187500.00, -187500.02, -187500.02, -187500.02, -187500.02, 0.000, 0.000, 0.000, 16:53:58.314
22, 32084.68, 14284.13, 187500.00, 187500.00, -187500.02, -187500.02, -187500.02, -187500.02, 0.000, 0.000, 0.000, 16:53:58.315
23, 32085.35, 14174.78, 187500.00, 187500.00, -187500.02, -187500.02, -187500.02, -187500.02, 0.000, 0.000, 0.000, 16:53:58.315
24, 31840.97, 13864.65, 187500.00, 187500.00, -187500.02, -187500.02, -187500.02, -187500.02, 0.000, 0.000, 0.000, 16:53:58.315
25, 31689.81, 13637.96, 187500.00, 187500.00, -187500.02, -187500.02, -187500.02, -187500.02, 0.000, 0.000, 0.000, 16:53:58.315
26, 31738.54, 13881.06, 187500.00, 187500.00, -187500.02, -187500.02, -187500.02, -187500.02, 0.000, 0.000, 0.000, 16:53:58.315
27, 32098.13, 14309.50, 187500.00, 187500.00, -187500.02, -187500.02, -187500.02, -187500.02, 0.000, 0.000, 0.000, 16:53:58.315
28, 32096.95, 14190.41, 187500.00, 187500.00, -187500.02, -187500.02, -187500.02, -187500.02, 0.000, 0.000, 0.000, 16:53:58.315
29, 31845.80, 13870.64, 187500.00, 187500.00, -187500.02, -187500.02, -187500.02, -187500.02, 0.008, -0.016, 1.026, 16:53:58.315
30, 31712.01, 13662.08, 187500.00, 187500.00, -187500.02, -187500.02, -187500.02, -187500.02, 0.000, 0.000, 0.000, 16:53:58.315
31, 31764.31, 13913.63, 187500.00, 187500.00, -187500.02, -187500.02, -187500.02, -187500.02, 0.000, 0.000, 0.000, 16:53:58.316
32, 32107.43, 14326.35, 187500.00, 187500.00, -187500.02, -187500.02, -187500.02, -187500.02, 0.000, 0.000, 0.000, 16:53:58.316
33, 32103.47, 14205.49, 187500.00, 187500.00, -187500.02, -187500.02, -187500.02, -187500.02, 0.000, 0.000, 0.000, 16:53:58.316
34, 31847.52, 13881.84, 187500.00, 187500.00, -187500.02, -187500.02, -187500.02, -187500.02, 0.000, 0.000, 0.000, 16:53:58.316
35, 31709.70, 13666.71, 187500.00, 187500.00, -187500.02, -187500.02, -187500.02, -187500.02, 0.000, 0.000, 0.000, 16:53:58.316
36, 31752.37, 13907.55, 187500.00, 187500.00, -187500.02, -187500.02, -187500.02, -187500.02, 0.000, 0.000, 0.000, 16:53:58.316
37, 32097.98, 14325.59, 187500.00, 187500.00, -187500.02, -187500.02, -187500.02, -187500.02, 0.000, 0.000, 0.000, 16:53:58.316
38, 32079.87, 14187.61, 187500.00, 187500.00, -187500.02, -187500.02, -187500.02, -187500.02, 0.014, -0.016, 1.026, 16:53:58.316
39, 31836.24, 13873.41, 187500.00, 187500.00, -187500.02, -187500.02, -187500.02, -187500.02, 0.000, 0.000, 0.000, 16:53:58.317
40, 31721.06, 13676.76, 187500.00, 187500.00, -187500.02, -187500.02, -187500.02, -187500.02, 0.000, 0.000, 0.000, 16:53:58.317
41, 31762.63, 13914.94, 187500.00, 187500.00, -187500.02, -187500.02, -187500.02, -187500.02, 0.000, 0.000, 0.000, 16:53:58.317
42, 32103.56, 14334.87, 187500.00, 187500.00, -187500.02, -187500.02, -187500.02, -187500.02, 0.000, 0.000, 0.000, 16:53:58.317
43, 32095.12, 14208.09, 187500.00, 187500.00, -187500.02, -187500.02, -187500.02, -187500.02, 0.000, 0.000, 0.000, 16:53:58.317
44, 31843.26, 13882.51, 187500.00, 187500.00, -187500.02, -187500.02, -187500.02, -187500.02, 0.000, 0.000, 0.000, 16:53:58.318
45, 31694.95, 13656.89, 187500.00, 187500.00, -187500.02, -187500.02, -187500.02, -187500.02, 0.000, 0.000, 0.000, 16:53:58.318
46, 31744.35, 13906.05, 187500.00, 187500.00, -187500.02, -187500.02, -187500.02, -187500.02, 0.000, 0.000, 0.000, 16:53:58.318
47, 32104.01, 14334.46, 187500.00, 187500.00, -187500.02, -187500.02, -187500.02, -187500.02, 0.000, 0.000, 0.000, 16:53:58.318
48, 32104.10, 14208.91, 187500.00, 187500.00, -187500.02, -187500.02, -187500.02, -187500.02, 0.012, -0.018, 1.026, 16:53:58.318
49, 31861.11, 13896.48, 187500.00, 187500.00, -187500.02, -187500.02, -187500.02, -187500.02, 0.000, 0.000, 0.000, 16:53:58.318
50, 31724.41, 13685.08, 187500.00, 187500.00, -187500.02, -187500.02, -187500.02, -187500.02, 0.000, 0.000, 0.000, 16:53:58.318
51, 31751.08, 13908.39, 187500.00, 187500.00, -187500.02, -187500.02, -187500.02, -187500.02, 0.000, 0.000, 0.000, 16:53:58.319
52, 32109.58, 14333.82, 187500.00, 187500.00, -187500.02, -187500.02, -187500.02, -187500.02, 0.000, 0.000, 0.000, 16:53:58.319
53, 32111.92, 14215.78, 187500.00, 187500.00, -187500.02, -187500.02, -187500.02, -187500.02, 0.000, 0.000, 0.000, 16:53:58.319
54, 31859.88, 13895.92, 187500.00, 187500.00, -187500.02, -187500.02, -187500.02, -187500.02, 0.000, 0.000, 0.000, 16:53:58.319
55, 31722.98, 13680.18, 187500.00, 187500.00, -187500.02, -187500.02, -187500.02, -187500.02, 0.000, 0.000, 0.000, 16:53:58.319
56, 31752.87, 13910.50, 187500.00, 187500.00, -187500.02, -187500.02, -187500.02, -187500.02, 0.000, 0.000, 0.000, 16:53:58.320
57, 32107.81, 14337.55, 187500.00, 187500.00, -187500.02, -187500.02, -187500.02, -187500.02, 0.000, 0.000, 0.000, 16:53:58.320
58, 32093.77, 14199.84, 187500.00, 187500.00, -187500.02, -187500.02, -187500.02, -187500.02, 0.010, -0.020, 1.026, 16:53:58.320
59, 31860.04, 13893.08, 187500.00, 187500.00, -187500.02, -187500.02, -187500.02, -187500.02, 0.000, 0.000, 0.000, 16:53:58.320
60, 31731.45, 13681.68, 187500.00, 187500.00, -187500.02, -187500.02, -187500.02, -187500.02, 0.000, 0.000, 0.000, 16:53:58.320
61, 31749.40, 13899.95, 187500.00, 187500.00, -187500.02, -187500.02, -187500.02, -187500.02, 0.000, 0.000, 0.000, 16:53:58.321
62, 32099.00, 14323.00, 187500.00, 187500.00, -187500.02, -187500.02, -187500.02, -187500.02, 0.000, 0.000, 0.000, 16:53:58.321
63, 32113.15, 14215.75, 187500.00, 187500.00, -187500.02, -187500.02, -187500.02, -187500.02, 0.000, 0.000, 0.000, 16:53:58.321
64, 31874.08, 13907.32, 187500.00, 187500.00, -187500.02, -187500.02, -187500.02, -187500.02, 0.000, 0.000, 0.000, 16:53:58.321
65, 31731.09, 13685.70, 187500.00, 187500.00, -187500.02, -187500.02, -187500.02, -187500.02, 0.000, 0.000, 0.000, 16:53:58.321
66, 31757.71, 13909.87, 187500.00, 187500.00, -187500.02, -187500.02, -187500.02, -187500.02, 0.000, 0.000, 0.000, 16:53:58.321
67, 32112.53, 14336.70, 187500.00, 187500.00, -187500.02, -187500.02, -187500.02, -187500.02, 0.000, 0.000, 0.000, 16:53:58.322
68, 32115.48, 14221.34, 187500.00, 187500.00, -187500.02, -187500.02, -187500.02, -187500.02, 0.010, -0.020, 1.026, 16:53:58.322
69, 31864.89, 13898.49, 187500.00, 187500.00, -187500.02, -187500.02, -187500.02, -187500.02, 0.000, 0.000, 0.000, 16:53:58.322
70, 31736.55, 13691.78, 187500.00, 187500.00, -187500.02, -187500.02, -187500.02, -187500.02, 0.000, 0.000, 0.000, 16:53:58.322
71, 31749.45, 13906.65, 187500.00, 187500.00, -187500.02, -187500.02, -187500.02, -187500.02, 0.000, 0.000, 0.000, 16:53:58.322
72, 32101.04, 14331.60, 187500.00, 187500.00, -187500.02, -187500.02, -187500.02, -187500.02, 0.000, 0.000, 0.000, 16:53:58.322
73, 32117.69, 14228.63, 187500.00, 187500.00, -187500.02, -187500.02, -187500.02, -187500.02, 0.000, 0.000, 0.000, 16:53:58.323
74, 31861.83, 13903.72, 187500.00, 187500.00, -187500.02, -187500.02, -187500.02, -187500.02, 0.000, 0.000, 0.000, 16:53:58.323
75, 31731.45, 13694.51, 187500.00, 187500.00, -187500.02, -187500.02, -187500.02, -187500.02, 0.000, 0.000, 0.000, 16:53:58.323
76, 31754.61, 13921.11, 187500.00, 187500.00, -187500.02, -187500.02, -187500.02, -187500.02, 0.000, 0.000, 0.000, 16:53:58.323
77, 32107.92, 14349.04, 187500.00, 187500.00, -187500.02, -187500.02, -187500.02, -187500.02, 0.000, 0.000, 0.000, 16:53:58.323
78, 32106.92, 14228.70, 187500.00, 187500.00, -187500.02, -187500.02, -187500.02, -187500.02, 0.008, -0.016, 1.026, 16:53:58.324
79, 31862.57, 13916.91, 187500.00, 187500.00, -187500.02, -187500.02, -187500.02, -187500.02, 0.000, 0.000, 0.000, 16:53:58.324
80, 31732.50, 13707.63, 187500.00, 187500.00, -187500.02, -187500.02, -187500.02, -187500.02, 0.000, 0.000, 0.000, 16:53:58.324
81, 31734.65, 13902.27, 187500.00, 187500.00, -187500.02, -187500.02, -187500.02, -187500.02, 0.000, 0.000, 0.000, 16:53:58.324
82, 32093.66, 14334.33, 187500.00, 187500.00, -187500.02, -187500.02, -187500.02, -187500.02, 0.000, 0.000, 0.000, 16:53:58.324
83, 32106.25, 14229.21, 187500.00, 187500.00, -187500.02, -187500.02, -187500.02, -187500.02, 0.000, 0.000, 0.000, 16:53:58.324
84, 31850.97, 13902.90, 187500.00, 187500.00, -187500.02, -187500.02, -187500.02, -187500.02, 0.000, 0.000, 0.000, 16:53:58.325
85, 31710.22, 13681.21, 187500.00, 187500.00, -187500.02, -187500.02, -187500.02, -187500.02, 0.000, 0.000, 0.000, 16:53:58.325
86, 31718.20, 13886.62, 187500.00, 187500.00, -187500.02, -187500.02, -187500.02, -187500.02, 0.000, 0.000, 0.000, 16:53:58.325
87, 32080.27, 14323.20, 187500.00, 187500.00, -187500.02, -187500.02, -187500.02, -187500.02, 0.000, 0.000, 0.000, 16:53:58.325
88, 32094.44, 14217.03, 187500.00, 187500.00, -187500.02, -187500.02, -187500.02, -187500.02, 0.006, -0.020, 1.026, 16:53:58.325
89, 31834.09, 13881.77, 187500.00, 187500.00, -187500.02, -187500.02, -187500.02, -187500.02, 0.000, 0.000, 0.000, 16:53:58.325
90, 31707.65, 13672.09, 187500.00, 187500.00, -187500.02, -187500.02, -187500.02, -187500.02, 0.000, 0.000, 0.000, 16:53:58.326
91, 31726.80, 13885.33, 187500.00, 187500.00, -187500.02, -187500.02, -187500.02, -187500.02, 0.000, 0.000, 0.000, 16:53:58.326
92, 32081.77, 14318.46, 187500.00, 187500.00, -187500.02, -187500.02, -187500.02, -187500.02, 0.000, 0.000, 0.000, 16:53:58.326
93, 32099.74, 14219.98, 187500.00, 187500.00, -187500.02, -187500.02, -187500.02, -187500.02, 0.000, 0.000, 0.000, 16:53:58.326
94, 31870.46, 13921.25, 187500.00, 187500.00, -187500.02, -187500.02, -187500.02, -187500.02, 0.000, 0.000, 0.000, 16:53:58.326
95, 31735.14, 13696.72, 187500.00, 187500.00, -187500.02, -187500.02, -187500.02, -187500.02, 0.000, 0.000, 0.000, 16:53:58.326
96, 31724.01, 13879.05, 187500.00, 187500.00, -187500.02, -187500.02, -187500.02, -187500.02, 0.000, 0.000, 0.000, 16:53:58.326
97, 32076.70, 14306.81, 187500.00, 187500.00, -187500.02, -187500.02, -187500.02, -187500.02, 0.000, 0.000, 0.000, 16:53:58.326
98, 32089.68, 14197.56, 187500.00, 187500.00, -187500.02, -187500.02, -187500.02, -187500.02, 0.012, -0.020, 1.028, 16:53:58.326
99, 31844.55, 13879.29, 187500.00, 187500.00, -187500.02, -187500.02, -187500.02, -187500.02, 0.000, 0.000, 0.000, 16:53:58.327
100, 31705.08, 13660.58, 187500.00, 187500.00, -187500.02, -187500.02, -187500.02, -187500.02, 0.000, 0.000, 0.000, 16:53:58.327
101, 31720.88, 13874.87, 187500.00, 187500.00, -187500.02, -187500.02, -187500.02, -187500.02, 0.000, 0.000, 0.000, 16:53:58.327
102, 32072.76, 14303.35, 187500.00, 187500.00, -187500.02, -187500.02, -187500.02, -187500.02, 0.000, 0.000, 0.000, 16:53:58.327
103, 32082.15, 14197.69, 187500.00, 187500.00, -187500.02, -187500.02, -187500.02, -187500.02, 0.000, 0.000, 0.000, 16:53:58.327
104, 31836.21, 13884.10, 187500.00, 187500.00, -187500.02, -187500.02, -187500.02, -187500.02, 0.000, 0.000, 0.000, 16:53:58.790
105, 31712.74, 13678.55, 187500.00, 187500.00, -187500.02, -187500.02, -187500.02, -187500.02, 0.000, 0.000, 0.000, 16:53:58.790
106, 31724.25, 13876.83, 187500.00, 187500.00, -187500.02, -187500.02, -187500.02, -187500.02, 0.000, 0.000, 0.000, 16:53:58.791
107, 32063.80, 14292.33, 187500.00, 187500.00, -187500.02, -187500.02, -187500.02, -187500.02, 0.000, 0.000, 0.000, 16:53:58.791
108, 32079.76, 14193.98, 187500.00, 187500.00, -187500.02, -187500.02, -187500.02, -187500.02, 0.010, -0.018, 1.024, 16:53:58.791
109, 31849.20, 13891.81, 187500.00, 187500.00, -187500.02, -187500.02, -187500.02, -187500.02, 0.000, 0.000, 0.000, 16:53:58.791
110, 31724.93, 13684.68, 187500.00, 187500.00, -187500.02, -187500.02, -187500.02, -187500.02, 0.000, 0.000, 0.000, 16:53:58.791
111, 31741.04, 13885.46, 187500.00, 187500.00, -187500.02, -187500.02, -187500.02, -187500.02, 0.000, 0.000, 0.000, 16:53:58.791
112, 32084.54, 14302.52, 187500.00, 187500.00, -187500.02, -187500.02, -187500.02, -187500.02, 0.000, 0.000, 0.000, 16:53:58.791
113, 32103.72, 14209.74, 187500.00, 187500.00, -187500.02, -187500.02, -187500.02, -187500.02, 0.000, 0.000, 0.000, 16:53:58.791
114, 31854.45, 13887.79, 187500.00, 187500.00, -187500.02, -187500.02, -187500.02, -187500.02, 0.000, 0.000, 0.000, 16:53:58.792
115, 31724.01, 13677.05, 187500.00, 187500.00, -187500.02, -187500.02, -187500.02, -187500.02, 0.000, 0.000, 0.000, 16:53:58.792
116, 31740.57, 13886.16, 187500.00, 187500.00, -187500.02, -187500.02, -187500.02, -187500.02, 0.000, 0.000, 0.000, 16:53:58.792
117, 32087.07, 14310.79, 187500.00, 187500.00, -187500.02, -187500.02, -187500.02, -187500.02, 0.000, 0.000, 0.000, 16:53:58.792
118, 32111.59, 14216.96, 187500.00, 187500.00, -187500.02, -187500.02, -187500.02, -187500.02, 0.010, -0.020, 1.024, 16:53:58.792
119, 31851.75, 13888.86, 187500.00, 187500.00, -187500.02, -187500.02, -187500.02, -187500.02, 0.000, 0.000, 0.000, 16:53:58.792
120, 31709.66, 13673.03, 187500.00, 187500.00, -187500.02, -187500.02, -187500.02, -187500.02, 0.000, 0.000, 0.000, 16:53:58.792
121, 31732.97, 13887.14, 187500.00, 187500.00, -187500.02, -187500.02, -187500.02, -187500.02, 0.000, 0.000, 0.000, 16:53:58.792
122, 32090.13, 14311.44, 187500.00, 187500.00, -187500.02, -187500.02, -187500.02, -187500.02, 0.000, 0.000, 0.000, 16:53:58.793
123, 32109.15, 14209.09, 187500.00, 187500.00, -187500.02, -187500.02, -187500.02, -187500.02, 0.000, 0.000, 0.000, 16:53:58.793
124, 31858.63, 13890.11, 187500.00, 187500.00, -187500.02, -187500.02, -187500.02, -187500.02, 0.000, 0.000, 0.000, 16:53:58.793
125, 31704.23, 13660.89, 187500.00, 187500.00, -187500.02, -187500.02, -187500.02, -187500.02, 0.000, 0.000, 0.000, 16:53:58.793
126, 31723.92, 13876.28, 187500.00, 187500.00, -187500.02, -187500.02, -187500.02, -187500.02, 0.000, 0.000, 0.000, 16:53:58.793
127, 32079.31, 14304.87, 187500.00, 187500.00, -187500.02, -187500.02, -187500.02, -187500.02, 0.000, 0.000, 0.000, 16:53:58.793
128, 32102.16, 14210.68, 187500.00, 187500.00, -187500.02, -187500.02, -187500.02, -187500.02, 0.012, -0.020, 1.026, 16:53:58.793
129, 31857.05, 13896.28, 187500.00, 187500.00, -187500.02, -187500.02, -187500.02, -187500.02, 0.000, 0.000, 0.000, 16:53:58.793
130, 31714.64, 13672.36, 187500.00, 187500.00, -187500.02, -187500.02, -187500.02, -187500.02, 0.000, 0.000, 0.000, 16:53:58.793
131, 31716.41, 13862.19, 187500.00, 187500.00, -187500.02, -187500.02, -187500.02, -187500.02, 0.000, 0.000, 0.000, 16:53:58.794
132, 32059.98, 14280.48, 187500.00, 187500.00, -187500.02, -187500.02, -187500.02, -187500.02, 0.000, 0.000, 0.000, 16:53:58.794
133, 32094.60, 14199.46, 187500.00, 187500.00, -187500.02, -187500.02, -187500.02, -187500.02, 0.000, 0.000, 0.000, 16:53:58.794
134, 31850.59, 13888.19, 187500.00, 187500.00, -187500.02, -187500.02, -187500.02, -187500.02, 0.000, 0.000, 0.000, 16:53:58.794
135, 31712.52, 13663.73, 187500.00, 187500.00, -187500.02, -187500.02, -187500.02, -187500.02, 0.000, 0.000, 0.000, 16:53:58.794
136, 31715.87, 13852.78, 187500.00, 187500.00, -187500.02, -187500.02, -187500.02, -187500.02, 0.000, 0.000, 0.000, 16:53:58.794
137, 32069.41, 14283.81, 187500.00, 187500.00, -187500.02, -187500.02, -187500.02, -187500.02, 0.000, 0.000, 0.000, 16:53:58.794
138, 32096.08, 14197.67, 187500.00, 187500.00, -187500.02, -187500.02, -187500.02, -187500.02, 0.010, -0.020, 1.032, 16:53:58.794
139, 31844.48, 13873.68, 187500.00, 187500.00, -187500.02, -187500.02, -187500.02, -187500.02, 0.000, 0.000, 0.000, 16:53:58.795
140, 31712.23, 13660.27, 187500.00, 187500.00, -187500.02, -187500.02, -187500.02, -187500.02, 0.000, 0.000, 0.000, 16:53:58.795
141, 31712.41, 13860.16, 187500.00, 187500.00, -187500.02, -187500.02, -187500.02, -187500.02, 0.000, 0.000, 0.000, 16:53:58.795
142, 32067.29, 14296.87, 187500.00, 187500.00, -187500.02, -187500.02, -187500.02, -187500.02, 0.000, 0.000, 0.000, 16:53:58.795
143, 32101.64, 14205.47, 187500.00, 187500.00, -187500.02, -187500.02, -187500.02, -187500.02, 0.000, 0.000, 0.000, 16:53:58.795
144, 31850.25, 13879.34, 187500.00, 187500.00, -187500.02, -187500.02, -187500.02, -187500.02, 0.000, 0.000, 0.000, 16:53:58.796
145, 31710.22, 13659.91, 187500.00, 187500.00, -187500.02, -187500.02, -187500.02, -187500.02, 0.000, 0.000, 0.000, 16:53:58.796
146, 31713.62, 13861.10, 187500.00, 187500.00, -187500.02, -187500.02, -187500.02, -187500.02, 0.000, 0.000, 0.000, 16:53:58.796
147, 32082.87, 14307.33, 187500.00, 187500.00, -187500.02, -187500.02, -187500.02, -187500.02, 0.000, 0.000, 0.000, 16:53:58.796
148, 32109.02, 14211.55, 187500.00, 187500.00, -187500.02, -187500.02, -187500.02, -187500.02, 0.012, -0.018, 1.026, 16:53:58.796
149, 31841.51, 13873.95, 187500.00, 187500.00, -187500.02, -187500.02, -187500.02, -187500.02, 0.000, 0.000, 0.000, 16:53:58.796
150, 31709.41, 13659.46, 187500.00, 187500.00, -187500.02, -187500.02, -187500.02, -187500.02, 0.000, 0.000, 0.000, 16:53:58.797
151, 31715.98, 13857.72, 187500.00, 187500.00, -187500.02, -187500.02, -187500.02, -187500.02, 0.000, 0.000, 0.000, 16:53:58.797
152, 32063.42, 14280.60, 187500.00, 187500.00, -187500.02, -187500.02, -187500.02, -187500.02, 0.000, 0.000, 0.000, 16:53:58.797
153, 32098.87, 14196.80, 187500.00, 187500.00, -187500.02, -187500.02, -187500.02, -187500.02, 0.000, 0.000, 0.000, 16:53:58.797
154, 31857.94, 13885.44, 187500.00, 187500.00, -187500.02, -187500.02, -187500.02, -187500.02, 0.000, 0.000, 0.000, 16:53:58.797
155, 31720.21, 13664.05, 187500.00, 187500.00, -187500.02, -187500.02, -187500.02, -187500.02, 0.000, 0.000, 0.000, 16:53:58.798
156, 31715.27, 13846.64, 187500.00, 187500.00, -187500.02, -187500.02, -187500.02, -187500.02, 0.000, 0.000, 0.000, 16:53:58.798
157, 32063.55, 14273.15, 187500.00, 187500.00, -187500.02, -187500.02, -187500.02, -187500.02, 0.000, 0.000, 0.000, 16:53:58.798
158, 32105.51, 14199.35, 187500.00, 187500.00, -187500.02, -187500.02, -187500.02, -187500.02, 0.014, -0.012, 1.022, 16:53:58.798
159, 31864.49, 13883.58, 187500.00, 187500.00, -187500.02, -187500.02, -187500.02, -187500.02, 0.000, 0.000, 0.000, 16:53:58.798
160, 31721.33, 13655.24, 187500.00, 187500.00, -187500.02, -187500.02, -187500.02, -187500.02, 0.000, 0.000, 0.000, 16:53:58.798
161, 31713.57, 13846.26, 187500.00, 187500.00, -187500.02, -187500.02, -187500.02, -187500.02, 0.000, 0.000, 0.000, 16:53:58.798
162, 32066.68, 14272.57, 187500.00, 187500.00, -187500.02, -187500.02, -187500.02, -187500.02, 0.000, 0.000, 0.000, 16:53:58.798
163, 32098.54, 14176.97, 187500.00, 187500.00, -187500.02, -187500.02, -187500.02, -187500.02, 0.000, 0.000, 0.000, 16:53:58.798
164, 31857.70, 13866.84, 187500.00, 187500.00, -187500.02, -187500.02, -187500.02, -187500.02, 0.000, 0.000, 0.000, 16:53:58.799
165, 31714.02, 13643.46, 187500.00, 187500.00, -187500.02, -187500.02, -187500.02, -187500.02, 0.000, 0.000, 0.000, 16:53:58.799
166, 31706.06, 13827.24, 187500.00, 187500.00, -187500.02, -187500.02, -187500.02, -187500.02, 0.000, 0.000, 0.000, 16:53:58.799
167, 32075.96, 14271.10, 187500.00, 187500.00, -187500.02, -187500.02, -187500.02, -187500.02, 0.010, -0.012, 1.020, 16:53:58.799
168, 32116.51, 14191.30, 187500.00, 187500.00, -187500.02, -187500.02, -187500.02, -187500.02, 0.000, 0.000, 0.000, 16:53:58.799
169, 31878.35, 13885.86, 187500.00, 187500.00, -187500.02, -187500.02, -187500.02, -187500.02, 0.000, 0.000, 0.000, 16:53:58.799
170, 31732.53, 13656.63, 187500.00, 187500.00, -187500.02, -187500.02, -187500.02, -187500.02, 0.000, 0.000, 0.000, 16:53:58.800
171, 31700.09, 13811.77, 187500.00, 187500.00, -187500.02, -187500.02, -187500.02, -187500.02, 0.000, 0.000, 0.000, 16:53:58.800
172, 32044.53, 14237.97, 187500.00, 187500.00, -187500.02, -187500.02, -187500.02, -187500.02, 0.000, 0.000, 0.000, 16:53:58.800
173, 32105.08, 14180.39, 187500.00, 187500.00, -187500.02, -187500.02, -187500.02, -187500.02, 0.000, 0.000, 0.000, 16:53:58.800
174, 31851.48, 13853.88, 187500.00, 187500.00, -187500.02, -187500.02, -187500.02, -187500.02, 0.000, 0.000, 0.000, 16:53:58.800
175, 31707.18, 13623.61, 187500.00, 187500.00, -187500.02, -187500.02, -187500.02, -187500.02, 0.000, 0.000, 0.000, 16:53:58.800
176, 31706.04, 13814.94, 187500.00, 187500.00, -187500.02, -187500.02, -187500.02, -187500.02, 0.000, 0.000, 0.000, 16:53:58.801
177, 32068.25, 14262.13, 187500.00, 187500.00, -187500.02, -187500.02, -187500.02, -187500.02, 0.010, -0.016, 1.022, 16:53:58.801
178, 32101.53, 14174.45, 187500.00, 187500.00, -187500.02, -187500.02, -187500.02, -187500.02, 0.000, 0.000, 0.000, 16:53:58.801
179, 31843.37, 13841.72, 187500.00, 187500.00, -187500.02, -187500.02, -187500.02, -187500.02, 0.000, 0.000, 0.000, 16:53:58.801
180, 31714.76, 13631.88, 187500.00, 187500.00, -187500.02, -187500.02, -187500.02, -187500.02, 0.000, 0.000, 0.000, 16:53:58.801
181, 31711.71, 13820.69, 187500.00, 187500.00, -187500.02, -187500.02, -187500.02, -187500.02, 0.000, 0.000, 0.000, 16:53:58.801
182, 32064.78, 14249.30, 187500.00, 187500.00, -187500.02, -187500.02, -187500.02, -187500.02, 0.000, 0.000, 0.000, 16:53:58.802
183, 32106.45, 14172.01, 187500.00, 187500.00, -187500.02, -187500.02, -187500.02, -187500.02, 0.000, 0.000, 0.000, 16:53:58.802
184, 31848.64, 13849.34, 187500.00, 187500.00, -187500.02, -187500.02, -187500.02, -187500.02, 0.000, 0.000, 0.000, 16:53:58.802
185, 31702.53, 13613.24, 187500.00, 187500.00, -187500.02, -187500.02, -187500.02, -187500.02, 0.000, 0.000, 0.000, 16:53:58.802
186, 31710.42, 13808.86, 187500.00, 187500.00, -187500.02, -187500.02, -187500.02, -187500.02, 0.000, 0.000, 0.000, 16:53:58.802
187, 32062.35, 14248.21, 187500.00, 187500.00, -187500.02, -187500.02, -187500.02, -187500.02, 0.018, -0.022, 1.024, 16:53:58.802
188, 32104.88, 14174.54, 187500.00, 187500.00, -187500.02, -187500.02, -187500.02, -187500.02, 0.000, 0.000, 0.000, 16:53:58.803
189, 31859.64, 13856.96, 187500.00, 187500.00, -187500.02, -187500.02, -187500.02, -187500.02, 0.000, 0.000, 0.000, 16:53:58.803
190, 31703.54, 13617.67, 187500.00, 187500.00, -187500.02, -187500.02, -187500.02, -187500.02, 0.000, 0.000, 0.000, 16:53:58.803
191, 31696.74, 13799.50, 187500.00, 187500.00, -187500.02, -187500.02, -187500.02, -187500.02, 0.000, 0.000, 0.000, 16:53:58.803
192, 32056.92, 14246.84, 187500.00, 187500.00, -187500.02, -187500.02, -187500.02, -187500.02, 0.000, 0.000, 0.000, 16:53:58.803
193, 32089.93, 14166.04, 187500.00, 187500.00, -187500.02, -187500.02, -187500.02, -187500.02, 0.000, 0.000, 0.000, 16:53:58.804
194, 31841.42, 13840.42, 187500.00, 187500.00, -187500.02, -187500.02, -187500.02, -187500.02, 0.000, 0.000, 0.000, 16:53:58.804
195, 31711.74, 13623.03, 187500.00, 187500.00, -187500.02, -187500.02, -187500.02, -187500.02, 0.000, 0.000, 0.000, 16:53:58.804
196, 31704.74, 13808.24, 187500.00, 187500.00, -187500.02, -187500.02, -187500.02, -187500.02, 0.000, 0.000, 0.000, 16:53:58.804
197, 32054.66, 14242.73, 187500.00, 187500.00, -187500.02, -187500.02, -187500.02, -187500.02, 0.012, -0.020, 1.028, 16:53:58.804
198, 32080.85, 14148.85, 187500.00, 187500.00, -187500.02, -187500.02, -187500.02, -187500.02, 0.000, 0.000, 0.000, 16:53:58.804
199, 31826.60, 13825.29, 187500.00, 187500.00, -187500.02, -187500.02, -187500.02, -187500.02, 0.000, 0.000, 0.000, 16:53:58.805
200, 31685.65, 13597.37, 187500.00, 187500.00, -187500.02, -187500.02, -187500.02, -187500.02, 0.000, 0.000, 0.000, 16:53:58.805
201, 31685.14, 13785.35, 187500.00, 187500.00, -187500.02, -187500.02, -187500.02, -187500.02, 0.000, 0.000, 0.000, 16:53:58.805
202, 32052.80, 14240.94, 187500.00, 187500.00, -187500.02, -187500.02, -187500.02, -187500.02, 0.000, 0.000, 0.000, 16:53:58.805
203, 32095.47, 14165.78, 187500.00, 187500.00, -187500.02, -187500.02, -187500.02, -187500.02, 0.000, 0.000, 0.000, 16:53:58.805
204, 31825.57, 13820.78, 187500.00, 187500.00, -187500.02, -187500.02, -187500.02, -187500.02, 0.000, 0.000, 0.000, 16:53:58.806
205, 31693.19, 13599.14, 187500.00, 187500.00, -187500.02, -187500.02, -187500.02, -187500.02, 0.000, 0.000, 0.000, 16:53:58.806
206, 31696.40, 13806.45, 187500.00, 187500.00, -187500.02, -187500.02, -187500.02, -187500.02, 0.000, 0.000, 0.000, 16:53:58.806
207, 32054.39, 14241.23, 187500.00, 187500.00, -187500.02, -187500.02, -187500.02, -187500.02, 0.012, -0.020, 1.028, 16:53:58.806
208, 32071.71, 14138.19, 187500.00, 187500.00, -187500.02, -187500.02, -187500.02, -187500.02, 0.000, 0.000, 0.000, 16:53:58.806
209, 31800.05, 13806.31, 187500.00, 187500.00, -187500.02, -187500.02, -187500.02, -187500.02, 0.000, 0.000, 0.000, 16:53:58.807
210, 31669.00, 13592.39, 187500.00, 187500.00, -187500.02, -187500.02, -187500.02, -187500.02, 0.000, 0.000, 0.000, 16:53:58.807
211, 31688.11, 13795.85, 187500.00, 187500.00, -187500.02, -187500.02, -187500.02, -187500.02, 0.000, 0.000, 0.000, 16:53:58.807
212, 32042.57, 14237.39, 187500.00, 187500.00, -187500.02, -187500.02, -187500.02, -187500.02, 0.000, 0.000, 0.000, 16:53:58.807
213, 32083.60, 14159.03, 187500.00, 187500.00, -187500.02, -187500.02, -187500.02, -187500.02, 0.000, 0.000, 0.000, 16:53:58.807
214, 31823.18, 13826.27, 187500.00, 187500.00, -187500.02, -187500.02, -187500.02, -187500.02, 0.000, 0.000, 0.000, 16:53:58.807
215, 31686.99, 13605.86, 187500.00, 187500.00, -187500.02, -187500.02, -187500.02, -187500.02, 0.000, 0.000, 0.000, 16:53:58.808
216, 31691.06, 13801.93, 187500.00, 187500.00, -187500.02, -187500.02, -187500.02, -187500.02, 0.000, 0.000, 0.000, 16:53:58.808
217, 32040.98, 14238.46, 187500.00, 187500.00, -187500.02, -187500.02, -187500.02, -187500.02, 0.012, -0.014, 1.026, 16:53:58.808
218, 32064.60, 14142.37, 187500.00, 187500.00, -187500.02, -187500.02, -187500.02, -187500.02, 0.000, 0.000, 0.000, 16:53:58.808
219, 31824.50, 13833.00, 187500.00, 187500.00, -187500.02, -187500.02, -187500.02, -187500.02, 0.000, 0.000, 0.000, 16:53:58.808
220, 31689.74, 13617.49, 187500.00, 187500.00, -187500.02, -187500.02, -187500.02, -187500.02, 0.000, 0.000, 0.000, 16:53:58.808
221, 31669.80, 13784.12, 187500.00, 187500.00, -187500.02, -187500.02, -187500.02, -187500.02, 0.000, 0.000, 0.000, 16:53:58.808
222, 32030.12, 14231.06, 187500.00, 187500.00, -187500.02, -187500.02, -187500.02, -187500.02, 0.000, 0.000, 0.000, 16:53:58.808
223, 32060.34, 14141.75, 187500.00, 187500.00, -187500.02, -187500.02, -187500.02, -187500.02, 0.000, 0.000, 0.000, 16:53:58.809
224, 31816.21, 13827.64, 187500.00, 187500.00, -187500.02, -187500.02, -187500.02, -187500.02, 0.000, 0.000, 0.000, 16:53:58.809
225, 31677.07, 13600.43, 187500.00, 187500.00, -187500.02, -187500.02, -187500.02, -187500.02, 0.000, 0.000, 0.000, 16:53:59.271
226, 31658.29, 13767.20, 187500.00, 187500.00, -187500.02, -187500.02, -187500.02, -187500.02, 0.000, 0.000, 0.000, 16:53:59.271
227, 32017.33, 14210.99, 187500.00, 187500.00, -187500.02, -187500.02, -187500.02, -187500.02, 0.014, -0.018, 1.024, 16:53:59.272
228, 32064.25, 14138.73, 187500.00, 187500.00, -187500.02, -187500.02, -187500.02, -187500.02, 0.000, 0.000, 0.000, 16:53:59.272
229, 31821.42, 13825.60, 187500.00, 187500.00, -187500.02, -187500.02, -187500.02, -187500.02, 0.000, 0.000, 0.000, 16:53:59.272
230, 31679.30, 13598.42, 187500.00, 187500.00, -187500.02, -187500.02, -187500.02, -187500.02, 0.000, 0.000, 0.000, 16:53:59.272
231, 31674.86, 13773.46, 187500.00, 187500.00, -187500.02, -187500.02, -187500.02, -187500.02, 0.000, 0.000, 0.000, 16:53:59.272
232, 32029.62, 14224.25, 187500.00, 187500.00, -187500.02, -187500.02, -187500.02, -187500.02, 0.000, 0.000, 0.000, 16:53:59.272
233, 32065.32, 14147.85, 187500.00, 187500.00, -187500.02, -187500.02, -187500.02, -187500.02, 0.000, 0.000, 0.000, 16:53:59.273
234, 31816.23, 13827.48, 187500.00, 187500.00, -187500.02, -187500.02, -187500.02, -187500.02, 0.000, 0.000, 0.000, 16:53:59.273
235, 31680.69, 13602.42, 187500.00, 187500.00, -187500.02, -187500.02, -187500.02, -187500.02, 0.000, 0.000, 0.000, 16:53:59.273
236, 31675.24, 13781.39, 187500.00, 187500.00, -187500.02, -187500.02, -187500.02, -187500.02, 0.000, 0.000, 0.000, 16:53:59.273
237, 32036.29, 14227.51, 187500.00, 187500.00, -187500.02, -187500.02, -187500.02, -187500.02, 0.012, -0.020, 1.024, 16:53:59.273
238, 32065.77, 14143.69, 187500.00, 187500.00, -187500.02, -187500.02, -187500.02, -187500.02, 0.000, 0.000, 0.000, 16:53:59.273
239, 31813.97, 13825.42, 187500.00, 187500.00, -187500.02, -187500.02, -187500.02, -187500.02, 0.000, 0.000, 0.000, 16:53:59.274
240, 31670.74, 13591.16, 187500.00, 187500.00, -187500.02, -187500.02, -187500.02, -187500.02, 0.000, 0.000, 0.000, 16:53:59.274
241, 31674.61, 13780.95, 187500.00, 187500.00, -187500.02, -187500.02, -187500.02, -187500.02, 0.000, 0.000, 0.000, 16:53:59.274
242, 32042.70, 14237.26, 187500.00, 187500.00, -187500.02, -187500.02, -187500.02, -187500.02, 0.000, 0.000, 0.000, 16:53:59.274
243, 32082.53, 14158.73, 187500.00, 187500.00, -187500.02, -187500.02, -187500.02, -187500.02, 0.000, 0.000, 0.000, 16:53:59.274
244, 31827.36, 13829.09, 187500.00, 187500.00, -187500.02, -187500.02, -187500.02, -187500.02, 0.000, 0.000, 0.000, 16:53:59.275
245, 31685.03, 13604.90, 187500.00, 187500.00, -187500.02, -187500.02, -187500.02, -187500.02, 0.000, 0.000, 0.000, 16:53:59.275
246, 31685.23, 13794.29, 187500.00, 187500.00, -187500.02, -187500.02, -187500.02, -187500.02, 0.000, 0.000, 0.000, 16:53:59.275
247, 32027.37, 14222.53, 187500.00, 187500.00, -187500.02, -187500.02, -187500.02, -187500.02, 0.014, -0.018, 1.022, 16:53:59.275
248, 32069.50, 14146.08, 187500.00, 187500.00, -187500.02, -187500.02, -187500.02, -187500.02, 0.000, 0.000, 0.000, 16:53:59.275
249, 31821.35, 13829.43, 187500.00, 187500.00, -187500.02, -187500.02, -187500.02, -187500.02, 0.000, 0.000, 0.000, 16:53:59.276
250, 31669.04, 13584.88, 187500.00, 187500.00, -187500.02, -187500.02, -187500.02, -187500.02, 0.000, 0.000, 0.000, 16:53:59.276
251, 31678.10, 13782.31, 187500.00, 187500.00, -187500.02, -187500.02, -187500.02, -187500.02, 0.000, 0.000, 0.000, 16:53:59.276
252, 32030.65, 14229.52, 187500.00, 187500.00, -187500.02, -187500.02, -187500.02, -187500.02, 0.000, 0.000, 0.000, 16:53:59.276
253, 32076.52, 14152.88, 187500.00, 187500.00, -187500.02, -187500.02, -187500.02, -187500.02, 0.000, 0.000, 0.000, 16:53:59.276
254, 31818.45, 13825.20, 187500.00, 187500.00, -187500.02, -187500.02, -187500.02, -187500.02, 0.000, 0.000, 0.000, 16:53:59.277
255, 31678.81, 13592.07, 187500.00, 187500.00, -187500.02, -187500.02, -187500.02, -187500.02, 0.000, 0.000, 0.000, 16:53:59.277
0, 31680.40, 13781.10, 187500.00, 187500.00, -187500.02, -187500.02, -187500.02, -187500.02, 0.000, 0.000, 0.000, 16:53:59.277
1, 32031.68, 14223.29, 187500.00, 187500.00, -187500.02, -187500.02, -187500.02, -187500.02, 0.018, -0.010, 1.026, 16:53:59.277
2, 32073.57, 14147.29, 187500.00, 187500.00, -187500.02, -187500.02, -187500.02, -187500.02, 0.000, 0.000, 0.000, 16:53:59.277
3, 31824.05, 13823.32, 187500.00, 187500.00, -187500.02, -187500.02, -187500.02, -187500.02, 0.000, 0.000, 0.000, 16:53:59.278
4, 31684.02, 13595.87, 187500.00, 187500.00, -187500.02, -187500.02, -187500.02, -187500.02, 0.000, 0.000, 0.000, 16:53:59.278
5, 31689.59, 13790.76, 187500.00, 187500.00, -187500.02, -187500.02, -187500.02, -187500.02, 0.000, 0.000, 0.000, 16:53:59.278
6, 32059.13, 14248.21, 187500.00, 187500.00, -187500.02, -187500.02, -187500.02, -187500.02, 0.000, 0.000, 0.000, 16:53:59.278
7, 32084.54, 14156.95, 187500.00, 187500.00, -187500.02, -187500.02, -187500.02, -187500.02, 0.000, 0.000, 0.000, 16:53:59.278
8, 31837.24, 13839.66, 187500.00, 187500.00, -187500.02, -187500.02, -187500.02, -187500.02, 0.000, 0.000, 0.000, 16:53:59.278
9, 31696.87, 13609.62, 187500.00, 187500.00, -187500.02, -187500.02, -187500.02, -187500.02, 0.000, 0.000, 0.000, 16:53:59.279
10, 31689.95, 13794.92, 187500.00, 187500.00, -187500.02, -187500.02, -187500.02, -187500.02, 0.000, 0.000, 0.000, 16:53:59.279
11, 32035.86, 14229.25, 187500.00, 187500.00, -187500.02, -187500.02, -187500.02, -187500.02, 0.016, -0.010, 1.032, 16:53:59.279
12, 32082.75, 14154.02, 187500.00, 187500.00, -187500.02, -187500.02, -187500.02, -187500.02, 0.000, 0.000, 0.000, 16:53:59.279
13, 31826.42, 13827.44, 187500.00, 187500.00, -187500.02, -187500.02, -187500.02, -187500.02, 0.000, 0.000, 0.000, 16:53:59.279
14, 31684.96, 13606.58, 187500.00, 187500.00, -187500.02, -187500.02, -187500.02, -187500.02, 0.000, 0.000, 0.000, 16:53:59.279
15, 31683.66, 13796.93, 187500.00, 187500.00, -187500.02, -187500.02, -187500.02, -187500.02, 0.000, 0.000, 0.000, 16:53:59.280
16, 32042.23, 14245.41, 187500.00, 187500.00, -187500.02, -187500.02, -187500.02, -187500.02, 0.000, 0.000, 0.000, 16:53:59.280
17, 32074.60, 14153.68, 187500.00, 187500.00, -187500.02, -187500.02, -187500.02, -187500.02, 0.000, 0.000, 0.000, 16:53:59.280
18, 31840.71, 13845.79, 187500.00, 187500.00, -187500.02, -187500.02, -187500.02, -187500.02, 0.000, 0.000, 0.000, 16:53:59.280
19, 31702.37, 13618.31, 187500.00, 187500.00, -187500.02, -187500.02, -187500.02, -187500.02, 0.000, 0.000, 0.000, 16:53:59.280
20, 31693.81, 13802.22, 187500.00, 187500.00, -187500.02, -187500.02, -187500.02, -187500.02, 0.000, 0.000, 0.000, 16:53:59.281
21, 32050.37, 14258.51, 187500.00, 187500.00, -187500.02, -187500.02, -187500.02, -187500.02, 0.012, -0.016, 1.028, 16:53:59.281
22, 32084.27, 14174.94, 187500.00, 187500.00, -187500.02, -187500.02, -187500.02, -187500.02, 0.000, 0.000, 0.000, 16:53:59.281
23, 31836.44, 13852.90, 187500.00, 187500.00, -187500.02, -187500.02, -187500.02, -187500.02, 0.000, 0.000, 0.000, 16:53:59.281
24, 31718.62, 13643.62, 187500.00, 187500.00, -187500.02, -187500.02, -187500.02, -187500.02, 0.000, 0.000, 0.000, 16:53:59.281
25, 31730.02, 13840.38, 187500.00, 187500.00, -187500.02, -187500.02, -187500.02, -187500.02, 0.000, 0.000, 0.000, 16:53:59.281
26, 32074.84, 14276.24, 187500.00, 187500.00, -187500.02, -187500.02, -187500.02, -187500.02, 0.000, 0.000, 0.000, 16:53:59.282
27, 32105.64, 14188.89, 187500.00, 187500.00, -187500.02, -187500.02, -187500.02, -187500.02, 0.000, 0.000, 0.000, 16:53:59.282
28, 31866.08, 13877.86, 187500.00, 187500.00, -187500.02, -187500.02, -187500.02, -187500.02, 0.000, 0.000, 0.000, 16:53:59.282
29, 31730.09, 13653.81, 187500.00, 187500.00, -187500.02, -187500.02, -187500.02, -187500.02, 0.000, 0.000, 0.000, 16:53:59.282
30, 31717.10, 13832.47, 187500.00, 187500.00, -187500.02, -187500.02, -187500.02, -187500.02, 0.000, 0.000, 0.000, 16:53:59.282
31, 32061.21, 14270.43, 187500.00, 187500.00, -187500.02, -187500.02, -187500.02, -187500.02, 0.010, -0.020, 1.024, 16:53:59.283
32, 32106.00, 14198.19, 187500.00, 187500.00, -187500.02, -187500.02, -187500.02, -187500.02, 0.000, 0.000, 0.000, 16:53:59.283
33, 31853.20, 13873.62, 187500.00, 187500.00, -187500.02, -187500.02, -187500.02, -187500.02, 0.000, 0.000, 0.000, 16:53:59.283
34, 31712.83, 13636.93, 187500.00, 187500.00, -187500.02, -187500.02, -187500.02, -187500.02, 0.000, 0.000, 0.000, 16:53:59.283
35, 31701.46, 13814.81, 187500.00, 187500.00, -187500.02, -187500.02, -187500.02, -187500.02, 0.000, 0.000, 0.000, 16:53:59.283
36, 32059.62, 14269.38, 187500.00, 187500.00, -187500.02, -187500.02, -187500.02, -187500.02, 0.000, 0.000, 0.000, 16:53:59.283
37, 32113.96, 14203.55, 187500.00, 187500.00, -187500.02, -187500.02, -187500.02, -187500.02, 0.000, 0.000, 0.000, 16:53:59.284
38, 31865.21, 13882.62, 187500.00, 187500.00, -187500.02, -187500.02, -187500.02, -187500.02, 0.000, 0.000, 0.000, 16:53:59.284
39, 31734.25, 13658.88, 187500.00, 187500.00, -187500.02, -187500.02, -187500.02, -187500.02, 0.000, 0.000, 0.000, 16:53:59.284
40, 31730.67, 13840.94, 187500.00, 187500.00, -187500.02, -187500.02, -187500.02, -187500.02, 0.000, 0.000, 0.000, 16:53:59.284
41, 32080.90, 14285.16, 187500.00, 187500.00, -187500.02, -187500.02, -187500.02, -187500.02, 0.010, -0.016, 1.022, 16:53:59.284
42, 32126.77, 14211.64, 187500.00, 187500.00, -187500.02, -187500.02, -187500.02, -187500.02, 0.000, 0.000, 0.000, 16:53:59.285
43, 31867.48, 13877.55, 187500.00, 187500.00, -187500.02, -187500.02, -187500.02, -187500.02, 0.000, 0.000, 0.000, 16:53:59.285
44, 31736.30, 13655.64, 187500.00, 187500.00, -187500.02, -187500.02, -187500.02, -187500.02, 0.000, 0.000, 0.000, 16:53:59.285
45, 31716.99, 13820.96, 187500.00, 187500.00, -187500.02, -187500.02, -187500.02, -187500.02, 0.000, 0.000, 0.000, 16:53:59.285
46, 32077.79, 14279.77, 187500.00, 187500.00, -187500.02, -187500.02, -187500.02, -187500.02, 0.000, 0.000, 0.000, 16:53:59.285
47, 32120.77, 14208.00, 187500.00, 187500.00, -187500.02, -187500.02, -187500.02, -187500.02, 0.000, 0.000, 0.000, 16:53:59.285
48, 31868.74, 13883.81, 187500.00, 187500.00, -187500.02, -187500.02, -187500.02, -187500.02, 0.000, 0.000, 0.000, 16:53:59.286
49, 31735.50, 13658.32, 187500.00, 187500.00, -187500.02, -187500.02, -187500.02, -187500.02, 0.000, 0.000, 0.000, 16:53:59.286
50, 31723.52, 13832.53, 187500.00, 187500.00, -187500.02, -187500.02, -187500.02, -187500.02, 0.008, -0.016, 1.032, 16:53:59.286
51, 32066.66, 14267.61, 187500.00, 187500.00, -187500.02, -187500.02, -187500.02, -187500.02, 0.000, 0.000, 0.000, 16:53:59.286
52, 32115.12, 14199.75, 187500.00, 187500.00, -187500.02, -187500.02, -187500.02, -187500.02, 0.000, 0.000, 0.000, 16:53:59.286
53, 31863.44, 13874.17, 187500.00, 187500.00, -187500.02, -187500.02, -187500.02, -187500.02, 0.000, 0.000, 0.000, 16:53:59.286
54, 31729.69, 13652.87, 187500.00, 187500.00, -187500.02, -187500.02, -187500.02, -187500.02, 0.000, 0.000, 0.000, 16:53:59.287
55, 31703.02, 13820.60, 187500.00, 187500.00, -187500.02, -187500.02, -187500.02, -187500.02, 0.000, 0.000, 0.000, 16:53:59.287
56, 32061.41, 14271.14, 187500.00, 187500.00, -187500.02, -187500.02, -187500.02, -187500.02, 0.000, 0.000, 0.000, 16:53:59.287
57, 32109.08, 14202.23, 187500.00, 187500.00, -187500.02, -187500.02, -187500.02, -187500.02, 0.000, 0.000, 0.000, 16:53:59.287
58, 31843.99, 13863.18, 187500.00, 187500.00, -187500.02, -187500.02, -187500.02, -187500.02, 0.000, 0.000, 0.000, 16:53:59.287
59, 31715.65, 13643.75, 187500.00, 187500.00, -187500.02, -187500.02, -187500.02, -187500.02, 0.000, 0.000, 0.000, 16:53:59.288
60, 31705.41, 13814.07, 187500.00, 187500.00, -187500.02, -187500.02, -187500.02, -187500.02, 0.008, -0.014, 1.026, 16:53:59.288
61, 32051.26, 14256.57, 187500.00, 187500.00, -187500.02, -187500.02, -187500.02, -187500.02, 0.000, 0.000, 0.000, 16:53:59.288
62, 32098.09, 14187.63, 187500.00, 187500.00, -187500.02, -187500.02, -187500.02, -187500.02, 0.000, 0.000, 0.000, 16:53:59.288
63, 31848.49, 13864.36, 187500.00, 187500.00, -187500.02, -187500.02, -187500.02, -187500.02, 0.000, 0.000, 0.000, 16:53:59.288
64, 31714.53, 13644.29, 187500.00, 187500.00, -187500.02, -187500.02, -187500.02, -187500.02, 0.000, 0.000, 0.000, 16:53:59.288
65, 31709.50, 13823.86, 187500.00, 187500.00, -187500.02, -187500.02, -187500.02, -187500.02, 0.000, 0.000, 0.000, 16:53:59.289
66, 32065.23, 14268.41, 187500.00, 187500.00, -187500.02, -187500.02, -187500.02, -187500.02, 0.000, 0.000, 0.000, 16:53:59.289
67, 32107.56, 14189.80, 187500.00, 187500.00, -187500.02, -187500.02, -187500.02, -187500.02, 0.000, 0.000, 0.000, 16:53:59.289
68, 31842.47, 13860.23, 187500.00, 187500.00, -187500.02, -187500.02, -187500.02, -187500.02, 0.000, 0.000, 0.000, 16:53:59.289
69, 31702.86, 13635.08, 187500.00, 187500.00, -187500.02, -187500.02, -187500.02, -187500.02, 0.000, 0.000, 0.000, 16:53:59.289
70, 31701.77, 13809.85, 187500.00, 187500.00, -187500.02, -187500.02, -187500.02, -187500.02, 0.014, -0.016, 1.024, 16:53:59.289
71, 32055.62, 14256.37, 187500.00, 187500.00, -187500.02, -187500.02, -187500.02, -187500.02, 0.000, 0.000, 0.000, 16:53:59.290
72, 32087.85, 14180.57, 187500.00, 187500.00, -187500.02, -187500.02, -187500.02, -187500.02, 0.000, 0.000, 0.000, 16:53:59.290
73, 31830.27, 13857.81, 187500.00, 187500.00, -187500.02, -187500.02, -187500.02, -187500.02, 0.000, 0.000, 0.000, 16:53:59.290
74, 31692.92, 13627.37, 187500.00, 187500.00, -187500.02, -187500.02, -187500.02, -187500.02, 0.000, 0.000, 0.000, 16:53:59.290
75, 31680.78, 13787.36, 187500.00, 187500.00, -187500.02, -187500.02, -187500.02, -187500.02, 0.000, 0.000, 0.000, 16:53:59.290
76, 32031.03, 14238.37, 187500.00, 187500.00, -187500.02, -187500.02, -187500.02, -187500.02, 0.000, 0.000, 0.000, 16:53:59.291
77, 32073.43, 14167.61, 187500.00, 187500.00, -187500.02, -187500.02, -187500.02, -187500.02, 0.000, 0.000, 0.000, 16:53:59.291
78, 31827.23, 13843.35, 187500.00, 187500.00, -187500.02, -187500.02, -187500.02, -187500.02, 0.000, 0.000, 0.000, 16:53:59.291
79, 31691.96, 13612.70, 187500.00, 187500.00, -187500.02, -187500.02, -187500.02, -187500.02, 0.000, 0.000, 0.000, 16:53:59.291
80, 31677.09, 13784.86, 187500.00, 187500.00, -187500.02, -187500.02, -187500.02, -187500.02, 0.016, -0.018, 1.026, 16:53:59.291
81, 32037.40, 14242.78, 187500.00, 187500.00, -187500.02, -187500.02, -187500.02, -187500.02, 0.000, 0.000, 0.000, 16:53:59.291
82, 32085.17, 14173.53, 187500.00, 187500.00, -187500.02, -187500.02, -187500.02, -187500.02, 0.000, 0.000, 0.000, 16:53:59.292
83, 31853.45, 13865.97, 187500.00, 187500.00, -187500.02, -187500.02, -187500.02, -187500.02, 0.000, 0.000, 0.000, 16:53:59.292
84, 31731.54, 13647.48, 187500.00, 187500.00, -187500.02, -187500.02, -187500.02, -187500.02, 0.000, 0.000, 0.000, 16:53:59.292
85, 31712.52, 13816.24, 187500.00, 187500.00, -187500.02, -187500.02, -187500.02, -187500.02, 0.000, 0.000, 0.000, 16:53:59.292
86, 32070.48, 14276.46, 187500.00, 187500.00, -187500.02, -187500.02, -187500.02, -187500.02, 0.000, 0.000, 0.000, 16:53:59.292
87, 32112.15, 14203.53, 187500.00, 187500.00, -187500.02, -187500.02, -187500.02, -187500.02, 0.000, 0.000, 0.000, 16:53:59.292
88, 31856.11, 13878.80, 187500.00, 187500.00, -187500.02, -187500.02, -187500.02, -187500.02, 0.000, 0.000, 0.000, 16:53:59.293
89, 31728.52, 13652.31, 187500.00, 187500.00, -187500.02, -187500.02, -187500.02, -187500.02, 0.000, 0.000, 0.000, 16:53:59.751
90, 31707.87, 13807.99, 187500.00, 187500.00, -187500.02, -187500.02, -187500.02, -187500.02, 0.012, -0.016, 1.030, 16:53:59.751
91, 32056.83, 14254.56, 187500.00, 187500.00, -187500.02, -187500.02, -187500.02, -187500.02, 0.000, 0.000, 0.000, 16:53:59.752
92, 32112.21, 14190.00, 187500.00, 187500.00, -187500.02, -187500.02, -187500.02, -187500.02, 0.000, 0.000, 0.000, 16:53:59.752
93, 31860.53, 13870.33, 187500.00, 187500.00, -187500.02, -187500.02, -187500.02, -187500.02, 0.000, 0.000, 0.000, 16:53:59.752
94, 31723.63, 13650.75, 187500.00, 187500.00, -187500.02, -187500.02, -187500.02, -187500.02, 0.000, 0.000, 0.000, 16:53:59.752
95, 31697.41, 13802.22, 187500.00, 187500.00, -187500.02, -187500.02, -187500.02, -187500.02, 0.000, 0.000, 0.000, 16:53:59.752
96, 32045.31, 14245.08, 187500.00, 187500.00, -187500.02, -187500.02, -187500.02, -187500.02, 0.000, 0.000, 0.000, 16:53:59.752
97, 32097.35, 14179.90, 187500.00, 187500.00, -187500.02, -187500.02, -187500.02, -187500.02, 0.000, 0.000, 0.000, 16:53:59.753
98, 31843.43, 13855.96, 187500.00, 187500.00, -187500.02, -187500.02, -187500.02, -187500.02, 0.000, 0.000, 0.000, 16:53:59.753
99, 31705.35, 13627.32, 187500.00, 187500.00, -187500.02, -187500.02, -187500.02, -187500.02, 0.000, 0.000, 0.000, 16:53:59.753
100, 31691.38, 13793.02, 187500.00, 187500.00, -187500.02, -187500.02, -187500.02, -187500.02, 0.008, -0.018, 1.026, 16:53:59.753
101, 32054.26, 14251.09, 187500.00, 187500.00, -187500.02, -187500.02, -187500.02, -187500.02, 0.000, 0.000, 0.000, 16:53:59.753
102, 32101.42, 14177.69, 187500.00, 187500.00, -187500.02, -187500.02, -187500.02, -187500.02, 0.000, 0.000, 0.000, 16:53:59.753
103, 31850.52, 13855.94, 187500.00, 187500.00, -187500.02, -187500.02, -187500.02, -187500.02, 0.000, 0.000, 0.000, 16:53:59.754
104, 31717.24, 13632.80, 187500.00, 187500.00, -187500.02, -187500.02, -187500.02, -187500.02, 0.000, 0.000, 0.000, 16:53:59.754
105, 31687.82, 13780.79, 187500.00, 187500.00, -187500.02, -187500.02, -187500.02, -187500.02, 0.000, 0.000, 0.000, 16:53:59.754
106, 32047.68, 14239.31, 187500.00, 187500.00, -187500.02, -187500.02, -187500.02, -187500.02, 0.000, 0.000, 0.000, 16:53:59.754
107, 32108.53, 14185.38, 187500.00, 187500.00, -187500.02, -187500.02, -187500.02, -187500.02, 0.000, 0.000, 0.000, 16:53:59.754
108, 31848.73, 13848.31, 187500.00, 187500.00, -187500.02, -187500.02, -187500.02, -187500.02, 0.000, 0.000, 0.000, 16:53:59.754
109, 31712.63, 13625.11, 187500.00, 187500.00, -187500.02, -187500.02, -187500.02, -187500.02, 0.000, 0.000, 0.000, 16:53:59.755
110, 31689.95, 13788.54, 187500.00, 187500.00, -187500.02, -187500.02, -187500.02, -187500.02, 0.008, -0.016, 1.028, 16:53:59.755
111, 32055.48, 14244.79, 187500.00, 187500.00, -187500.02, -187500.02, -187500.02, -187500.02, 0.000, 0.000, 0.000, 16:53:59.755
112, 32101.24, 14166.40, 187500.00, 187500.00, -187500.02, -187500.02, -187500.02, -187500.02, 0.000, 0.000, 0.000, 16:53:59.755
113, 31839.46, 13850.12, 187500.00, 187500.00, -187500.02, -187500.02, -187500.02, -187500.02, 0.000, 0.000, 0.000, 16:53:59.755
114, 31718.31, 13639.12, 187500.00, 187500.00, -187500.02, -187500.02, -187500.02, -187500.02, 0.000, 0.000, 0.000, 16:53:59.755
115, 31709.10, 13805.60, 187500.00, 187500.00, -187500.02, -187500.02, -187500.02, -187500.02, 0.000, 0.000, 0.000, 16:53:59.756
116, 32055.57, 14248.23, 187500.00, 187500.00, -187500.02, -187500.02, -187500.02, -187500.02, 0.000, 0.000, 0.000, 16:53:59.756
117, 32102.04, 14181.35, 187500.00, 187500.00, -187500.02, -187500.02, -187500.02, -187500.02, 0.000, 0.000, 0.000, 16:53:59.756
118, 31854.88, 13863.76, 187500.00, 187500.00, -187500.02, -187500.02, -187500.02, -187500.02, 0.000, 0.000, 0.000, 16:53:59.756
119, 31734.13, 13652.31, 187500.00, 187500.00, -187500.02, -187500.02, -187500.02, -187500.02, 0.000, 0.000, 0.000, 16:53:59.756
120, 31722.47, 13820.96, 187500.00, 187500.00, -187500.02, -187500.02, -187500.02, -187500.02, 0.012, -0.016, 1.032, 16:53:59.756
121, 32075.24, 14274.20, 187500.00, 187500.00, -187500.02, -187500.02, -187500.02, -187500.02, 0.000, 0.000, 0.000, 16:53:59.757
122, 32135.57, 14213.88, 187500.00, 187500.00, -187500.02, -187500.02, -187500.02, -187500.02, 0.000, 0.000, 0.000, 16:53:59.757
123, 31890.78, 13897.20, 187500.00, 187500.00, -187500.02, -187500.02, -187500.02, -187500.02, 0.000, 0.000, 0.000, 16:53:59.757
124, 31748.10, 13666.12, 187500.00, 187500.00, -187500.02, -187500.02, -187500.02, -187500.02, 0.000, 0.000, 0.000, 16:53:59.757
125, 31727.79, 13825.69, 187500.00, 187500.00, -187500.02, -187500.02, -187500.02, -187500.02, 0.000, 0.000, 0.000, 16:53:59.757
126, 32086.64, 14283.12, 187500.00, 187500.00, -187500.02, -187500.02, -187500.02, -187500.02, 0.000, 0.000, 0.000, 16:53:59.758
127, 32128.55, 14208.04, 187500.00, 187500.00, -187500.02, -187500.02, -187500.02, -187500.02, 0.000, 0.000, 0.000, 16:53:59.758
128, 31884.72, 13892.79, 187500.00, 187500.00, -187500.02, -187500.02, -187500.02, -187500.02, 0.000, 0.000, 0.000, 16:53:59.758
129, 31758.07, 13673.37, 187500.00, 187500.00, -187500.02, -187500.02, -187500.02, -187500.02, 0.000, 0.000, 0.000, 16:53:59.758
130, 31740.55, 13826.52, 187500.00, 187500.00, -187500.02, -187500.02, -187500.02, -187500.02, 0.014, -0.014, 1.030, 16:53:59.758
131, 32097.53, 14284.64, 187500.00, 187500.00, -187500.02, -187500.02, -187500.02, -187500.02, 0.000, 0.000, 0.000, 16:53:59.758
132, 32142.54, 14221.72, 187500.00, 187500.00, -187500.02, -187500.02, -187500.02, -187500.02, 0.000, 0.000, 0.000, 16:53:59.759
133, 31876.60, 13886.83, 187500.00, 187500.00, -187500.02, -187500.02, -187500.02, -187500.02, 0.000, 0.000, 0.000, 16:53:59.759
134, 31739.61, 13661.86, 187500.00, 187500.00, -187500.02, -187500.02, -187500.02, -187500.02, 0.000, 0.000, 0.000, 16:53:59.759
135, 31721.79, 13826.65, 187500.00, 187500.00, -187500.02, -187500.02, -187500.02, -187500.02, 0.000, 0.000, 0.000, 16:53:59.759
136, 32082.73, 14283.73, 187500.00, 187500.00, -187500.02, -187500.02, -187500.02, -187500.02, 0.000, 0.000, 0.000, 16:53:59.759
137, 32136.55, 14212.51, 187500.00, 187500.00, -187500.02, -187500.02, -187500.02, -187500.02, 0.000, 0.000, 0.000, 16:53:59.759
138, 31886.39, 13893.20, 187500.00, 187500.00, -187500.02, -187500.02, -187500.02, -187500.02, 0.000, 0.000, 0.000, 16:53:59.760
139, 31753.02, 13672.36, 187500.00, 187500.00, -187500.02, -187500.02, -187500.02, -187500.02, 0.000, 0.000, 0.000, 16:53:59.760
140, 31728.32, 13827.55, 187500.00, 187500.00, -187500.02, -187500.02, -187500.02, -187500.02, 0.016, -0.014, 1.024, 16:53:59.760
141, 32078.19, 14275.46, 187500.00, 187500.00, -187500.02, -187500.02, -187500.02, -187500.02, 0.000, 0.000, 0.000, 16:53:59.760
142, 32141.16, 14220.87, 187500.00, 187500.00, -187500.02, -187500.02, -187500.02, -187500.02, 0.000, 0.000, 0.000, 16:53:59.760
143, 31891.87, 13904.35, 187500.00, 187500.00, -187500.02, -187500.02, -187500.02, -187500.02, 0.000, 0.000, 0.000, 16:53:59.760
144, 31761.34, 13681.37, 187500.00, 187500.00, -187500.02, -187500.02, -187500.02, -187500.02, 0.000, 0.000, 0.000, 16:53:59.761
145, 31734.18, 13833.36, 187500.00, 187500.00, -187500.02, -187500.02, -187500.02, -187500.02, 0.000, 0.000, 0.000, 16:53:59.761
146, 32064.89, 14264.64, 187500.00, 187500.00, -187500.02, -187500.02, -187500.02, -187500.02, 0.000, 0.000, 0.000, 16:53:59.761
147, 32126.09, 14205.83, 187500.00, 187500.00, -187500.02, -187500.02, -187500.02, -187500.02, 0.000, 0.000, 0.000, 16:53:59.761
148, 31878.08, 13886.71, 187500.00, 187500.00, -187500.02, -187500.02, -187500.02, -187500.02, 0.000, 0.000, 0.000, 16:53:59.761
149, 31737.55, 13653.07, 187500.00, 187500.00, -187500.02, -187500.02, -187500.02, -187500.02, 0.000, 0.000, 0.000, 16:53:59.761
150, 31715.76, 13810.38, 187500.00, 187500.00, -187500.02, -187500.02, -187500.02, -187500.02, 0.008, -0.012, 1.022, 16:53:59.762
151, 32064.56, 14264.26, 187500.00, 187500.00, -187500.02, -187500.02, -187500.02, -187500.02, 0.000, 0.000, 0.000, 16:53:59.762
152, 32126.96, 14208.58, 187500.00, 187500.00, -187500.02, -187500.02, -187500.02, -187500.02, 0.000, 0.000, 0.000, 16:53:59.762
153, 31875.22, 13882.58, 187500.00, 187500.00, -187500.02, -187500.02, -187500.02, -187500.02, 0.000, 0.000, 0.000, 16:53:59.762
154, 31729.66, 13645.58, 187500.00, 187500.00, -187500.02, -187500.02, -187500.02, -187500.02, 0.000, 0.000, 0.000, 16:53:59.762
155, 31711.78, 13808.33, 187500.00, 187500.00, -187500.02, -187500.02, -187500.02, -187500.02, 0.000, 0.000, 0.000, 16:53:59.762
156, 32061.88, 14267.36, 187500.00, 187500.00, -187500.02, -187500.02, -187500.02, -187500.02, 0.000, 0.000, 0.000, 16:53:59.763
157, 32137.52, 14225.63, 187500.00, 187500.00, -187500.02, -187500.02, -187500.02, -187500.02, 0.000, 0.000, 0.000, 16:53:59.763
158, 31889.86, 13904.84, 187500.00, 187500.00, -187500.02, -187500.02, -187500.02, -187500.02, 0.000, 0.000, 0.000, 16:53:59.763
159, 31748.04, 13674.15, 187500.00, 187500.00, -187500.02, -187500.02, -187500.02, -187500.02, 0.000, 0.000, 0.000, 16:53:59.763
160, 31721.33, 13820.46, 187500.00, 187500.00, -187500.02, -187500.02, -187500.02, -187500.02, 0.010, -0.014, 1.024, 16:53:59.763
161, 32081.37, 14283.61, 187500.00, 187500.00, -187500.02, -187500.02, -187500.02, -187500.02, 0.000, 0.000, 0.000, 16:53:59.763
162, 32153.63, 14235.58, 187500.00, 187500.00, -187500.02, -187500.02, -187500.02, -187500.02, 0.000, 0.000, 0.000, 16:53:59.764
163, 31896.99, 13905.06, 187500.00, 187500.00, -187500.02, -187500.02, -187500.02, -187500.02, 0.000, 0.000, 0.000, 16:53:59.764
164, 31755.05, 13673.37, 187500.00, 187500.00, -187500.02, -187500.02, -187500.02, -187500.02, 0.000, 0.000, 0.000, 16:53:59.764
165, 31728.14, 13826.74, 187500.00, 187500.00, -187500.02, -187500.02, -187500.02, -187500.02, 0.000, 0.000, 0.000, 16:53:59.764
166, 32074.66, 14279.95, 187500.00, 187500.00, -187500.02, -187500.02, -187500.02, -187500.02, 0.000, 0.000, 0.000, 16:53:59.764
167, 32133.94, 14216.36, 187500.00, 187500.00, -187500.02, -187500.02, -187500.02, -187500.02, 0.000, 0.000, 0.000, 16:53:59.764
168, 31876.40, 13885.06, 187500.00, 187500.00, -187500.02, -187500.02, -187500.02, -187500.02, 0.000, 0.000, 0.000, 16:53:59.765
169, 31738.22, 13652.85, 187500.00, 187500.00, -187500.02, -187500.02, -187500.02, -187500.02, 0.014, -0.018, 1.024, 16:53:59.765
170, 31730.89, 13820.08, 187500.00, 187500.00, -187500.02, -187500.02, -187500.02, -187500.02, 0.000, 0.000, 0.000, 16:53:59.765
171, 32068.58, 14269.67, 187500.00, 187500.00, -187500.02, -187500.02, -187500.02, -187500.02, 0.000, 0.000, 0.000, 16:53:59.765
172, 32114.29, 14201.47, 187500.00, 187500.00, -187500.02, -187500.02, -187500.02, -187500.02, 0.000, 0.000, 0.000, 16:53:59.765
173, 31869.70, 13883.47, 187500.00, 187500.00, -187500.02, -187500.02, -187500.02, -187500.02, 0.000, 0.000, 0.000, 16:53:59.766
174, 31739.39, 13661.70, 187500.00, 187500.00, -187500.02, -187500.02, -187500.02, -187500.02, 0.000, 0.000, 0.000, 16:53:59.766
175, 31718.53, 13817.78, 187500.00, 187500.00, -187500.02, -187500.02, -187500.02, -187500.02, 0.000, 0.000, 0.000, 16:53:59.766
176, 32078.91, 14281.11, 187500.00, 187500.00, -187500.02, -187500.02, -187500.02, -187500.02, 0.000, 0.000, 0.000, 16:53:59.766
177, 32139.26, 14219.71, 187500.00, 187500.00, -187500.02, -187500.02, -187500.02, -187500.02, 0.000, 0.000, 0.000, 16:53:59.766
178, 31886.15, 13894.20, 187500.00, 187500.00, -187500.02, -187500.02, -187500.02, -187500.02, 0.000, 0.000, 0.000, 16:53:59.767
179, 31753.94, 13672.56, 187500.00, 187500.00, -187500.02, -187500.02, -187500.02, -187500.02, 0.012, -0.016, 1.018, 16:53:59.767
180, 31733.20, 13829.81, 187500.00, 187500.00, -187500.02, -187500.02, -187500.02, -187500.02, 0.000, 0.000, 0.000, 16:53:59.767
181, 32089.55, 14290.95, 187500.00, 187500.00, -187500.02, -187500.02, -187500.02, -187500.02, 0.000, 0.000, 0.000, 16:53:59.767
182, 32144.45, 14227.89, 187500.00, 187500.00, -187500.02, -187500.02, -187500.02, -187500.02, 0.000, 0.000, 0.000, 16:53:59.767
183, 31892.92, 13901.76, 187500.00, 187500.00, -187500.02, -187500.02, -187500.02, -187500.02, 0.000, 0.000, 0.000, 16:53:59.767
184, 31747.93, 13662.79, 187500.00, 187500.00, -187500.02, -187500.02, -187500.02, -187500.02, 0.000, 0.000, 0.000, 16:53:59.768
185, 31722.51, 13819.28, 187500.00, 187500.00, -187500.02, -187500.02, -187500.02, -187500.02, 0.000, 0.000, 0.000, 16:53:59.768
186, 32065.90, 14270.76, 187500.00, 187500.00, -187500.02, -187500.02, -187500.02, -187500.02, 0.000, 0.000, 0.000, 16:53:59.768
187, 32135.73, 14219.96, 187500.00, 187500.00, -187500.02, -187500.02, -187500.02, -187500.02, 0.000, 0.000, 0.000, 16:53:59.768
188, 31883.35, 13898.05, 187500.00, 187500.00, -187500.02, -187500.02, -187500.02, -187500.02, 0.000, 0.000, 0.000, 16:53:59.768
189, 31744.30, 13670.44, 187500.00, 187500.00, -187500.02, -187500.02, -187500.02, -187500.02, 0.012, -0.022, 1.026, 16:53:59.769
190, 31705.81, 13810.36, 187500.00, 187500.00, -187500.02, -187500.02, -187500.02, -187500.02, 0.000, 0.000, 0.000, 16:53:59.769
191, 32067.15, 14272.15, 187500.00, 187500.00, -187500.02, -187500.02, -187500.02, -187500.02, 0.000, 0.000, 0.000, 16:53:59.769
192, 32133.07, 14220.98, 187500.00, 187500.00, -187500.02, -187500.02, -187500.02, -187500.02, 0.000, 0.000, 0.000, 16:53:59.769
193, 31869.09, 13886.13, 187500.00, 187500.00, -187500.02, -187500.02, -187500.02, -187500.02, 0.000, 0.000, 0.000, 16:53:59.769
194, 31721.21, 13643.88, 187500.00, 187500.00, -187500.02, -187500.02, -187500.02, -187500.02, 0.000, 0.000, 0.000, 16:53:59.770
195, 31709.17, 13810.70, 187500.00, 187500.00, -187500.02, -187500.02, -187500.02, -187500.02, 0.000, 0.000, 0.000, 16:53:59.770
196, 32060.04, 14265.04, 187500.00, 187500.00, -187500.02, -187500.02, -187500.02, -187500.02, 0.000, 0.000, 0.000, 16:53:59.770
197, 32131.88, 14215.66, 187500.00, 187500.00, -187500.02, -187500.02, -187500.02, -187500.02, 0.000, 0.000, 0.000, 16:53:59.770
198, 31880.92, 13894.92, 187500.00, 187500.00, -187500.02, -187500.02, -187500.02, -187500.02, 0.000, 0.000, 0.000, 16:53:59.770
199, 31744.66, 13669.77, 187500.00, 187500.00, -187500.02, -187500.02, -187500.02, -187500.02, 0.014, -0.016, 1.026, 16:53:59.770
200, 31720.79, 13822.56, 187500.00, 187500.00, -187500.02, -187500.02, -187500.02, -187500.02, 0.000, 0.000, 0.000, 16:53:59.770
201, 32067.04, 14276.82, 187500.00, 187500.00, -187500.02, -187500.02, -187500.02, -187500.02, 0.000, 0.000, 0.000, 16:53:59.771
202, 32130.81, 14226.28, 187500.00, 187500.00, -187500.02, -187500.02, -187500.02, -187500.02, 0.000, 0.000, 0.000, 16:53:59.771
203, 31882.33, 13908.15, 187500.00, 187500.00, -187500.02, -187500.02, -187500.02, -187500.02, 0.000, 0.000, 0.000, 16:53:59.771
204, 31749.82, 13674.60, 187500.00, 187500.00, -187500.02, -187500.02, -187500.02, -187500.02, 0.000, 0.000, 0.000, 16:53:59.771
205, 31718.24, 13814.96, 187500.00, 187500.00, -187500.02, -187500.02, -187500.02, -187500.02, 0.000, 0.000, 0.000, 16:53:59.771
206, 32073.28, 14282.90, 187500.00, 187500.00, -187500.02, -187500.02, -187500.02, -187500.02, 0.000, 0.000, 0.000, 16:53:59.772
207, 32126.85, 14223.04, 187500.00, 187500.00, -187500.02, -187500.02, -187500.02, -187500.02, 0.000, 0.000, 0.000, 16:53:59.772
208, 31869.29, 13892.41, 187500.00, 187500.00, -187500.02, -187500.02, -187500.02, -187500.02, 0.000, 0.000, 0.000, 16:53:59.772
209, 31722.06, 13651.98, 187500.00, 187500.00, -187500.02, -187500.02, -187500.02, -187500.02, 0.018, -0.016, 1.026, 16:54:00.232
210, 31712.90, 13815.19, 187500.00, 187500.00, -187500.02, -187500.02, -187500.02, -187500.02, 0.000, 0.000, 0.000, 16:54:00.232
211, 32077.41, 14286.41, 187500.00, 187500.00, -187500.02, -187500.02, -187500.02, -187500.02, 0.000, 0.000, 0.000, 16:54:00.233
212, 32139.46, 14229.50, 187500.00, 187500.00, -187500.02, -187500.02, -187500.02, -187500.02, 0.000, 0.000, 0.000, 16:54:00.233
213, 31863.06, 13882.49, 187500.00, 187500.00, -187500.02, -187500.02, -187500.02, -187500.02, 0.000, 0.000, 0.000, 16:54:00.233
214, 31739.05, 13662.37, 187500.00, 187500.00, -187500.02, -187500.02, -187500.02, -187500.02, 0.000, 0.000, 0.000, 16:54:00.233
215, 31720.79, 13822.18, 187500.00, 187500.00, -187500.02, -187500.02, -187500.02, -187500.02, 0.000, 0.000, 0.000, 16:54:00.233
216, 32058.28, 14276.15, 187500.00, 187500.00, -187500.02, -187500.02, -187500.02, -187500.02, 0.000, 0.000, 0.000, 16:54:00.233
217, 32133.27, 14233.90, 187500.00, 187500.00, -187500.02, -187500.02, -187500.02, -187500.02, 0.000, 0.000, 0.000, 16:54:00.233
218, 31887.42, 13911.70, 187500.00, 187500.00, -187500.02, -187500.02, -187500.02, -187500.02, 0.000, 0.000, 0.000, 16:54:00.233
219, 31736.73, 13660.33, 187500.00, 187500.00, -187500.02, -187500.02, -187500.02, -187500.02, 0.012, -0.012, 1.028, 16:54:00.233
220, 31709.90, 13810.27, 187500.00, 187500.00, -187500.02, -187500.02, -187500.02, -187500.02, 0.000, 0.000, 0.000, 16:54:00.234
221, 32076.79, 14290.68, 187500.00, 187500.00, -187500.02, -187500.02, -187500.02, -187500.02, 0.000, 0.000, 0.000, 16:54:00.234
222, 32137.29, 14237.14, 187500.00, 187500.00, -187500.02, -187500.02, -187500.02, -187500.02, 0.000, 0.000, 0.000, 16:54:00.234
223, 31884.47, 13907.84, 187500.00, 187500.00, -187500.02, -187500.02, -187500.02, -187500.02, 0.000, 0.000, 0.000, 16:54:00.234
224, 31749.04, 13675.89, 187500.00, 187500.00, -187500.02, -187500.02, -187500.02, -187500.02, 0.000, 0.000, 0.000, 16:54:00.234
225, 31726.60, 13829.67, 187500.00, 187500.00, -187500.02, -187500.02, -187500.02, -187500.02, 0.000, 0.000, 0.000, 16:54:00.234
226, 32089.19, 14303.62, 187500.00, 187500.00, -187500.02, -187500.02, -187500.02, -187500.02, 0.000, 0.000, 0.000, 16:54:00.234
227, 32144.78, 14238.17, 187500.00, 187500.00, -187500.02, -187500.02, -187500.02, -187500.02, 0.000, 0.000, 0.000, 16:54:00.235
228, 31881.01, 13901.31, 187500.00, 187500.00, -187500.02, -187500.02, -187500.02, -187500.02, 0.000, 0.000, 0.000, 16:54:00.235
229, 31753.80, 13677.99, 187500.00, 187500.00, -187500.02, -187500.02, -187500.02, -187500.02, 0.004, -0.014, 1.030, 16:54:00.235
230, 31732.64, 13833.45, 187500.00, 187500.00, -187500.02, -187500.02, -187500.02, -187500.02, 0.000, 0.000, 0.000, 16:54:00.235
231, 32060.18, 14280.37, 187500.00, 187500.00, -187500.02, -187500.02, -187500.02, -187500.02, 0.000, 0.000, 0.000, 16:54:00.235
232, 32145.07, 14248.32, 187500.00, 187500.00, -187500.02, -187500.02, -187500.02, -187500.02, 0.000, 0.000, 0.000, 16:54:00.235
233, 31880.61, 13904.55, 187500.00, 187500.00, -187500.02, -187500.02, -187500.02, -187500.02, 0.000, 0.000, 0.000, 16:54:00.236
234, 31727.94, 13655.84, 187500.00, 187500.00, -187500.02, -187500.02, -187500.02, -187500.02, 0.000, 0.000, 0.000, 16:54:00.236
235, 31697.81, 13802.04, 187500.00, 187500.00, -187500.02, -187500.02, -187500.02, -187500.02, 0.000, 0.000, 0.000, 16:54:00.236
236, 32046.01, 14263.23, 187500.00, 187500.00, -187500.02, -187500.02, -187500.02, -187500.02, 0.000, 0.000, 0.000, 16:54:00.236
237, 32131.10, 14231.76, 187500.00, 187500.00, -187500.02, -187500.02, -187500.02, -187500.02, 0.000, 0.000, 0.000, 16:54:00.236
238, 31886.71, 13912.53, 187500.00, 187500.00, -187500.02, -187500.02, -187500.02, -187500.02, 0.000, 0.000, 0.000, 16:54:00.236
239, 31763.50, 13690.08, 187500.00, 187500.00, -187500.02, -187500.02, -187500.02, -187500.02, 0.006, -0.018, 1.028, 16:54:00.236
240, 31730.58, 13836.20, 187500.00, 187500.00, -187500.02, -187500.02, -187500.02, -187500.02, 0.000, 0.000, 0.000, 16:54:00.237
241, 32088.61, 14306.99, 187500.00, 187500.00, -187500.02, -187500.02, -187500.02, -187500.02, 0.000, 0.000, 0.000, 16:54:00.237
242, 32154.57, 14258.16, 187500.00, 187500.00, -187500.02, -187500.02, -187500.02, -187500.02, 0.000, 0.000, 0.000, 16:54:00.237
243, 31887.13, 13910.52, 187500.00, 187500.00, -187500.02, -187500.02, -187500.02, -187500.02, 0.000, 0.000, 0.000, 16:54:00.237
244, 31755.30, 13681.23, 187500.00, 187500.00, -187500.02, -187500.02, -187500.02, -187500.02, 0.000, 0.000, 0.000, 16:54:00.237
245, 31732.10, 13832.73, 187500.00, 187500.00, -187500.02, -187500.02, -187500.02, -187500.02, 0.000, 0.000, 0.000, 16:54:00.237
246, 32095.03, 14307.69, 187500.00, 187500.00, -187500.02, -187500.02, -187500.02, -187500.02, 0.000, 0.000, 0.000, 16:54:00.238
247, 32160.58, 14249.77, 187500.00, 187500.00, -187500.02, -187500.02, -187500.02, -187500.02, 0.000, 0.000, 0.000, 16:54:00.238
248, 31896.25, 13913.98, 187500.00, 187500.00, -187500.02, -187500.02, -187500.02, -187500.02, 0.000, 0.000, 0.000, 16:54:00.238
249, 31753.18, 13681.12, 187500.00, 187500.00, -187500.02, -187500.02, -187500.02, -187500.02, 0.010, -0.014, 1.030, 16:54:00.238
250, 31731.14, 13834.46, 187500.00, 187500.00, -187500.02, -187500.02, -187500.02, -187500.02, 0.000, 0.000, 0.000, 16:54:00.239
251, 32092.61, 14298.97, 187500.00, 187500.00, -187500.02, -187500.02, -187500.02, -187500.02, 0.000, 0.000, 0.000, 16:54:00.239
252, 32143.21, 14223.78, 187500.00, 187500.00, -187500.02, -187500.02, -187500.02, -187500.02, 0.000, 0.000, 0.000, 16:54:00.239
253, 31874.46, 13885.64, 187500.00, 187500.00, -187500.02, -187500.02, -187500.02, -187500.02, 0.000, 0.000, 0.000, 16:54:00.239
254, 31761.98, 13685.50, 187500.00, 187500.00, -187500.02, -187500.02, -187500.02, -187500.02, 0.000, 0.000, 0.000, 16:54:00.239
255, 31737.31, 13832.26, 187500.00, 187500.00, -187500.02, -187500.02, -187500.02, -187500.02, 0.000, 0.000, 0.000, 16:54:00.239
0, 32073.28, 14277.91, 187500.00, 187500.00, -187500.02, -187500.02, -187500.02, -187500.02, 0.000, 0.000, 0.000, 16:54:00.240
1, 32146.01, 14228.05, 187500.00, 187500.00, -187500.02, -187500.02, -187500.02, -187500.02, 0.000, 0.000, 0.000, 16:54:00.240
2, 31909.93, 13917.67, 187500.00, 187500.00, -187500.02, -187500.02, -187500.02, -187500.02, 0.000, 0.000, 0.000, 16:54:00.240
3, 31793.10, 13712.97, 187500.00, 187500.00, -187500.02, -187500.02, -187500.02, -187500.02, 0.006, -0.016, 1.036, 16:54:00.240
4, 31749.40, 13844.96, 187500.00, 187500.00, -187500.02, -187500.02, -187500.02, -187500.02, 0.000, 0.000, 0.000, 16:54:00.240
5, 32107.30, 14311.44, 187500.00, 187500.00, -187500.02, -187500.02, -187500.02, -187500.02, 0.000, 0.000, 0.000, 16:54:00.241
6, 32183.20, 14274.83, 187500.00, 187500.00, -187500.02, -187500.02, -187500.02, -187500.02, 0.000, 0.000, 0.000, 16:54:00.241
7, 31918.87, 13934.34, 187500.00, 187500.00, -187500.02, -187500.02, -187500.02, -187500.02, 0.000, 0.000, 0.000, 16:54:00.241
8, 31792.96, 13711.72, 187500.00, 187500.00, -187500.02, -187500.02, -187500.02, -187500.02, 0.000, 0.000, 0.000, 16:54:00.241
9, 31768.89, 13862.24, 187500.00, 187500.00, -187500.02, -187500.02, -187500.02, -187500.02, 0.000, 0.000, 0.000, 16:54:00.241
10, 32110.54, 14315.75, 187500.00, 187500.00, -187500.02, -187500.02, -187500.02, -187500.02, 0.000, 0.000, 0.000, 16:54:00.242
11, 32178.38, 14265.75, 187500.00, 187500.00, -187500.02, -187500.02, -187500.02, -187500.02, 0.000, 0.000, 0.000, 16:54:00.242
12, 31913.91, 13927.06, 187500.00, 187500.00, -187500.02, -187500.02, -187500.02, -187500.02, 0.000, 0.000, 0.000, 16:54:00.242
13, 31775.19, 13701.53, 187500.00, 187500.00, -187500.02, -187500.02, -187500.02, -187500.02, 0.006, -0.016, 1.034, 16:54:00.242
14, 31741.67, 13842.30, 187500.00, 187500.00, -187500.02, -187500.02, -187500.02, -187500.02, 0.000, 0.000, 0.000, 16:54:00.242
15, 32099.92, 14309.59, 187500.00, 187500.00, -187500.02, -187500.02, -187500.02, -187500.02, 0.000, 0.000, 0.000, 16:54:00.243
16, 32169.61, 14261.15, 187500.00, 187500.00, -187500.02, -187500.02, -187500.02, -187500.02, 0.000, 0.000, 0.000, 16:54:00.243
17, 31905.15, 13924.67, 187500.00, 187500.00, -187500.02, -187500.02, -187500.02, -187500.02, 0.000, 0.000, 0.000, 16:54:00.243
18, 31786.28, 13716.64, 187500.00, 187500.00, -187500.02, -187500.02, -187500.02, -187500.02, 0.000, 0.000, 0.000, 16:54:00.243
19, 31763.91, 13871.13, 187500.00, 187500.00, -187500.02, -187500.02, -187500.02, -187500.02, 0.000, 0.000, 0.000, 16:54:00.243
20, 32105.13, 14325.43, 187500.00, 187500.00, -187500.02, -187500.02, -187500.02, -187500.02, 0.000, 0.000, 0.000, 16:54:00.243
21, 32189.04, 14291.62, 187500.00, 187500.00, -187500.02, -187500.02, -187500.02, -187500.02, 0.000, 0.000, 0.000, 16:54:00.244
22, 31938.99, 13966.00, 187500.00, 187500.00, -187500.02, -187500.02, -187500.02, -187500.02, 0.000, 0.000, 0.000, 16:54:00.244
23, 31788.78, 13721.69, 187500.00, 187500.00, -187500.02, -187500.02, -187500.02, -187500.02, 0.006, -0.018, 1.028, 16:54:00.244
24, 31771.97, 13876.50, 187500.00, 187500.00, -187500.02, -187500.02, -187500.02, -187500.02, 0.000, 0.000, 0.000, 16:54:00.244
25, 32116.68, 14329.77, 187500.00, 187500.00, -187500.02, -187500.02, -187500.02, -187500.02, 0.000, 0.000, 0.000, 16:54:00.244
26, 32187.52, 14287.82, 187500.00, 187500.00, -187500.02, -187500.02, -187500.02, -187500.02, 0.000, 0.000, 0.000, 16:54:00.245
27, 31919.18, 13953.66, 187500.00, 187500.00, -187500.02, -187500.02, -187500.02, -187500.02, 0.000, 0.000, 0.000, 16:54:00.245
28, 31785.36, 13731.03, 187500.00, 187500.00, -187500.02, -187500.02, -187500.02, -187500.02, 0.000, 0.000, 0.000, 16:54:00.245
29, 31758.65, 13872.07, 187500.00, 187500.00, -187500.02, -187500.02, -187500.02, -187500.02, 0.000, 0.000, 0.000, 16:54:00.245
30, 32114.49, 14333.59, 187500.00, 187500.00, -187500.02, -187500.02, -187500.02, -187500.02, 0.000, 0.000, 0.000, 16:54:00.245
31, 32193.69, 14295.33, 187500.00, 187500.00, -187500.02, -187500.02, -187500.02, -187500.02, 0.000, 0.000, 0.000, 16:54:00.245
32, 31938.99, 13971.58, 187500.00, 187500.00, -187500.02, -187500.02, -187500.02, -187500.02, 0.000, 0.000, 0.000, 16:54:00.245
33, 31798.89, 13737.92, 187500.00, 187500.00, -187500.02, -187500.02, -187500.02, -187500.02, 0.002, -0.018, 1.024, 16:54:00.245
34, 31761.38, 13871.80, 187500.00, 187500.00, -187500.02, -187500.02, -187500.02, -187500.02, 0.000, 0.000, 0.000, 16:54:00.246
35, 32102.65, 14324.23, 187500.00, 187500.00, -187500.02, -187500.02, -187500.02, -187500.02, 0.000, 0.000, 0.000, 16:54:00.246
36, 32183.11, 14280.33, 187500.00, 187500.00, -187500.02, -187500.02, -187500.02, -187500.02, 0.000, 0.000, 0.000, 16:54:00.246
37, 31936.04, 13961.82, 187500.00, 187500.00, -187500.02, -187500.02, -187500.02, -187500.02, 0.000, 0.000, 0.000, 16:54:00.246
38, 31807.52, 13745.18, 187500.00, 187500.00, -187500.02, -187500.02, -187500.02, -187500.02, 0.000, 0.000, 0.000, 16:54:00.246
39, 31766.43, 13874.42, 187500.00, 187500.00, -187500.02, -187500.02, -187500.02, -187500.02, 0.000, 0.000, 0.000, 16:54:00.246
40, 32119.99, 14341.77, 187500.00, 187500.00, -187500.02, -187500.02, -187500.02, -187500.02, 0.000, 0.000, 0.000, 16:54:00.246
41, 32200.73, 14302.79, 187500.00, 187500.00, -187500.02, -187500.02, -187500.02, -187500.02, 0.000, 0.000, 0.000, 16:54:00.246
42, 31944.66, 13973.39, 187500.00, 187500.00, -187500.02, -187500.02, -187500.02, -187500.02, 0.000, 0.000, 0.000, 16:54:00.247
43, 31812.32, 13746.86, 187500.00, 187500.00, -187500.02, -187500.02, -187500.02, -187500.02, 0.006, -0.020, 1.030, 16:54:00.247
44, 31767.51, 13870.89, 187500.00, 187500.00, -187500.02, -187500.02, -187500.02, -187500.02, 0.000, 0.000, 0.000, 16:54:00.247
45, 32115.16, 14332.30, 187500.00, 187500.00, -187500.02, -187500.02, -187500.02, -187500.02, 0.000, 0.000, 0.000, 16:54:00.247
46, 32199.81, 14299.93, 187500.00, 187500.00, -187500.02, -187500.02, -187500.02, -187500.02, 0.000, 0.000, 0.000, 16:54:00.247
47, 31956.51, 13980.55, 187500.00, 187500.00, -187500.02, -187500.02, -187500.02, -187500.02, 0.000, 0.000, 0.000, 16:54:00.247
48, 31808.50, 13739.93, 187500.00, 187500.00, -187500.02, -187500.02, -187500.02, -187500.02, 0.000, 0.000, 0.000, 16:54:00.248
49, 31768.40, 13872.30, 187500.00, 187500.00, -187500.02, -187500.02, -187500.02, -187500.02, 0.000, 0.000, 0.000, 16:54:00.248
50, 32119.68, 14338.17, 187500.00, 187500.00, -187500.02, -187500.02, -187500.02, -187500.02, 0.000, 0.000, 0.000, 16:54:00.248
51, 32206.27, 14308.87, 187500.00, 187500.00, -187500.02, -187500.02, -187500.02, -187500.02, 0.000, 0.000, 0.000, 16:54:00.248
52, 31947.73, 13979.88, 187500.00, 187500.00, -187500.02, -187500.02, -187500.02, -187500.02, 0.008, -0.020, 1.034, 16:54:00.248
53, 31811.65, 13753.01, 187500.00, 187500.00, -187500.02, -187500.02, -187500.02, -187500.02, 0.000, 0.000, 0.000, 16:54:00.248
54, 31765.94, 13879.40, 187500.00, 187500.00, -187500.02, -187500.02, -187500.02, -187500.02, 0.000, 0.000, 0.000, 16:54:00.249
55, 32113.76, 14341.86, 187500.00, 187500.00, -187500.02, -187500.02, -187500.02, -187500.02, 0.000, 0.000, 0.000, 16:54:00.249
56, 32209.55, 14318.24, 187500.00, 187500.00, -187500.02, -187500.02, -187500.02, -187500.02, 0.000, 0.000, 0.000, 16:54:00.249
57, 31947.97, 13978.18, 187500.00, 187500.00, -187500.02, -187500.02, -187500.02, -187500.02, 0.000, 0.000, 0.000, 16:54:00.249
58, 31813.68, 13745.85, 187500.00, 187500.00, -187500.02, -187500.02, -187500.02, -187500.02, 0.000, 0.000, 0.000, 16:54:00.249
59, 31789.34, 13887.72, 187500.00, 187500.00, -187500.02, -187500.02, -187500.02, -187500.02, 0.000, 0.000, 0.000, 16:54:00.249
60, 32129.98, 14349.24, 187500.00, 187500.00, -187500.02, -187500.02, -187500.02, -187500.02, 0.000, 0.000, 0.000, 16:54:00.249
61, 32215.19, 14314.30, 187500.00, 187500.00, -187500.02, -187500.02, -187500.02, -187500.02, 0.000, 0.000, 0.000, 16:54:00.249
62, 31962.19, 13987.92, 187500.00, 187500.00, -187500.02, -187500.02, -187500.02, -187500.02, 0.012, -0.020, 1.032, 16:54:00.249
63, 31820.28, 13755.42, 187500.00, 187500.00, -187500.02, -187500.02, -187500.02, -187500.02, 0.000, 0.000, 0.000, 16:54:00.250
64, 31788.61, 13894.36, 187500.00, 187500.00, -187500.02, -187500.02, -187500.02, -187500.02, 0.000, 0.000, 0.000, 16:54:00.250
65, 32131.64, 14351.58, 187500.00, 187500.00, -187500.02, -187500.02, -187500.02, -187500.02, 0.000, 0.000, 0.000, 16:54:00.250
66, 32215.75, 14314.21, 187500.00, 187500.00, -187500.02, -187500.02, -187500.02, -187500.02, 0.000, 0.000, 0.000, 16:54:00.250
67, 31950.39, 13978.31, 187500.00, 187500.00, -187500.02, -187500.02, -187500.02, -187500.02, 0.000, 0.000, 0.000, 16:54:00.250
68, 31805.12, 13742.32, 187500.00, 187500.00, -187500.02, -187500.02, -187500.02, -187500.02, 0.000, 0.000, 0.000, 16:54:00.250
69, 31769.25, 13872.07, 187500.00, 187500.00, -187500.02, -187500.02, -187500.02, -187500.02, 0.000, 0.000, 0.000, 16:54:00.250
70, 32114.22, 14332.34, 187500.00, 187500.00, -187500.02, -187500.02, -187500.02, -187500.02, 0.000, 0.000, 0.000, 16:54:00.250
71, 32188.10, 14290.68, 187500.00, 187500.00, -187500.02, -187500.02, -187500.02, -187500.02, 0.000, 0.000, 0.000, 16:54:00.251
72, 31943.57, 13972.81, 187500.00, 187500.00, -187500.02, -187500.02, -187500.02, -187500.02, 0.010, -0.018, 1.032, 16:54:00.251
73, 31822.54, 13756.63, 187500.00, 187500.00, -187500.02, -187500.02, -187500.02, -187500.02, 0.000, 0.000, 0.000, 16:54:00.714
74, 31788.05, 13887.45, 187500.00, 187500.00, -187500.02, -187500.02, -187500.02, -187500.02, 0.000, 0.000, 0.000, 16:54:00.714
75, 32131.77, 14349.10, 187500.00, 187500.00, -187500.02, -187500.02, -187500.02, -187500.02, 0.000, 0.000, 0.000, 16:54:00.714
76, 32213.09, 14318.35, 187500.00, 187500.00, -187500.02, -187500.02, -187500.02, -187500.02, 0.000, 0.000, 0.000, 16:54:00.714
77, 31959.35, 13994.83, 187500.00, 187500.00, -187500.02, -187500.02, -187500.02, -187500.02, 0.000, 0.000, 0.000, 16:54:00.715
78, 31827.50, 13768.43, 187500.00, 187500.00, -187500.02, -187500.02, -187500.02, -187500.02, 0.000, 0.000, 0.000, 16:54:00.715
79, 31793.97, 13898.20, 187500.00, 187500.00, -187500.02, -187500.02, -187500.02, -187500.02, 0.000, 0.000, 0.000, 16:54:00.715
80, 32139.24, 14356.70, 187500.00, 187500.00, -187500.02, -187500.02, -187500.02, -187500.02, 0.000, 0.000, 0.000, 16:54:00.715
81, 32229.67, 14332.41, 187500.00, 187500.00, -187500.02, -187500.02, -187500.02, -187500.02, 0.000, 0.000, 0.000, 16:54:00.715
82, 31986.66, 14016.76, 187500.00, 187500.00, -187500.02, -187500.02, -187500.02, -187500.02, 0.010, -0.012, 1.024, 16:54:00.715
83, 31852.20, 13789.13, 187500.00, 187500.00, -187500.02, -187500.02, -187500.02, -187500.02, 0.000, 0.000, 0.000, 16:54:00.716
84, 31815.58, 13915.28, 187500.00, 187500.00, -187500.02, -187500.02, -187500.02, -187500.02, 0.000, 0.000, 0.000, 16:54:00.716
85, 32160.31, 14378.25, 187500.00, 187500.00, -187500.02, -187500.02, -187500.02, -187500.02, 0.000, 0.000, 0.000, 16:54:00.716
86, 32242.19, 14348.77, 187500.00, 187500.00, -187500.02, -187500.02, -187500.02, -187500.02, 0.000, 0.000, 0.000, 16:54:00.716
87, 31996.43, 14031.96, 187500.00, 187500.00, -187500.02, -187500.02, -187500.02, -187500.02, 0.000, 0.000, 0.000, 16:54:00.716
88, 31866.54, 13801.26, 187500.00, 187500.00, -187500.02, -187500.02, -187500.02, -187500.02, 0.000, 0.000, 0.000, 16:54:00.716
89, 31831.77, 13936.63, 187500.00, 187500.00, -187500.02, -187500.02, -187500.02, -187500.02, 0.000, 0.000, 0.000, 16:54:00.717
90, 32158.66, 14387.35, 187500.00, 187500.00, -187500.02, -187500.02, -187500.02, -187500.02, 0.000, 0.000, 0.000, 16:54:00.717
91, 32244.00, 14357.73, 187500.00, 187500.00, -187500.02, -187500.02, -187500.02, -187500.02, 0.000, 0.000, 0.000, 16:54:00.717
92, 31988.99, 14028.22, 187500.00, 187500.00, -187500.02, -187500.02, -187500.02, -187500.02, 0.008, -0.018, 1.028, 16:54:00.717
93, 31853.04, 13798.07, 187500.00, 187500.00, -187500.02, -187500.02, -187500.02, -187500.02, 0.000, 0.000, 0.000, 16:54:00.717
94, 31818.89, 13928.51, 187500.00, 187500.00, -187500.02, -187500.02, -187500.02, -187500.02, 0.000, 0.000, 0.000, 16:54:00.717
95, 32166.89, 14397.23, 187500.00, 187500.00, -187500.02, -187500.02, -187500.02, -187500.02, 0.000, 0.000, 0.000, 16:54:00.718
96, 32254.48, 14371.46, 187500.00, 187500.00, -187500.02, -187500.02, -187500.02, -187500.02, 0.000, 0.000, 0.000, 16:54:00.718
97, 32003.21, 14047.02, 187500.00, 187500.00, -187500.02, -187500.02, -187500.02, -187500.02, 0.000, 0.000, 0.000, 16:54:00.718
98, 31874.97, 13825.49, 187500.00, 187500.00, -187500.02, -187500.02, -187500.02, -187500.02, 0.000, 0.000, 0.000, 16:54:00.718
99, 31835.97, 13948.54, 187500.00, 187500.00, -187500.02, -187500.02, -187500.02, -187500.02, 0.000, 0.000, 0.000, 16:54:00.718
100, 32171.98, 14399.35, 187500.00, 187500.00, -187500.02, -187500.02, -187500.02, -187500.02, 0.000, 0.000, 0.000, 16:54:00.719
101, 32255.31, 14373.96, 187500.00, 187500.00, -187500.02, -187500.02, -187500.02, -187500.02, 0.000, 0.000, 0.000, 16:54:00.719
102, 31995.81, 14044.52, 187500.00, 187500.00, -187500.02, -187500.02, -187500.02, -187500.02, 0.008, -0.018, 1.030, 16:54:00.719
103, 31883.00, 13828.22, 187500.00, 187500.00, -187500.02, -187500.02, -187500.02, -187500.02, 0.000, 0.000, 0.000, 16:54:00.719
104, 31840.35, 13950.13, 187500.00, 187500.00, -187500.02, -187500.02, -187500.02, -187500.02, 0.000, 0.000, 0.000, 16:54:00.719
105, 32172.90, 14403.42, 187500.00, 187500.00, -187500.02, -187500.02, -187500.02, -187500.02, 0.000, 0.000, 0.000, 16:54:00.720
106, 32263.31, 14377.56, 187500.00, 187500.00, -187500.02, -187500.02, -187500.02, -187500.02, 0.000, 0.000, 0.000, 16:54:00.720
107, 31996.21, 14039.44, 187500.00, 187500.00, -187500.02, -187500.02, -187500.02, -187500.02, 0.000, 0.000, 0.000, 16:54:00.720
108, 31877.03, 13826.32, 187500.00, 187500.00, -187500.02, -187500.02, -187500.02, -187500.02, 0.000, 0.000, 0.000, 16:54:00.720
109, 31843.48, 13958.55, 187500.00, 187500.00, -187500.02, -187500.02, -187500.02, -187500.02, 0.000, 0.000, 0.000, 16:54:00.720
110, 32174.49, 14411.87, 187500.00, 187500.00, -187500.02, -187500.02, -187500.02, -187500.02, 0.000, 0.000, 0.000, 16:54:00.721
111, 32251.22, 14374.09, 187500.00, 187500.00, -187500.02, -187500.02, -187500.02, -187500.02, 0.000, 0.000, 0.000, 16:54:00.721
112, 32003.27, 14053.73, 187500.00, 187500.00, -187500.02, -187500.02, -187500.02, -187500.02, 0.010, -0.010, 1.026, 16:54:00.721
113, 31873.32, 13831.24, 187500.00, 187500.00, -187500.02, -187500.02, -187500.02, -187500.02, 0.000, 0.000, 0.000, 16:54:00.721
114, 31840.28, 13955.67, 187500.00, 187500.00, -187500.02, -187500.02, -187500.02, -187500.02, 0.000, 0.000, 0.000, 16:54:00.721
115, 32175.36, 14405.54, 187500.00, 187500.00, -187500.02, -187500.02, -187500.02, -187500.02, 0.000, 0.000, 0.000, 16:54:00.721
116, 32257.79, 14371.63, 187500.00, 187500.00, -187500.02, -187500.02, -187500.02, -187500.02, 0.000, 0.000, 0.000, 16:54:00.722
117, 32019.19, 14056.41, 187500.00, 187500.00, -187500.02, -187500.02, -187500.02, -187500.02, 0.000, 0.000, 0.000, 16:54:00.748
118, 31875.96, 13833.87, 187500.00, 187500.00, -187500.02, -187500.02, -187500.02, -187500.02, 0.000, 0.000, 0.000, 16:54:00.748
119, 31832.26, 13953.81, 187500.00, 187500.00, -187500.02, -187500.02, -187500.02, -187500.02, 0.000, 0.000, 0.000, 16:54:00.748
120, 32189.62, 14427.58, 187500.00, 187500.00, -187500.02, -187500.02, -187500.02, -187500.02, 0.000, 0.000, 0.000, 16:54:00.748
121, 32258.75, 14384.60, 187500.00, 187500.00, -187500.02, -187500.02, -187500.02, -187500.02, 0.000, 0.000, 0.000, 16:54:00.749
122, 32000.72, 14050.33, 187500.00, 187500.00, -187500.02, -187500.02, -187500.02, -187500.02, 0.010, -0.016, 1.028, 16:54:00.749
123, 31861.20, 13819.81, 187500.00, 187500.00, -187500.02, -187500.02, -187500.02, -187500.02, 0.000, 0.000, 0.000, 16:54:00.749
124, 31819.85, 13943.78, 187500.00, 187500.00, -187500.02, -187500.02, -187500.02, -187500.02, 0.000, 0.000, 0.000, 16:54:00.749
125, 32172.79, 14410.93, 187500.00, 187500.00, -187500.02, -187500.02, -187500.02, -187500.02, 0.000, 0.000, 0.000, 16:54:00.749
126, 32269.26, 14396.45, 187500.00, 187500.00, -187500.02, -187500.02, -187500.02, -187500.02, 0.000, 0.000, 0.000, 16:54:00.749
127, 32003.23, 14057.48, 187500.00, 187500.00, -187500.02, -187500.02, -187500.02, -187500.02, 0.000, 0.000, 0.000, 16:54:00.750
128, 31872.65, 13826.39, 187500.00, 187500.00, -187500.02, -187500.02, -187500.02, -187500.02, 0.000, 0.000, 0.000, 16:54:00.750
129, 31834.49, 13950.01, 187500.00, 187500.00, -187500.02, -187500.02, -187500.02, -187500.02, 0.000, 0.000, 0.000, 16:54:00.750
130, 32144.82, 14381.85, 187500.00, 187500.00, -187500.02, -187500.02, -187500.02, -187500.02, 0.000, 0.000, 0.000, 16:54:00.750
131, 32239.48, 14360.24, 187500.00, 187500.00, -187500.02, -187500.02, -187500.02, -187500.02, 0.000, 0.000, 0.000, 16:54:00.750
132, 31999.63, 14044.11, 187500.00, 187500.00, -187500.02, -187500.02, -187500.02, -187500.02, 0.012, -0.020, 1.026, 16:54:00.750
133, 31863.39, 13817.74, 187500.00, 187500.00, -187500.02, -187500.02, -187500.02, -187500.02, 0.000, 0.000, 0.000, 16:54:00.750
134, 31821.82, 13943.04, 187500.00, 187500.00, -187500.02, -187500.02, -187500.02, -187500.02, 0.000, 0.000, 0.000, 16:54:00.751
135, 32166.46, 14408.25, 187500.00, 187500.00, -187500.02, -187500.02, -187500.02, -187500.02, 0.000, 0.000, 0.000, 16:54:00.751
136, 32257.90, 14377.78, 187500.00, 187500.00, -187500.02, -187500.02, -187500.02, -187500.02, 0.000, 0.000, 0.000, 16:54:00.751
137, 32006.56, 14049.95, 187500.00, 187500.00, -187500.02, -187500.02, -187500.02, -187500.02, 0.000, 0.000, 0.000, 16:54:00.751
138, 31878.79, 13827.30, 187500.00, 187500.00, -187500.02, -187500.02, -187500.02, -187500.02, 0.000, 0.000, 0.000, 16:54:00.751
139, 31837.24, 13954.46, 187500.00, 187500.00, -187500.02, -187500.02, -187500.02, -187500.02, 0.000, 0.000, 0.000, 16:54:00.752
140, 32176.54, 14416.47, 187500.00, 187500.00, -187500.02, -187500.02, -187500.02, -187500.02, 0.000, 0.000, 0.000, 16:54:00.752
141, 32267.11, 14384.71, 187500.00, 187500.00, -187500.02, -187500.02, -187500.02, -187500.02, 0.000, 0.000, 0.000, 16:54:00.752
142, 32006.60, 14052.50, 187500.00, 187500.00, -187500.02, -187500.02, -187500.02, -187500.02, 0.012, -0.016, 1.032, 16:54:00.752
143, 31882.17, 13839.78, 187500.00, 187500.00, -187500.02, -187500.02, -187500.02, -187500.02, 0.000, 0.000, 0.000, 16:54:00.752
144, 31848.42, 13974.33, 187500.00, 187500.00, -187500.02, -187500.02, -187500.02, -187500.02, 0.000, 0.000, 0.000, 16:54:00.752
145, 32181.68, 14421.37, 187500.00, 187500.00, -187500.02, -187500.02, -187500.02, -187500.02, 0.000, 0.000, 0.000, 16:54:00.753
146, 32260.79, 14377.65, 187500.00, 187500.00, -187500.02, -187500.02, -187500.02, -187500.02, 0.000, 0.000, 0.000, 16:54:00.753
147, 32001.64, 14046.60, 187500.00, 187500.00, -187500.02, -187500.02, -187500.02, -187500.02, 0.000, 0.000, 0.000, 16:54:00.753
148, 31858.74, 13804.24, 187500.00, 187500.00, -187500.02, -187500.02, -187500.02, -187500.02, 0.000, 0.000, 0.000, 16:54:00.753
149, 31815.67, 13920.84, 187500.00, 187500.00, -187500.02, -187500.02, -187500.02, -187500.02, 0.000, 0.000, 0.000, 16:54:00.753
150, 32156.94, 14383.93, 187500.00, 187500.00, -187500.02, -187500.02, -187500.02, -187500.02, 0.000, 0.000, 0.000, 16:54:00.754
151, 32243.98, 14356.53, 187500.00, 187500.00, -187500.02, -187500.02, -187500.02, -187500.02, 0.000, 0.000, 0.000, 16:54:00.754
152, 31996.23, 14036.49, 187500.00, 187500.00, -187500.02, -187500.02, -187500.02, -187500.02, 0.006, -0.016, 1.024, 16:54:00.754
153, 31868.07, 13815.34, 187500.00, 187500.00, -187500.02, -187500.02, -187500.02, -187500.02, 0.000, 0.000, 0.000, 16:54:00.754
154, 31818.00, 13931.53, 187500.00, 187500.00, -187500.02, -187500.02, -187500.02, -187500.02, 0.000, 0.000, 0.000, 16:54:00.754
155, 32147.62, 14384.02, 187500.00, 187500.00, -187500.02, -187500.02, -187500.02, -187500.02, 0.000, 0.000, 0.000, 16:54:00.754
156, 32255.27, 14373.74, 187500.00, 187500.00, -187500.02, -187500.02, -187500.02, -187500.02, 0.000, 0.000, 0.000, 16:54:00.755
157, 32019.95, 14060.30, 187500.00, 187500.00, -187500.02, -187500.02, -187500.02, -187500.02, 0.000, 0.000, 0.000, 16:54:00.755
158, 31877.34, 13826.41, 187500.00, 187500.00, -187500.02, -187500.02, -187500.02, -187500.02, 0.000, 0.000, 0.000, 16:54:00.755
159, 31841.51, 13949.68, 187500.00, 187500.00, -187500.02, -187500.02, -187500.02, -187500.02, 0.000, 0.000, 0.000, 16:54:00.755
160, 32181.53, 14406.97, 187500.00, 187500.00, -187500.02, -187500.02, -187500.02, -187500.02, 0.000, 0.000, 0.000, 16:54:00.755
161, 32276.95, 14390.05, 187500.00, 187500.00, -187500.02, -187500.02, -187500.02, -187500.02, 0.000, 0.000, 0.000, 16:54:00.756
162, 32009.22, 14053.52, 187500.00, 187500.00, -187500.02, -187500.02, -187500.02, -187500.02, 0.012, -0.020, 1.026, 16:54:00.756
