%OpenBCI Raw EEG Data
%
%Sample Rate = 250.0 Hz
%First Column = SampleIndex
%Last Column = Timestamp 
%Other Columns = EEG data in microvolts followed by Accel Data (in G) interleaved with Aux Data
0, 27193.00, 26736.66, -187500.02, -187500.02, -187500.02, -187500.02, -94764.29, -187500.02, 0.002, -0.016, 1.030, 15:26:23.032
1, 26899.36, 28575.36, -187500.02, -187500.02, -187500.02, -187500.02, -94398.72, -187500.02, 0.000, 0.000, 0.000, 15:26:23.033
2, 26209.48, 28933.33, -187500.02, -187500.02, -187500.02, -187500.02, -94257.26, -187500.02, 0.000, 0.000, 0.000, 15:26:23.033
3, 26364.24, 25890.23, -187500.02, -187500.02, -187500.02, -187500.02, -94739.81, -187500.02, 0.000, 0.000, 0.000, 15:26:23.033
4, 27079.00, 25703.57, -187500.02, -187500.02, -187500.02, -187500.02, -94881.19, -187500.02, 0.000, 0.000, 0.000, 15:26:23.033
5, 27231.53, 26774.73, -187500.02, -187500.02, -187500.02, -187500.02, -94807.54, -187500.02, 0.000, 0.000, 0.000, 15:26:23.033
6, 26942.19, 28619.53, -187500.02, -187500.02, -187500.02, -187500.02, -94543.27, -187500.02, 0.000, 0.000, 0.000, 15:26:23.033
7, 26226.15, 28974.63, -187500.02, -187500.02, -187500.02, -187500.02, -94375.27, -187500.02, 0.004, -0.028, 1.096, 15:26:23.033
8, 26354.83, 25902.27, -187500.02, -187500.02, -187500.02, -187500.02, -94779.71, -187500.02, 0.000, 0.000, 0.000, 15:26:23.034
9, 27066.49, 25681.46, -187500.02, -187500.02, -187500.02, -187500.02, -94901.91, -187500.02, 0.000, 0.000, 0.000, 15:26:23.034
10, 27214.99, 26744.73, -187500.02, -187500.02, -187500.02, -187500.02, -94770.81, -187500.02, 0.000, 0.000, 0.000, 15:26:23.034
11, 26927.39, 28583.92, -187500.02, -187500.02, -187500.02, -187500.02, -94457.71, -187500.02, 0.000, 0.000, 0.000, 15:26:23.034
12, 26222.02, 28981.79, -187500.02, -187500.02, -187500.02, -187500.02, -94306.92, -187500.02, 0.000, 0.000, 0.000, 15:26:23.034
13, 26366.45, 25927.31, -187500.02, -187500.02, -187500.02, -187500.02, -94792.98, -187500.02, 0.000, 0.000, 0.000, 15:26:23.034
14, 27074.98, 25683.25, -187500.02, -187500.02, -187500.02, -187500.02, -94914.42, -187500.02, 0.000, 0.000, 0.000, 15:26:23.034
15, 27228.18, 26749.38, -187500.02, -187500.02, -187500.02, -187500.02, -94798.30, -187500.02, 0.000, 0.000, 0.000, 15:26:23.035
16, 26928.73, 28566.87, -187500.02, -187500.02, -187500.02, -187500.02, -94483.01, -187500.02, 0.000, 0.000, 0.000, 15:26:23.035
17, 26209.61, 28974.21, -187500.02, -187500.02, -187500.02, -187500.02, -94330.33, -187500.02, -0.008, -0.022, 1.052, 15:26:23.035
18, 26330.44, 25904.91, -187500.02, -187500.02, -187500.02, -187500.02, -94766.81, -187500.02, 0.000, 0.000, 0.000, 15:26:23.035
19, 27044.51, 25648.16, -187500.02, -187500.02, -187500.02, -187500.02, -94863.80, -187500.02, 0.000, 0.000, 0.000, 15:26:23.035
20, 27212.76, 26718.89, -187500.02, -187500.02, -187500.02, -187500.02, -94763.39, -187500.02, 0.000, 0.000, 0.000, 15:26:23.035
21, 26925.87, 28540.74, -187500.02, -187500.02, -187500.02, -187500.02, -94448.66, -187500.02, 0.000, 0.000, 0.000, 15:26:23.035
22, 26216.49, 28993.32, -187500.02, -187500.02, -187500.02, -187500.02, -94292.24, -187500.02, 0.000, 0.000, 0.000, 15:26:23.036
23, 26348.37, 25936.38, -187500.02, -187500.02, -187500.02, -187500.02, -94751.41, -187500.02, 0.000, 0.000, 0.000, 15:26:23.036
24, 27072.77, 25667.18, -187500.02, -187500.02, -187500.02, -187500.02, -94899.02, -187500.02, 0.000, 0.000, 0.000, 15:26:23.036
25, 27230.26, 26737.85, -187500.02, -187500.02, -187500.02, -187500.02, -94798.06, -187500.02, 0.000, 0.000, 0.000, 15:26:23.036
26, 26941.99, 28547.45, -187500.02, -187500.02, -187500.02, -187500.02, -94497.61, -187500.02, 0.000, 0.000, 0.000, 15:26:23.036
27, 26217.66, 29009.10, -187500.02, -187500.02, -187500.02, -187500.02, -94337.75, -187500.02, -0.004, -0.016, 1.020, 15:26:23.036
28, 26329.86, 25938.53, -187500.02, -187500.02, -187500.02, -187500.02, -94766.27, -187500.02, 0.000, 0.000, 0.000, 15:26:23.037
29, 27054.66, 25650.71, -187500.02, -187500.02, -187500.02, -187500.02, -94893.26, -187500.02, 0.000, 0.000, 0.000, 15:26:23.037
30, 27214.50, 26721.22, -187500.02, -187500.02, -187500.02, -187500.02, -94781.49, -187500.02, 0.000, 0.000, 0.000, 15:26:23.037
31, 26927.46, 28523.08, -187500.02, -187500.02, -187500.02, -187500.02, -94435.38, -187500.02, 0.000, 0.000, 0.000, 15:26:23.037
32, 26218.62, 29021.44, -187500.02, -187500.02, -187500.02, -187500.02, -94262.71, -187500.02, 0.000, 0.000, 0.000, 15:26:23.037
33, 26340.19, 25967.38, -187500.02, -187500.02, -187500.02, -187500.02, -94745.17, -187500.02, 0.000, 0.000, 0.000, 15:26:23.038
34, 27071.67, 25664.25, -187500.02, -187500.02, -187500.02, -187500.02, -94912.57, -187500.02, 0.000, 0.000, 0.000, 15:26:23.038
35, 27243.54, 26736.28, -187500.02, -187500.02, -187500.02, -187500.02, -94844.35, -187500.02, 0.000, 0.000, 0.000, 15:26:23.038
36, 26955.60, 28528.94, -187500.02, -187500.02, -187500.02, -187500.02, -94536.12, -187500.02, 0.002, -0.020, 1.024, 15:26:23.038
37, 26230.78, 29045.15, -187500.02, -187500.02, -187500.02, -187500.02, -94375.81, -187500.02, 0.000, 0.000, 0.000, 15:26:23.038
38, 26313.97, 25962.85, -187500.02, -187500.02, -187500.02, -187500.02, -94787.24, -187500.02, 0.000, 0.000, 0.000, 15:26:23.038
39, 27041.38, 25629.61, -187500.02, -187500.02, -187500.02, -187500.02, -94923.02, -187500.02, 0.000, 0.000, 0.000, 15:26:23.038
40, 27215.57, 26700.21, -187500.02, -187500.02, -187500.02, -187500.02, -94816.12, -187500.02, 0.000, 0.000, 0.000, 15:26:23.038
41, 26934.70, 28491.81, -187500.02, -187500.02, -187500.02, -187500.02, -94485.98, -187500.02, 0.000, 0.000, 0.000, 15:26:23.038
42, 26210.12, 29035.81, -187500.02, -187500.02, -187500.02, -187500.02, -94299.08, -187500.02, 0.000, 0.000, 0.000, 15:26:23.039
43, 26314.62, 25980.73, -187500.02, -187500.02, -187500.02, -187500.02, -94777.59, -187500.02, 0.000, 0.000, 0.000, 15:26:23.039
44, 27052.72, 25632.94, -187500.02, -187500.02, -187500.02, -187500.02, -94914.49, -187500.02, 0.000, 0.000, 0.000, 15:26:23.039
45, 27237.81, 26713.44, -187500.02, -187500.02, -187500.02, -187500.02, -94828.62, -187500.02, 0.000, 0.000, 0.000, 15:26:23.039
46, 26968.27, 28511.48, -187500.02, -187500.02, -187500.02, -187500.02, -94548.01, -187500.02, 0.006, -0.018, 1.028, 15:26:23.039
47, 26234.00, 29069.69, -187500.02, -187500.02, -187500.02, -187500.02, -94373.91, -187500.02, 0.000, 0.000, 0.000, 15:26:23.040
48, 26316.92, 25987.43, -187500.02, -187500.02, -187500.02, -187500.02, -94808.14, -187500.02, 0.000, 0.000, 0.000, 15:26:23.040
49, 27066.82, 25620.15, -187500.02, -187500.02, -187500.02, -187500.02, -94942.92, -187500.02, 0.000, 0.000, 0.000, 15:26:23.040
50, 27236.58, 26693.64, -187500.02, -187500.02, -187500.02, -187500.02, -94820.27, -187500.02, 0.000, 0.000, 0.000, 15:26:23.040
51, 26938.01, 28467.76, -187500.02, -187500.02, -187500.02, -187500.02, -94485.73, -187500.02, 0.000, 0.000, 0.000, 15:26:23.040
52, 26201.00, 29059.32, -187500.02, -187500.02, -187500.02, -187500.02, -94309.49, -187500.02, 0.000, 0.000, 0.000, 15:26:23.040
53, 26287.46, 25990.32, -187500.02, -187500.02, -187500.02, -187500.02, -94736.23, -187500.02, 0.000, 0.000, 0.000, 15:26:23.041
54, 27027.91, 25600.28, -187500.02, -187500.02, -187500.02, -187500.02, -94857.27, -187500.02, 0.000, 0.000, 0.000, 15:26:23.041
55, 27218.39, 26679.22, -187500.02, -187500.02, -187500.02, -187500.02, -94733.77, -187500.02, 0.000, 0.000, 0.000, 15:26:23.041
56, 26950.66, 28461.39, -187500.02, -187500.02, -187500.02, -187500.02, -94416.94, -187500.02, 0.006, -0.016, 1.026, 15:26:23.041
57, 26218.95, 29080.11, -187500.02, -187500.02, -187500.02, -187500.02, -94239.34, -187500.02, 0.000, 0.000, 0.000, 15:26:23.041
58, 26304.65, 26018.46, -187500.02, -187500.02, -187500.02, -187500.02, -94691.84, -187500.02, 0.000, 0.000, 0.000, 15:26:23.041
59, 27056.63, 25621.76, -187500.02, -187500.02, -187500.02, -187500.02, -94860.64, -187500.02, 0.000, 0.000, 0.000, 15:26:23.042
60, 27245.28, 26698.98, -187500.02, -187500.02, -187500.02, -187500.02, -94793.25, -187500.02, 0.000, 0.000, 0.000, 15:26:23.042
61, 26963.22, 28457.95, -187500.02, -187500.02, -187500.02, -187500.02, -94496.60, -187500.02, 0.000, 0.000, 0.000, 15:26:23.042
62, 26213.92, 29084.04, -187500.02, -187500.02, -187500.02, -187500.02, -94288.08, -187500.02, 0.000, 0.000, 0.000, 15:26:23.042
63, 26282.66, 26012.27, -187500.02, -187500.02, -187500.02, -187500.02, -94713.93, -187500.02, 0.000, 0.000, 0.000, 15:26:23.042
64, 27037.76, 25594.51, -187500.02, -187500.02, -187500.02, -187500.02, -94867.02, -187500.02, 0.000, 0.000, 0.000, 15:26:23.043
65, 27225.14, 26673.68, -187500.02, -187500.02, -187500.02, -187500.02, -94764.06, -187500.02, 0.000, 0.000, 0.000, 15:26:23.044
66, 26955.89, 28443.49, -187500.02, -187500.02, -187500.02, -187500.02, -94465.94, -187500.02, 0.010, -0.016, 1.030, 15:26:23.044
67, 26223.29, 29112.72, -187500.02, -187500.02, -187500.02, -187500.02, -94258.80, -187500.02, 0.000, 0.000, 0.000, 15:26:23.044
68, 26292.80, 26047.58, -187500.02, -187500.02, -187500.02, -187500.02, -94703.02, -187500.02, 0.000, 0.000, 0.000, 15:26:23.044
69, 27045.90, 25602.45, -187500.02, -187500.02, -187500.02, -187500.02, -94872.29, -187500.02, 0.000, 0.000, 0.000, 15:26:23.044
70, 27249.73, 26694.22, -187500.02, -187500.02, -187500.02, -187500.02, -94819.34, -187500.02, 0.000, 0.000, 0.000, 15:26:23.044
71, 26969.01, 28436.63, -187500.02, -187500.02, -187500.02, -187500.02, -94526.20, -187500.02, 0.000, 0.000, 0.000, 15:26:23.045
72, 26229.01, 29125.13, -187500.02, -187500.02, -187500.02, -187500.02, -94314.73, -187500.02, 0.000, 0.000, 0.000, 15:26:23.045
73, 26283.15, 26055.27, -187500.02, -187500.02, -187500.02, -187500.02, -94756.59, -187500.02, 0.000, 0.000, 0.000, 15:26:23.045
74, 27031.30, 25577.97, -187500.02, -187500.02, -187500.02, -187500.02, -94873.43, -187500.02, 0.000, 0.000, 0.000, 15:26:23.045
75, 27227.82, 26667.42, -187500.02, -187500.02, -187500.02, -187500.02, -94777.20, -187500.02, 0.000, 0.000, 0.000, 15:26:23.045
76, 26951.53, 28413.54, -187500.02, -187500.02, -187500.02, -187500.02, -94460.84, -187500.02, 0.004, -0.010, 1.022, 15:26:23.045
77, 26227.45, 29143.23, -187500.02, -187500.02, -187500.02, -187500.02, -94292.89, -187500.02, 0.000, 0.000, 0.000, 15:26:23.046
78, 26274.90, 26075.01, -187500.02, -187500.02, -187500.02, -187500.02, -94749.42, -187500.02, 0.000, 0.000, 0.000, 15:26:23.046
79, 27032.51, 25588.83, -187500.02, -187500.02, -187500.02, -187500.02, -94907.31, -187500.02, 0.000, 0.000, 0.000, 15:26:23.046
80, 27250.55, 26686.06, -187500.02, -187500.02, -187500.02, -187500.02, -94806.44, -187500.02, 0.000, 0.000, 0.000, 15:26:23.046
81, 26983.49, 28420.60, -187500.02, -187500.02, -187500.02, -187500.02, -94498.75, -187500.02, 0.000, 0.000, 0.000, 15:26:23.046
82, 26235.29, 29144.13, -187500.02, -187500.02, -187500.02, -187500.02, -94310.91, -187500.02, 0.000, 0.000, 0.000, 15:26:23.046
83, 26261.64, 26065.69, -187500.02, -187500.02, -187500.02, -187500.02, -94722.20, -187500.02, 0.000, 0.000, 0.000, 15:26:23.046
84, 27032.00, 25566.39, -187500.02, -187500.02, -187500.02, -187500.02, -94904.37, -187500.02, 0.000, 0.000, 0.000, 15:26:23.046
85, 27241.57, 26658.48, -187500.02, -187500.02, -187500.02, -187500.02, -94794.10, -187500.02, 0.000, 0.000, 0.000, 15:26:23.047
86, 26975.92, 28398.07, -187500.02, -187500.02, -187500.02, -187500.02, -94499.41, -187500.02, -0.002, -0.010, 1.024, 15:26:23.047
87, 26231.56, 29156.82, -187500.02, -187500.02, -187500.02, -187500.02, -94292.69, -187500.02, 0.000, 0.000, 0.000, 15:26:23.047
88, 26275.82, 26102.46, -187500.02, -187500.02, -187500.02, -187500.02, -94746.78, -187500.02, 0.000, 0.000, 0.000, 15:26:23.047
89, 27041.63, 25575.63, -187500.02, -187500.02, -187500.02, -187500.02, -94933.58, -187500.02, 0.000, 0.000, 0.000, 15:26:23.047
90, 27247.80, 26660.31, -187500.02, -187500.02, -187500.02, -187500.02, -94823.43, -187500.02, 0.000, 0.000, 0.000, 15:26:23.047
91, 26977.86, 28379.99, -187500.02, -187500.02, -187500.02, -187500.02, -94464.44, -187500.02, 0.000, 0.000, 0.000, 15:26:23.048
92, 26239.65, 29164.73, -187500.02, -187500.02, -187500.02, -187500.02, -94255.65, -187500.02, 0.000, 0.000, 0.000, 15:26:23.048
93, 26275.73, 26118.33, -187500.02, -187500.02, -187500.02, -187500.02, -94717.16, -187500.02, 0.000, 0.000, 0.000, 15:26:23.048
94, 27048.36, 25576.01, -187500.02, -187500.02, -187500.02, -187500.02, -94903.72, -187500.02, 0.000, 0.000, 0.000, 15:26:23.048
95, 27263.38, 26667.04, -187500.02, -187500.02, -187500.02, -187500.02, -94803.05, -187500.02, 0.000, 0.000, 0.000, 15:26:23.048
96, 27005.11, 28391.65, -187500.02, -187500.02, -187500.02, -187500.02, -94487.84, -187500.02, 0.002, -0.014, 1.028, 15:26:23.048
97, 26249.66, 29191.96, -187500.02, -187500.02, -187500.02, -187500.02, -94275.61, -187500.02, 0.000, 0.000, 0.000, 15:26:23.048
98, 26265.04, 26137.44, -187500.02, -187500.02, -187500.02, -187500.02, -94710.13, -187500.02, 0.000, 0.000, 0.000, 15:26:23.048
99, 27046.15, 25580.83, -187500.02, -187500.02, -187500.02, -187500.02, -94891.83, -187500.02, 0.000, 0.000, 0.000, 15:26:23.049
100, 27264.79, 26670.75, -187500.02, -187500.02, -187500.02, -187500.02, -94773.70, -187500.02, 0.000, 0.000, 0.000, 15:26:23.049
101, 27002.56, 28370.58, -187500.02, -187500.02, -187500.02, -187500.02, -94454.83, -187500.02, 0.000, 0.000, 0.000, 15:26:23.049
102, 26255.83, 29195.38, -187500.02, -187500.02, -187500.02, -187500.02, -94230.19, -187500.02, 0.000, 0.000, 0.000, 15:26:23.049
103, 26280.13, 26159.32, -187500.02, -187500.02, -187500.02, -187500.02, -94689.90, -187500.02, 0.000, 0.000, 0.000, 15:26:23.049
104, 27056.38, 25577.03, -187500.02, -187500.02, -187500.02, -187500.02, -94883.73, -187500.02, 0.000, 0.000, 0.000, 15:26:23.049
105, 27279.61, 26667.46, -187500.02, -187500.02, -187500.02, -187500.02, -94806.64, -187500.02, 0.000, 0.000, 0.000, 15:26:23.049
106, 27028.76, 28378.76, -187500.02, -187500.02, -187500.02, -187500.02, -94511.76, -187500.02, 0.002, -0.020, 1.036, 15:26:23.049
107, 26271.48, 29221.75, -187500.02, -187500.02, -187500.02, -187500.02, -94291.26, -187500.02, 0.000, 0.000, 0.000, 15:26:23.049
108, 26264.28, 26170.74, -187500.02, -187500.02, -187500.02, -187500.02, -94727.49, -187500.02, 0.000, 0.000, 0.000, 15:26:23.050
109, 27035.80, 25561.32, -187500.02, -187500.02, -187500.02, -187500.02, -94920.23, -187500.02, 0.000, 0.000, 0.000, 15:26:23.050
110, 27265.71, 26653.72, -187500.02, -187500.02, -187500.02, -187500.02, -94830.31, -187500.02, 0.000, 0.000, 0.000, 15:26:23.050
111, 27009.65, 28346.46, -187500.02, -187500.02, -187500.02, -187500.02, -94516.77, -187500.02, 0.000, 0.000, 0.000, 15:26:23.050
112, 26249.24, 29213.39, -187500.02, -187500.02, -187500.02, -187500.02, -94260.70, -187500.02, 0.000, 0.000, 0.000, 15:26:23.050
113, 26248.97, 26174.45, -187500.02, -187500.02, -187500.02, -187500.02, -94694.88, -187500.02, 0.000, 0.000, 0.000, 15:26:23.050
114, 27031.04, 25545.79, -187500.02, -187500.02, -187500.02, -187500.02, -94874.63, -187500.02, 0.000, 0.000, 0.000, 15:26:23.050
115, 27262.60, 26637.67, -187500.02, -187500.02, -187500.02, -187500.02, -94753.76, -187500.02, 0.000, 0.000, 0.000, 15:26:23.050
116, 27016.57, 28331.42, -187500.02, -187500.02, -187500.02, -187500.02, -94441.39, -187500.02, 0.004, -0.018, 1.028, 15:26:23.051
117, 26279.04, 29240.64, -187500.02, -187500.02, -187500.02, -187500.02, -94242.69, -187500.02, 0.000, 0.000, 0.000, 15:26:23.051
118, 26272.93, 26213.39, -187500.02, -187500.02, -187500.02, -187500.02, -94676.15, -187500.02, 0.000, 0.000, 0.000, 15:26:23.051
119, 27056.88, 25567.22, -187500.02, -187500.02, -187500.02, -187500.02, -94852.95, -187500.02, 0.000, 0.000, 0.000, 15:26:23.051
120, 27295.68, 26671.20, -187500.02, -187500.02, -187500.02, -187500.02, -94800.09, -187500.02, 0.000, 0.000, 0.000, 15:26:23.515
121, 27049.19, 28364.21, -187500.02, -187500.02, -187500.02, -187500.02, -94557.48, -187500.02, 0.000, 0.000, 0.000, 15:26:23.516
122, 26291.37, 29276.25, -187500.02, -187500.02, -187500.02, -187500.02, -94328.12, -187500.02, 0.000, 0.000, 0.000, 15:26:23.516
123, 26264.60, 26233.66, -187500.02, -187500.02, -187500.02, -187500.02, -94760.69, -187500.02, 0.000, 0.000, 0.000, 15:26:23.516
124, 27037.59, 25556.40, -187500.02, -187500.02, -187500.02, -187500.02, -94907.60, -187500.02, 0.000, 0.000, 0.000, 15:26:23.516
125, 27276.91, 26652.06, -187500.02, -187500.02, -187500.02, -187500.02, -94793.99, -187500.02, 0.000, 0.000, 0.000, 15:26:23.516
126, 27024.73, 28323.35, -187500.02, -187500.02, -187500.02, -187500.02, -94485.94, -187500.02, 0.004, -0.014, 1.030, 15:26:23.517
127, 26276.38, 29268.56, -187500.02, -187500.02, -187500.02, -187500.02, -94238.93, -187500.02, 0.000, 0.000, 0.000, 15:26:23.517
128, 26262.31, 26258.16, -187500.02, -187500.02, -187500.02, -187500.02, -94672.15, -187500.02, 0.000, 0.000, 0.000, 15:26:23.517
129, 27049.72, 25574.55, -187500.02, -187500.02, -187500.02, -187500.02, -94887.22, -187500.02, 0.000, 0.000, 0.000, 15:26:23.517
130, 27294.52, 26675.46, -187500.02, -187500.02, -187500.02, -187500.02, -94823.56, -187500.02, 0.000, 0.000, 0.000, 15:26:23.517
131, 27036.13, 28327.91, -187500.02, -187500.02, -187500.02, -187500.02, -94509.25, -187500.02, 0.000, 0.000, 0.000, 15:26:23.517
132, 26271.37, 29274.48, -187500.02, -187500.02, -187500.02, -187500.02, -94235.66, -187500.02, 0.000, 0.000, 0.000, 15:26:23.518
133, 26240.30, 26259.14, -187500.02, -187500.02, -187500.02, -187500.02, -94647.48, -187500.02, 0.000, 0.000, 0.000, 15:26:23.518
134, 27028.49, 25551.04, -187500.02, -187500.02, -187500.02, -187500.02, -94872.52, -187500.02, 0.000, 0.000, 0.000, 15:26:23.518
135, 27273.58, 26639.39, -187500.02, -187500.02, -187500.02, -187500.02, -94796.54, -187500.02, 0.000, 0.000, 0.000, 15:26:23.518
136, 27029.16, 28294.98, -187500.02, -187500.02, -187500.02, -187500.02, -94476.13, -187500.02, 0.004, -0.016, 1.026, 15:26:23.518
137, 26271.64, 29273.88, -187500.02, -187500.02, -187500.02, -187500.02, -94206.59, -187500.02, 0.000, 0.000, 0.000, 15:26:23.518
138, 26235.65, 26264.06, -187500.02, -187500.02, -187500.02, -187500.02, -94660.84, -187500.02, 0.000, 0.000, 0.000, 15:26:23.519
139, 27027.24, 25540.91, -187500.02, -187500.02, -187500.02, -187500.02, -94872.89, -187500.02, 0.000, 0.000, 0.000, 15:26:23.519
140, 27292.91, 26657.96, -187500.02, -187500.02, -187500.02, -187500.02, -94790.05, -187500.02, 0.000, 0.000, 0.000, 15:26:23.519
141, 27061.88, 28321.11, -187500.02, -187500.02, -187500.02, -187500.02, -94541.44, -187500.02, 0.000, 0.000, 0.000, 15:26:23.519
142, 26279.82, 29297.95, -187500.02, -187500.02, -187500.02, -187500.02, -94287.27, -187500.02, 0.000, 0.000, 0.000, 15:26:23.519
143, 26232.21, 26289.99, -187500.02, -187500.02, -187500.02, -187500.02, -94704.77, -187500.02, 0.000, 0.000, 0.000, 15:26:23.519
144, 27037.99, 25552.02, -187500.02, -187500.02, -187500.02, -187500.02, -94904.41, -187500.02, 0.000, 0.000, 0.000, 15:26:23.520
145, 27299.39, 26652.85, -187500.02, -187500.02, -187500.02, -187500.02, -94797.88, -187500.02, 0.008, -0.018, 1.024, 15:26:23.520
146, 27072.37, 28304.15, -187500.02, -187500.02, -187500.02, -187500.02, -94530.82, -187500.02, 0.000, 0.000, 0.000, 15:26:23.520
147, 26294.30, 29306.85, -187500.02, -187500.02, -187500.02, -187500.02, -94230.28, -187500.02, 0.000, 0.000, 0.000, 15:26:23.520
148, 26246.74, 26315.13, -187500.02, -187500.02, -187500.02, -187500.02, -94644.50, -187500.02, 0.000, 0.000, 0.000, 15:26:23.520
149, 27070.17, 25578.58, -187500.02, -187500.02, -187500.02, -187500.02, -94910.69, -187500.02, 0.000, 0.000, 0.000, 15:26:23.520
150, 27330.88, 26684.58, -187500.02, -187500.02, -187500.02, -187500.02, -94866.19, -187500.02, 0.000, 0.000, 0.000, 15:26:23.521
151, 27070.13, 28298.27, -187500.02, -187500.02, -187500.02, -187500.02, -94548.91, -187500.02, 0.000, 0.000, 0.000, 15:26:23.521
152, 26291.87, 29315.90, -187500.02, -187500.02, -187500.02, -187500.02, -94252.36, -187500.02, 0.000, 0.000, 0.000, 15:26:23.521
153, 26235.98, 26330.85, -187500.02, -187500.02, -187500.02, -187500.02, -94686.63, -187500.02, 0.000, 0.000, 0.000, 15:26:23.521
154, 27037.92, 25546.54, -187500.02, -187500.02, -187500.02, -187500.02, -94888.94, -187500.02, 0.000, 0.000, 0.000, 15:26:23.521
155, 27305.36, 26649.51, -187500.02, -187500.02, -187500.02, -187500.02, -94784.83, -187500.02, 0.010, -0.016, 1.020, 15:26:23.521
156, 27057.17, 28267.38, -187500.02, -187500.02, -187500.02, -187500.02, -94468.80, -187500.02, 0.000, 0.000, 0.000, 15:26:23.522
157, 26292.15, 29321.26, -187500.02, -187500.02, -187500.02, -187500.02, -94209.70, -187500.02, 0.000, 0.000, 0.000, 15:26:23.522
158, 26227.96, 26335.65, -187500.02, -187500.02, -187500.02, -187500.02, -94643.12, -187500.02, 0.000, 0.000, 0.000, 15:26:23.522
159, 27037.56, 25540.96, -187500.02, -187500.02, -187500.02, -187500.02, -94877.48, -187500.02, 0.000, 0.000, 0.000, 15:26:23.522
160, 27316.49, 26656.67, -187500.02, -187500.02, -187500.02, -187500.02, -94817.86, -187500.02, 0.000, 0.000, 0.000, 15:26:23.522
161, 27083.00, 28278.67, -187500.02, -187500.02, -187500.02, -187500.02, -94548.75, -187500.02, 0.000, 0.000, 0.000, 15:26:23.522
162, 26311.04, 29338.99, -187500.02, -187500.02, -187500.02, -187500.02, -94275.16, -187500.02, 0.000, 0.000, 0.000, 15:26:23.523
163, 26226.44, 26348.91, -187500.02, -187500.02, -187500.02, -187500.02, -94710.91, -187500.02, 0.000, 0.000, 0.000, 15:26:23.523
164, 27018.18, 25519.34, -187500.02, -187500.02, -187500.02, -187500.02, -94896.77, -187500.02, 0.000, 0.000, 0.000, 15:26:23.523
165, 27293.18, 26628.57, -187500.02, -187500.02, -187500.02, -187500.02, -94775.46, -187500.02, 0.010, -0.016, 1.026, 15:26:23.523
166, 27067.89, 28246.28, -187500.02, -187500.02, -187500.02, -187500.02, -94493.25, -187500.02, 0.000, 0.000, 0.000, 15:26:23.523
167, 26297.90, 29335.03, -187500.02, -187500.02, -187500.02, -187500.02, -94248.63, -187500.02, 0.000, 0.000, 0.000, 15:26:23.523
168, 26215.51, 26365.31, -187500.02, -187500.02, -187500.02, -187500.02, -94682.52, -187500.02, 0.000, 0.000, 0.000, 15:26:23.524
169, 27038.68, 25535.21, -187500.02, -187500.02, -187500.02, -187500.02, -94894.53, -187500.02, 0.000, 0.000, 0.000, 15:26:23.524
170, 27331.51, 26654.37, -187500.02, -187500.02, -187500.02, -187500.02, -94813.62, -187500.02, 0.000, 0.000, 0.000, 15:26:23.524
171, 27107.05, 28263.31, -187500.02, -187500.02, -187500.02, -187500.02, -94566.47, -187500.02, 0.000, 0.000, 0.000, 15:26:23.524
172, 26318.51, 29350.05, -187500.02, -187500.02, -187500.02, -187500.02, -94260.14, -187500.02, 0.000, 0.000, 0.000, 15:26:23.524
173, 26228.68, 26390.90, -187500.02, -187500.02, -187500.02, -187500.02, -94678.19, -187500.02, 0.000, 0.000, 0.000, 15:26:23.524
174, 27038.84, 25534.05, -187500.02, -187500.02, -187500.02, -187500.02, -94894.02, -187500.02, 0.000, 0.000, 0.000, 15:26:23.525
175, 27311.44, 26635.99, -187500.02, -187500.02, -187500.02, -187500.02, -94807.00, -187500.02, 0.008, -0.014, 1.032, 15:26:23.525
176, 27083.96, 28242.30, -187500.02, -187500.02, -187500.02, -187500.02, -94533.68, -187500.02, 0.000, 0.000, 0.000, 15:26:23.525
177, 26312.83, 29370.33, -187500.02, -187500.02, -187500.02, -187500.02, -94240.80, -187500.02, 0.000, 0.000, 0.000, 15:26:23.525
178, 26219.38, 26416.99, -187500.02, -187500.02, -187500.02, -187500.02, -94657.78, -187500.02, 0.000, 0.000, 0.000, 15:26:23.525
179, 27042.46, 25542.84, -187500.02, -187500.02, -187500.02, -187500.02, -94896.34, -187500.02, 0.000, 0.000, 0.000, 15:26:23.525
180, 27335.74, 26648.29, -187500.02, -187500.02, -187500.02, -187500.02, -94825.64, -187500.02, 0.000, 0.000, 0.000, 15:26:23.526
181, 27107.35, 28232.58, -187500.02, -187500.02, -187500.02, -187500.02, -94561.17, -187500.02, 0.000, 0.000, 0.000, 15:26:23.526
182, 26324.34, 29370.37, -187500.02, -187500.02, -187500.02, -187500.02, -94284.17, -187500.02, 0.000, 0.000, 0.000, 15:26:23.526
183, 26208.38, 26414.66, -187500.02, -187500.02, -187500.02, -187500.02, -94695.94, -187500.02, 0.000, 0.000, 0.000, 15:26:23.526
184, 27022.48, 25513.02, -187500.02, -187500.02, -187500.02, -187500.02, -94905.19, -187500.02, 0.000, 0.000, 0.000, 15:26:23.526
185, 27311.53, 26621.73, -187500.02, -187500.02, -187500.02, -187500.02, -94808.12, -187500.02, 0.004, -0.018, 1.032, 15:26:23.526
186, 27084.75, 28202.51, -187500.02, -187500.02, -187500.02, -187500.02, -94516.05, -187500.02, 0.000, 0.000, 0.000, 15:26:23.527
187, 26314.22, 29366.84, -187500.02, -187500.02, -187500.02, -187500.02, -94230.59, -187500.02, 0.000, 0.000, 0.000, 15:26:23.527
188, 26204.00, 26426.31, -187500.02, -187500.02, -187500.02, -187500.02, -94679.95, -187500.02, 0.000, 0.000, 0.000, 15:26:23.527
189, 27023.79, 25508.79, -187500.02, -187500.02, -187500.02, -187500.02, -94898.04, -187500.02, 0.000, 0.000, 0.000, 15:26:23.527
190, 27332.20, 26625.24, -187500.02, -187500.02, -187500.02, -187500.02, -94818.24, -187500.02, 0.000, 0.000, 0.000, 15:26:23.527
191, 27121.23, 28213.80, -187500.02, -187500.02, -187500.02, -187500.02, -94559.50, -187500.02, 0.000, 0.000, 0.000, 15:26:23.528
192, 26350.72, 29396.83, -187500.02, -187500.02, -187500.02, -187500.02, -94265.26, -187500.02, 0.000, 0.000, 0.000, 15:26:23.528
193, 26223.96, 26459.37, -187500.02, -187500.02, -187500.02, -187500.02, -94693.99, -187500.02, 0.000, 0.000, 0.000, 15:26:23.528
194, 27039.71, 25522.12, -187500.02, -187500.02, -187500.02, -187500.02, -94933.42, -187500.02, 0.000, 0.000, 0.000, 15:26:23.528
195, 27355.70, 26647.21, -187500.02, -187500.02, -187500.02, -187500.02, -94855.57, -187500.02, 0.004, -0.018, 1.032, 15:26:23.528
196, 27133.90, 28215.25, -187500.02, -187500.02, -187500.02, -187500.02, -94544.77, -187500.02, 0.000, 0.000, 0.000, 15:26:23.529
197, 26362.32, 29408.99, -187500.02, -187500.02, -187500.02, -187500.02, -94254.95, -187500.02, 0.000, 0.000, 0.000, 15:26:23.529
198, 26223.56, 26468.51, -187500.02, -187500.02, -187500.02, -187500.02, -94692.76, -187500.02, 0.000, 0.000, 0.000, 15:26:23.529
199, 27032.49, 25501.13, -187500.02, -187500.02, -187500.02, -187500.02, -94902.62, -187500.02, 0.000, 0.000, 0.000, 15:26:23.529
200, 27345.01, 26619.65, -187500.02, -187500.02, -187500.02, -187500.02, -94793.68, -187500.02, 0.000, 0.000, 0.000, 15:26:23.529
201, 27134.55, 28190.49, -187500.02, -187500.02, -187500.02, -187500.02, -94535.45, -187500.02, 0.000, 0.000, 0.000, 15:26:23.529
202, 26360.39, 29401.04, -187500.02, -187500.02, -187500.02, -187500.02, -94237.09, -187500.02, 0.000, 0.000, 0.000, 15:26:23.530
203, 26221.59, 26480.96, -187500.02, -187500.02, -187500.02, -187500.02, -94657.73, -187500.02, 0.000, 0.000, 0.000, 15:26:23.530
204, 27028.35, 25507.18, -187500.02, -187500.02, -187500.02, -187500.02, -94917.28, -187500.02, 0.000, 0.000, 0.000, 15:26:23.530
205, 27340.52, 26623.97, -187500.02, -187500.02, -187500.02, -187500.02, -94830.67, -187500.02, 0.006, -0.016, 1.030, 15:26:23.530
206, 27124.38, 28177.14, -187500.02, -187500.02, -187500.02, -187500.02, -94554.78, -187500.02, 0.000, 0.000, 0.000, 15:26:23.530
207, 26348.19, 29413.49, -187500.02, -187500.02, -187500.02, -187500.02, -94265.41, -187500.02, 0.000, 0.000, 0.000, 15:26:23.531
208, 26184.78, 26479.93, -187500.02, -187500.02, -187500.02, -187500.02, -94672.48, -187500.02, 0.000, 0.000, 0.000, 15:26:23.531
209, 27002.96, 25471.53, -187500.02, -187500.02, -187500.02, -187500.02, -94908.09, -187500.02, 0.000, 0.000, 0.000, 15:26:23.531
210, 27322.35, 26593.39, -187500.02, -187500.02, -187500.02, -187500.02, -94822.63, -187500.02, 0.000, 0.000, 0.000, 15:26:23.531
211, 27112.60, 28153.27, -187500.02, -187500.02, -187500.02, -187500.02, -94557.38, -187500.02, 0.000, 0.000, 0.000, 15:26:23.531
212, 26333.24, 29399.38, -187500.02, -187500.02, -187500.02, -187500.02, -94236.34, -187500.02, 0.000, 0.000, 0.000, 15:26:23.531
213, 26175.86, 26491.04, -187500.02, -187500.02, -187500.02, -187500.02, -94639.12, -187500.02, 0.000, 0.000, 0.000, 15:26:23.531
214, 27009.29, 25482.13, -187500.02, -187500.02, -187500.02, -187500.02, -94899.87, -187500.02, 0.000, 0.000, 0.000, 15:26:23.532
215, 27337.30, 26607.83, -187500.02, -187500.02, -187500.02, -187500.02, -94802.17, -187500.02, 0.006, -0.018, 1.034, 15:26:23.532
216, 27142.79, 28176.68, -187500.02, -187500.02, -187500.02, -187500.02, -94537.84, -187500.02, 0.000, 0.000, 0.000, 15:26:23.532
217, 26376.76, 29456.11, -187500.02, -187500.02, -187500.02, -187500.02, -94240.31, -187500.02, 0.000, 0.000, 0.000, 15:26:23.532
218, 26208.40, 26544.33, -187500.02, -187500.02, -187500.02, -187500.02, -94655.08, -187500.02, 0.000, 0.000, 0.000, 15:26:23.532
219, 27029.79, 25493.97, -187500.02, -187500.02, -187500.02, -187500.02, -94908.39, -187500.02, 0.000, 0.000, 0.000, 15:26:23.532
220, 27360.68, 26617.22, -187500.02, -187500.02, -187500.02, -187500.02, -94820.52, -187500.02, 0.000, 0.000, 0.000, 15:26:23.533
221, 27149.08, 28150.43, -187500.02, -187500.02, -187500.02, -187500.02, -94538.66, -187500.02, 0.000, 0.000, 0.000, 15:26:23.533
222, 26374.61, 29441.92, -187500.02, -187500.02, -187500.02, -187500.02, -94215.08, -187500.02, 0.000, 0.000, 0.000, 15:26:23.533
223, 26196.94, 26550.23, -187500.02, -187500.02, -187500.02, -187500.02, -94624.63, -187500.02, 0.000, 0.000, 0.000, 15:26:23.533
224, 27020.22, 25489.82, -187500.02, -187500.02, -187500.02, -187500.02, -94880.94, -187500.02, 0.000, 0.000, 0.000, 15:26:23.533
225, 27351.22, 26612.50, -187500.02, -187500.02, -187500.02, -187500.02, -94787.84, -187500.02, 0.002, -0.014, 1.024, 15:26:23.533
226, 27150.35, 28146.75, -187500.02, -187500.02, -187500.02, -187500.02, -94523.76, -187500.02, 0.000, 0.000, 0.000, 15:26:23.534
227, 26379.73, 29450.48, -187500.02, -187500.02, -187500.02, -187500.02, -94222.14, -187500.02, 0.000, 0.000, 0.000, 15:26:23.534
228, 26185.78, 26560.09, -187500.02, -187500.02, -187500.02, -187500.02, -94635.45, -187500.02, 0.000, 0.000, 0.000, 15:26:23.534
229, 27000.66, 25473.25, -187500.02, -187500.02, -187500.02, -187500.02, -94882.02, -187500.02, 0.000, 0.000, 0.000, 15:26:23.534
230, 27327.44, 26589.59, -187500.02, -187500.02, -187500.02, -187500.02, -94803.31, -187500.02, 0.000, 0.000, 0.000, 15:26:23.534
231, 27127.37, 28111.92, -187500.02, -187500.02, -187500.02, -187500.02, -94532.38, -187500.02, 0.000, 0.000, 0.000, 15:26:23.535
232, 26378.14, 29454.59, -187500.02, -187500.02, -187500.02, -187500.02, -94247.47, -187500.02, 0.000, 0.000, 0.000, 15:26:23.535
233, 26179.86, 26572.00, -187500.02, -187500.02, -187500.02, -187500.02, -94666.97, -187500.02, 0.000, 0.000, 0.000, 15:26:23.535
234, 26989.26, 25454.05, -187500.02, -187500.02, -187500.02, -187500.02, -94915.67, -187500.02, 0.000, 0.000, 0.000, 15:26:23.535
235, 27325.05, 26582.30, -187500.02, -187500.02, -187500.02, -187500.02, -94851.44, -187500.02, 0.000, -0.016, 1.024, 15:26:23.535
236, 27115.04, 28092.54, -187500.02, -187500.02, -187500.02, -187500.02, -94528.59, -187500.02, 0.000, 0.000, 0.000, 15:26:23.535
237, 26357.94, 29442.70, -187500.02, -187500.02, -187500.02, -187500.02, -94169.70, -187500.02, 0.000, 0.000, 0.000, 15:26:23.536
238, 26168.21, 26590.04, -187500.02, -187500.02, -187500.02, -187500.02, -94595.62, -187500.02, 0.000, 0.000, 0.000, 15:26:23.536
239, 27000.24, 25465.21, -187500.02, -187500.02, -187500.02, -187500.02, -94899.71, -187500.02, 0.000, 0.000, 0.000, 15:26:23.536
240, 27345.15, 26583.89, -187500.02, -187500.02, -187500.02, -187500.02, -94812.56, -187500.02, 0.000, 0.000, 0.000, 15:26:23.994
241, 27161.01, 28106.94, -187500.02, -187500.02, -187500.02, -187500.02, -94540.23, -187500.02, 0.000, 0.000, 0.000, 15:26:23.995
242, 26401.72, 29478.13, -187500.02, -187500.02, -187500.02, -187500.02, -94227.71, -187500.02, 0.000, 0.000, 0.000, 15:26:23.995
243, 26186.72, 26624.19, -187500.02, -187500.02, -187500.02, -187500.02, -94635.07, -187500.02, 0.000, 0.000, 0.000, 15:26:23.995
244, 26997.06, 25465.52, -187500.02, -187500.02, -187500.02, -187500.02, -94896.54, -187500.02, 0.000, 0.000, 0.000, 15:26:23.995
245, 27340.43, 26582.71, -187500.02, -187500.02, -187500.02, -187500.02, -94771.88, -187500.02, 0.006, -0.014, 1.026, 15:26:23.995
246, 27159.60, 28104.03, -187500.02, -187500.02, -187500.02, -187500.02, -94516.47, -187500.02, 0.000, 0.000, 0.000, 15:26:23.995
247, 26404.18, 29492.32, -187500.02, -187500.02, -187500.02, -187500.02, -94202.48, -187500.02, 0.000, 0.000, 0.000, 15:26:23.996
248, 26181.22, 26641.11, -187500.02, -187500.02, -187500.02, -187500.02, -94595.20, -187500.02, 0.000, 0.000, 0.000, 15:26:23.996
249, 26992.44, 25465.39, -187500.02, -187500.02, -187500.02, -187500.02, -94854.34, -187500.02, 0.000, 0.000, 0.000, 15:26:23.996
250, 27356.75, 26595.36, -187500.02, -187500.02, -187500.02, -187500.02, -94831.97, -187500.02, 0.000, 0.000, 0.000, 15:26:23.996
251, 27165.04, 28082.93, -187500.02, -187500.02, -187500.02, -187500.02, -94569.53, -187500.02, 0.000, 0.000, 0.000, 15:26:23.996
252, 26399.44, 29474.08, -187500.02, -187500.02, -187500.02, -187500.02, -94228.00, -187500.02, 0.000, 0.000, 0.000, 15:26:23.997
253, 26161.33, 26633.02, -187500.02, -187500.02, -187500.02, -187500.02, -94588.22, -187500.02, 0.000, 0.000, 0.000, 15:26:23.997
254, 26980.57, 25438.92, -187500.02, -187500.02, -187500.02, -187500.02, -94824.75, -187500.02, 0.000, 0.000, 0.000, 15:26:23.997
255, 27348.45, 26569.61, -187500.02, -187500.02, -187500.02, -187500.02, -94717.39, -187500.02, 0.012, -0.014, 1.024, 15:26:23.997
0, 27176.32, 28075.38, -187500.02, -187500.02, -187500.02, -187500.02, -94472.44, -187500.02, 0.000, 0.000, 0.000, 15:26:23.997
1, 26422.85, 29498.58, -187500.02, -187500.02, -187500.02, -187500.02, -94171.98, -187500.02, 0.000, 0.000, 0.000, 15:26:23.997
2, 26192.67, 26680.03, -187500.02, -187500.02, -187500.02, -187500.02, -94579.75, -187500.02, 0.000, 0.000, 0.000, 15:26:23.998
3, 27011.34, 25462.46, -187500.02, -187500.02, -187500.02, -187500.02, -94848.22, -187500.02, 0.000, 0.000, 0.000, 15:26:23.998
4, 27375.72, 26592.63, -187500.02, -187500.02, -187500.02, -187500.02, -94810.28, -187500.02, 0.000, 0.000, 0.000, 15:26:23.998
5, 27194.41, 28086.82, -187500.02, -187500.02, -187500.02, -187500.02, -94589.61, -187500.02, 0.000, 0.000, 0.000, 15:26:23.998
6, 26441.58, 29516.91, -187500.02, -187500.02, -187500.02, -187500.02, -94291.81, -187500.02, 0.000, 0.000, 0.000, 15:26:23.998
7, 26197.99, 26712.03, -187500.02, -187500.02, -187500.02, -187500.02, -94702.33, -187500.02, 0.000, 0.000, 0.000, 15:26:23.998
8, 27002.56, 25463.84, -187500.02, -187500.02, -187500.02, -187500.02, -94976.72, -187500.02, 0.004, -0.012, 1.028, 15:26:23.998
9, 27359.56, 26569.25, -187500.02, -187500.02, -187500.02, -187500.02, -94866.55, -187500.02, 0.000, 0.000, 0.000, 15:26:23.998
10, 27183.21, 28047.68, -187500.02, -187500.02, -187500.02, -187500.02, -94623.00, -187500.02, 0.000, 0.000, 0.000, 15:26:23.999
11, 26414.35, 29484.77, -187500.02, -187500.02, -187500.02, -187500.02, -94283.41, -187500.02, 0.000, 0.000, 0.000, 15:26:23.999
12, 26155.21, 26691.83, -187500.02, -187500.02, -187500.02, -187500.02, -94641.62, -187500.02, 0.000, 0.000, 0.000, 15:26:23.999
13, 26969.55, 25437.58, -187500.02, -187500.02, -187500.02, -187500.02, -94900.16, -187500.02, 0.000, 0.000, 0.000, 15:26:23.999
14, 27348.43, 26562.34, -187500.02, -187500.02, -187500.02, -187500.02, -94839.55, -187500.02, 0.000, 0.000, 0.000, 15:26:23.999
15, 27162.31, 28020.50, -187500.02, -187500.02, -187500.02, -187500.02, -94557.38, -187500.02, 0.000, 0.000, 0.000, 15:26:23.999
16, 26410.02, 29480.92, -187500.02, -187500.02, -187500.02, -187500.02, -94208.33, -187500.02, 0.000, 0.000, 0.000, 15:26:23.999
17, 26156.39, 26716.55, -187500.02, -187500.02, -187500.02, -187500.02, -94598.50, -187500.02, 0.000, 0.000, 0.000, 15:26:23.999
18, 26978.13, 25448.73, -187500.02, -187500.02, -187500.02, -187500.02, -94922.24, -187500.02, 0.002, -0.014, 1.024, 15:26:23.999
19, 27349.33, 26557.00, -187500.02, -187500.02, -187500.02, -187500.02, -94862.23, -187500.02, 0.000, 0.000, 0.000, 15:26:24.000
20, 27169.86, 28010.62, -187500.02, -187500.02, -187500.02, -187500.02, -94596.60, -187500.02, 0.000, 0.000, 0.000, 15:26:24.000
21, 26416.43, 29480.81, -187500.02, -187500.02, -187500.02, -187500.02, -94255.09, -187500.02, 0.000, 0.000, 0.000, 15:26:24.000
22, 26143.94, 26721.93, -187500.02, -187500.02, -187500.02, -187500.02, -94604.11, -187500.02, 0.000, 0.000, 0.000, 15:26:24.000
23, 26956.02, 25428.04, -187500.02, -187500.02, -187500.02, -187500.02, -94888.45, -187500.02, 0.000, 0.000, 0.000, 15:26:24.000
24, 27342.62, 26550.81, -187500.02, -187500.02, -187500.02, -187500.02, -94791.04, -187500.02, 0.000, 0.000, 0.000, 15:26:24.002
25, 27182.29, 28011.23, -187500.02, -187500.02, -187500.02, -187500.02, -94547.59, -187500.02, 0.000, 0.000, 0.000, 15:26:24.002
26, 26444.37, 29503.38, -187500.02, -187500.02, -187500.02, -187500.02, -94227.22, -187500.02, 0.000, 0.000, 0.000, 15:26:24.002
27, 26181.94, 26764.94, -187500.02, -187500.02, -187500.02, -187500.02, -94606.57, -187500.02, 0.000, 0.000, 0.000, 15:26:24.002
28, 26992.66, 25453.41, -187500.02, -187500.02, -187500.02, -187500.02, -94910.80, -187500.02, 0.002, -0.010, 1.028, 15:26:24.002
29, 27360.23, 26563.35, -187500.02, -187500.02, -187500.02, -187500.02, -94847.19, -187500.02, 0.000, 0.000, 0.000, 15:26:24.002
30, 27197.36, 28013.62, -187500.02, -187500.02, -187500.02, -187500.02, -94614.77, -187500.02, 0.000, 0.000, 0.000, 15:26:24.002
31, 26455.88, 29526.05, -187500.02, -187500.02, -187500.02, -187500.02, -94285.04, -187500.02, 0.000, 0.000, 0.000, 15:26:24.003
32, 26162.72, 26785.35, -187500.02, -187500.02, -187500.02, -187500.02, -94651.84, -187500.02, 0.000, 0.000, 0.000, 15:26:24.003
33, 26959.80, 25429.89, -187500.02, -187500.02, -187500.02, -187500.02, -94951.98, -187500.02, 0.000, 0.000, 0.000, 15:26:24.003
34, 27338.64, 26527.36, -187500.02, -187500.02, -187500.02, -187500.02, -94867.70, -187500.02, 0.000, 0.000, 0.000, 15:26:24.003
35, 27177.33, 27969.03, -187500.02, -187500.02, -187500.02, -187500.02, -94646.27, -187500.02, 0.000, 0.000, 0.000, 15:26:24.003
36, 26418.93, 29483.02, -187500.02, -187500.02, -187500.02, -187500.02, -94278.23, -187500.02, 0.000, 0.000, 0.000, 15:26:24.003
37, 26124.74, 26769.34, -187500.02, -187500.02, -187500.02, -187500.02, -94604.16, -187500.02, 0.000, 0.000, 0.000, 15:26:24.003
38, 26931.64, 25403.45, -187500.02, -187500.02, -187500.02, -187500.02, -94901.03, -187500.02, 0.004, -0.004, 1.024, 15:26:24.003
39, 27316.04, 26502.15, -187500.02, -187500.02, -187500.02, -187500.02, -94803.49, -187500.02, 0.000, 0.000, 0.000, 15:26:24.003
40, 27159.16, 27941.94, -187500.02, -187500.02, -187500.02, -187500.02, -94590.99, -187500.02, 0.000, 0.000, 0.000, 15:26:24.004
41, 26419.29, 29482.02, -187500.02, -187500.02, -187500.02, -187500.02, -94237.66, -187500.02, 0.000, 0.000, 0.000, 15:26:24.004
42, 26135.22, 26799.21, -187500.02, -187500.02, -187500.02, -187500.02, -94608.25, -187500.02, 0.000, 0.000, 0.000, 15:26:24.004
43, 26947.51, 25417.46, -187500.02, -187500.02, -187500.02, -187500.02, -94913.41, -187500.02, 0.000, 0.000, 0.000, 15:26:24.004
44, 27355.27, 26533.08, -187500.02, -187500.02, -187500.02, -187500.02, -94862.74, -187500.02, 0.000, 0.000, 0.000, 15:26:24.004
45, 27199.12, 27962.10, -187500.02, -187500.02, -187500.02, -187500.02, -94651.61, -187500.02, 0.000, 0.000, 0.000, 15:26:24.004
46, 26456.78, 29520.82, -187500.02, -187500.02, -187500.02, -187500.02, -94309.65, -187500.02, 0.000, 0.000, 0.000, 15:26:24.004
47, 26155.88, 26841.85, -187500.02, -187500.02, -187500.02, -187500.02, -94674.52, -187500.02, 0.000, 0.000, 0.000, 15:26:24.004
48, 26950.23, 25416.23, -187500.02, -187500.02, -187500.02, -187500.02, -94961.25, -187500.02, 0.008, -0.012, 1.024, 15:26:24.005
49, 27341.32, 26517.19, -187500.02, -187500.02, -187500.02, -187500.02, -94844.39, -187500.02, 0.000, 0.000, 0.000, 15:26:24.005
50, 27199.72, 27954.19, -187500.02, -187500.02, -187500.02, -187500.02, -94621.44, -187500.02, 0.000, 0.000, 0.000, 15:26:24.005
51, 26469.34, 29533.56, -187500.02, -187500.02, -187500.02, -187500.02, -94280.23, -187500.02, 0.000, 0.000, 0.000, 15:26:24.005
52, 26159.50, 26864.65, -187500.02, -187500.02, -187500.02, -187500.02, -94611.27, -187500.02, 0.000, 0.000, 0.000, 15:26:24.005
53, 26956.00, 25422.63, -187500.02, -187500.02, -187500.02, -187500.02, -94909.73, -187500.02, 0.000, 0.000, 0.000, 15:26:24.005
54, 27363.88, 26527.81, -187500.02, -187500.02, -187500.02, -187500.02, -94838.80, -187500.02, 0.000, 0.000, 0.000, 15:26:24.005
55, 27220.82, 27950.74, -187500.02, -187500.02, -187500.02, -187500.02, -94643.38, -187500.02, 0.000, 0.000, 0.000, 15:26:24.005
56, 26473.92, 29529.43, -187500.02, -187500.02, -187500.02, -187500.02, -94296.66, -187500.02, 0.000, 0.000, 0.000, 15:26:24.006
57, 26137.88, 26867.18, -187500.02, -187500.02, -187500.02, -187500.02, -94630.80, -187500.02, 0.000, 0.000, 0.000, 15:26:24.006
58, 26923.93, 25396.03, -187500.02, -187500.02, -187500.02, -187500.02, -94898.53, -187500.02, 0.010, -0.012, 1.018, 15:26:24.006
59, 27332.29, 26496.38, -187500.02, -187500.02, -187500.02, -187500.02, -94800.65, -187500.02, 0.000, 0.000, 0.000, 15:26:24.006
60, 27187.95, 27907.36, -187500.02, -187500.02, -187500.02, -187500.02, -94577.98, -187500.02, 0.000, 0.000, 0.000, 15:26:24.006
61, 26454.34, 29513.55, -187500.02, -187500.02, -187500.02, -187500.02, -94210.90, -187500.02, 0.000, 0.000, 0.000, 15:26:24.006
62, 26126.53, 26883.36, -187500.02, -187500.02, -187500.02, -187500.02, -94546.52, -187500.02, 0.000, 0.000, 0.000, 15:26:24.007
63, 26920.06, 25396.14, -187500.02, -187500.02, -187500.02, -187500.02, -94861.91, -187500.02, 0.000, 0.000, 0.000, 15:26:24.007
64, 27341.30, 26497.81, -187500.02, -187500.02, -187500.02, -187500.02, -94831.85, -187500.02, 0.000, 0.000, 0.000, 15:26:24.007
65, 27203.99, 27906.22, -187500.02, -187500.02, -187500.02, -187500.02, -94654.52, -187500.02, 0.000, 0.000, 0.000, 15:26:24.007
66, 26464.33, 29512.66, -187500.02, -187500.02, -187500.02, -187500.02, -94286.20, -187500.02, 0.000, 0.000, 0.000, 15:26:24.007
67, 26124.34, 26889.21, -187500.02, -187500.02, -187500.02, -187500.02, -94643.14, -187500.02, 0.000, 0.000, 0.000, 15:26:24.007
68, 26909.11, 25378.55, -187500.02, -187500.02, -187500.02, -187500.02, -94965.09, -187500.02, 0.008, -0.014, 1.018, 15:26:24.008
69, 27333.79, 26484.38, -187500.02, -187500.02, -187500.02, -187500.02, -94885.72, -187500.02, 0.000, 0.000, 0.000, 15:26:24.008
70, 27183.72, 27870.14, -187500.02, -187500.02, -187500.02, -187500.02, -94610.95, -187500.02, 0.000, 0.000, 0.000, 15:26:24.008
71, 26467.10, 29507.16, -187500.02, -187500.02, -187500.02, -187500.02, -94222.41, -187500.02, 0.000, 0.000, 0.000, 15:26:24.008
72, 26139.72, 26928.11, -187500.02, -187500.02, -187500.02, -187500.02, -94574.16, -187500.02, 0.000, 0.000, 0.000, 15:26:24.008
73, 26934.54, 25412.14, -187500.02, -187500.02, -187500.02, -187500.02, -94891.35, -187500.02, 0.000, 0.000, 0.000, 15:26:24.009
74, 27363.99, 26516.19, -187500.02, -187500.02, -187500.02, -187500.02, -94837.33, -187500.02, 0.000, 0.000, 0.000, 15:26:24.009
75, 27227.51, 27904.14, -187500.02, -187500.02, -187500.02, -187500.02, -94624.32, -187500.02, 0.000, 0.000, 0.000, 15:26:24.009
76, 26498.37, 29537.11, -187500.02, -187500.02, -187500.02, -187500.02, -94232.31, -187500.02, 0.000, 0.000, 0.000, 15:26:24.009
77, 26157.11, 26973.21, -187500.02, -187500.02, -187500.02, -187500.02, -94597.52, -187500.02, 0.000, 0.000, 0.000, 15:26:24.009
78, 26931.97, 25417.80, -187500.02, -187500.02, -187500.02, -187500.02, -94903.02, -187500.02, -0.002, -0.012, 1.022, 15:26:24.009
79, 27362.65, 26509.19, -187500.02, -187500.02, -187500.02, -187500.02, -94833.64, -187500.02, 0.000, 0.000, 0.000, 15:26:24.010
80, 27228.98, 27886.13, -187500.02, -187500.02, -187500.02, -187500.02, -94638.22, -187500.02, 0.000, 0.000, 0.000, 15:26:24.010
81, 26500.63, 29526.70, -187500.02, -187500.02, -187500.02, -187500.02, -94242.44, -187500.02, 0.000, 0.000, 0.000, 15:26:24.010
82, 26146.80, 26983.43, -187500.02, -187500.02, -187500.02, -187500.02, -94554.34, -187500.02, 0.000, 0.000, 0.000, 15:26:24.010
83, 26931.79, 25420.64, -187500.02, -187500.02, -187500.02, -187500.02, -94884.20, -187500.02, 0.000, 0.000, 0.000, 15:26:24.010
84, 27363.52, 26503.89, -187500.02, -187500.02, -187500.02, -187500.02, -94837.73, -187500.02, 0.000, 0.000, 0.000, 15:26:24.010
85, 27231.29, 27872.20, -187500.02, -187500.02, -187500.02, -187500.02, -94636.05, -187500.02, 0.000, 0.000, 0.000, 15:26:24.010
86, 26511.45, 29528.38, -187500.02, -187500.02, -187500.02, -187500.02, -94263.96, -187500.02, 0.000, 0.000, 0.000, 15:26:24.011
87, 26142.51, 26998.60, -187500.02, -187500.02, -187500.02, -187500.02, -94574.05, -187500.02, 0.000, 0.000, 0.000, 15:26:24.011
88, 26909.09, 25407.50, -187500.02, -187500.02, -187500.02, -187500.02, -94899.58, -187500.02, 0.000, -0.012, 1.028, 15:26:24.011
89, 27334.62, 26479.37, -187500.02, -187500.02, -187500.02, -187500.02, -94839.03, -187500.02, 0.000, 0.000, 0.000, 15:26:24.011
90, 27205.34, 27832.82, -187500.02, -187500.02, -187500.02, -187500.02, -94597.32, -187500.02, 0.000, 0.000, 0.000, 15:26:24.011
91, 26504.65, 29510.52, -187500.02, -187500.02, -187500.02, -187500.02, -94213.90, -187500.02, 0.000, 0.000, 0.000, 15:26:24.011
92, 26126.08, 27007.48, -187500.02, -187500.02, -187500.02, -187500.02, -94529.73, -187500.02, 0.000, 0.000, 0.000, 15:26:24.012
93, 26896.46, 25403.47, -187500.02, -187500.02, -187500.02, -187500.02, -94869.77, -187500.02, 0.000, 0.000, 0.000, 15:26:24.012
94, 27345.99, 26488.58, -187500.02, -187500.02, -187500.02, -187500.02, -94803.02, -187500.02, 0.000, 0.000, 0.000, 15:26:24.012
95, 27226.46, 27844.08, -187500.02, -187500.02, -187500.02, -187500.02, -94583.21, -187500.02, 0.000, 0.000, 0.000, 15:26:24.012
96, 26521.44, 29536.73, -187500.02, -187500.02, -187500.02, -187500.02, -94253.66, -187500.02, 0.000, 0.000, 0.000, 15:26:24.012
97, 26137.06, 27053.63, -187500.02, -187500.02, -187500.02, -187500.02, -94573.38, -187500.02, 0.000, 0.000, 0.000, 15:26:24.012
98, 26911.70, 25418.36, -187500.02, -187500.02, -187500.02, -187500.02, -94904.97, -187500.02, 0.004, -0.014, 1.020, 15:26:24.013
99, 27359.52, 26483.58, -187500.02, -187500.02, -187500.02, -187500.02, -94836.46, -187500.02, 0.000, 0.000, 0.000, 15:26:24.013
100, 27225.41, 27817.97, -187500.02, -187500.02, -187500.02, -187500.02, -94619.22, -187500.02, 0.000, 0.000, 0.000, 15:26:24.013
101, 26493.23, 29504.10, -187500.02, -187500.02, -187500.02, -187500.02, -94246.04, -187500.02, 0.000, 0.000, 0.000, 15:26:24.013
102, 26121.63, 27057.30, -187500.02, -187500.02, -187500.02, -187500.02, -94571.97, -187500.02, 0.000, 0.000, 0.000, 15:26:24.013
103, 26909.02, 25419.59, -187500.02, -187500.02, -187500.02, -187500.02, -94922.96, -187500.02, 0.000, 0.000, 0.000, 15:26:24.013
104, 27342.42, 26475.71, -187500.02, -187500.02, -187500.02, -187500.02, -94833.04, -187500.02, 0.000, 0.000, 0.000, 15:26:24.473
105, 27209.56, 27802.64, -187500.02, -187500.02, -187500.02, -187500.02, -94605.84, -187500.02, 0.000, 0.000, 0.000, 15:26:24.473
106, 26482.26, 29502.02, -187500.02, -187500.02, -187500.02, -187500.02, -94269.57, -187500.02, 0.000, 0.000, 0.000, 15:26:24.473
107, 26099.88, 27069.59, -187500.02, -187500.02, -187500.02, -187500.02, -94599.33, -187500.02, 0.000, 0.000, 0.000, 15:26:24.473
108, 26886.31, 25401.82, -187500.02, -187500.02, -187500.02, -187500.02, -94897.30, -187500.02, 0.008, -0.014, 1.028, 15:26:24.474
109, 27339.27, 26463.17, -187500.02, -187500.02, -187500.02, -187500.02, -94813.44, -187500.02, 0.000, 0.000, 0.000, 15:26:24.474
110, 27202.05, 27783.20, -187500.02, -187500.02, -187500.02, -187500.02, -94595.58, -187500.02, 0.000, 0.000, 0.000, 15:26:24.474
111, 26480.67, 29494.33, -187500.02, -187500.02, -187500.02, -187500.02, -94204.55, -187500.02, 0.000, 0.000, 0.000, 15:26:24.474
112, 26098.54, 27091.59, -187500.02, -187500.02, -187500.02, -187500.02, -94559.09, -187500.02, 0.000, 0.000, 0.000, 15:26:24.474
113, 26881.64, 25405.13, -187500.02, -187500.02, -187500.02, -187500.02, -94911.74, -187500.02, 0.000, 0.000, 0.000, 15:26:24.474
114, 27335.33, 26459.77, -187500.02, -187500.02, -187500.02, -187500.02, -94821.51, -187500.02, 0.000, 0.000, 0.000, 15:26:24.474
115, 27200.73, 27777.09, -187500.02, -187500.02, -187500.02, -187500.02, -94612.70, -187500.02, 0.000, 0.000, 0.000, 15:26:24.474
116, 26484.98, 29500.39, -187500.02, -187500.02, -187500.02, -187500.02, -94247.45, -187500.02, 0.000, 0.000, 0.000, 15:26:24.474
117, 26094.54, 27107.64, -187500.02, -187500.02, -187500.02, -187500.02, -94558.65, -187500.02, 0.000, 0.000, 0.000, 15:26:24.475
118, 26874.64, 25402.18, -187500.02, -187500.02, -187500.02, -187500.02, -94877.77, -187500.02, 0.004, -0.014, 1.026, 15:26:24.475
119, 27336.92, 26462.10, -187500.02, -187500.02, -187500.02, -187500.02, -94826.71, -187500.02, 0.000, 0.000, 0.000, 15:26:24.475
120, 27215.46, 27772.11, -187500.02, -187500.02, -187500.02, -187500.02, -94618.38, -187500.02, 0.000, 0.000, 0.000, 15:26:24.475
121, 26502.84, 29511.52, -187500.02, -187500.02, -187500.02, -187500.02, -94255.20, -187500.02, 0.000, 0.000, 0.000, 15:26:24.475
122, 26098.37, 27127.82, -187500.02, -187500.02, -187500.02, -187500.02, -94563.09, -187500.02, 0.000, 0.000, 0.000, 15:26:24.475
123, 26877.17, 25396.54, -187500.02, -187500.02, -187500.02, -187500.02, -94897.62, -187500.02, 0.000, 0.000, 0.000, 15:26:24.475
124, 27335.42, 26445.29, -187500.02, -187500.02, -187500.02, -187500.02, -94829.22, -187500.02, 0.000, 0.000, 0.000, 15:26:24.476
125, 27206.95, 27742.34, -187500.02, -187500.02, -187500.02, -187500.02, -94587.82, -187500.02, 0.000, 0.000, 0.000, 15:26:24.476
126, 26504.83, 29497.44, -187500.02, -187500.02, -187500.02, -187500.02, -94200.62, -187500.02, 0.000, 0.000, 0.000, 15:26:24.476
127, 26105.41, 27149.63, -187500.02, -187500.02, -187500.02, -187500.02, -94521.77, -187500.02, -0.002, -0.010, 1.030, 15:26:24.476
128, 26876.88, 25394.75, -187500.02, -187500.02, -187500.02, -187500.02, -94872.63, -187500.02, 0.000, 0.000, 0.000, 15:26:24.476
129, 27348.72, 26443.52, -187500.02, -187500.02, -187500.02, -187500.02, -94816.19, -187500.02, 0.000, 0.000, 0.000, 15:26:24.476
130, 27232.02, 27746.96, -187500.02, -187500.02, -187500.02, -187500.02, -94597.09, -187500.02, 0.000, 0.000, 0.000, 15:26:24.476
131, 26537.80, 29521.69, -187500.02, -187500.02, -187500.02, -187500.02, -94258.89, -187500.02, 0.000, 0.000, 0.000, 15:26:24.476
132, 26117.81, 27182.49, -187500.02, -187500.02, -187500.02, -187500.02, -94593.61, -187500.02, 0.000, 0.000, 0.000, 15:26:24.477
133, 26866.75, 25392.12, -187500.02, -187500.02, -187500.02, -187500.02, -94952.15, -187500.02, 0.000, 0.000, 0.000, 15:26:24.477
134, 27333.28, 26433.17, -187500.02, -187500.02, -187500.02, -187500.02, -94880.60, -187500.02, 0.000, 0.000, 0.000, 15:26:24.477
135, 27223.28, 27732.97, -187500.02, -187500.02, -187500.02, -187500.02, -94671.80, -187500.02, 0.000, 0.000, 0.000, 15:26:24.477
136, 26535.23, 29515.88, -187500.02, -187500.02, -187500.02, -187500.02, -94305.43, -187500.02, 0.000, 0.000, 0.000, 15:26:24.477
137, 26098.25, 27187.86, -187500.02, -187500.02, -187500.02, -187500.02, -94589.30, -187500.02, 0.002, -0.016, 1.030, 15:26:24.478
138, 26852.09, 25384.47, -187500.02, -187500.02, -187500.02, -187500.02, -94932.26, -187500.02, 0.000, 0.000, 0.000, 15:26:24.478
139, 27334.80, 26427.43, -187500.02, -187500.02, -187500.02, -187500.02, -94884.13, -187500.02, 0.000, 0.000, 0.000, 15:26:24.478
140, 27223.98, 27711.22, -187500.02, -187500.02, -187500.02, -187500.02, -94666.88, -187500.02, 0.000, 0.000, 0.000, 15:26:24.478
141, 26544.62, 29506.45, -187500.02, -187500.02, -187500.02, -187500.02, -94265.66, -187500.02, 0.000, 0.000, 0.000, 15:26:24.478
142, 26111.55, 27211.55, -187500.02, -187500.02, -187500.02, -187500.02, -94577.98, -187500.02, 0.000, 0.000, 0.000, 15:26:24.478
143, 26851.80, 25380.07, -187500.02, -187500.02, -187500.02, -187500.02, -94893.97, -187500.02, 0.000, 0.000, 0.000, 15:26:24.478
144, 27351.02, 26435.21, -187500.02, -187500.02, -187500.02, -187500.02, -94859.44, -187500.02, 0.000, 0.000, 0.000, 15:26:24.478
145, 27248.63, 27724.68, -187500.02, -187500.02, -187500.02, -187500.02, -94693.25, -187500.02, 0.000, 0.000, 0.000, 15:26:24.479
146, 26564.29, 29520.69, -187500.02, -187500.02, -187500.02, -187500.02, -94307.86, -187500.02, 0.000, 0.000, 0.000, 15:26:24.479
147, 26119.98, 27232.72, -187500.02, -187500.02, -187500.02, -187500.02, -94598.91, -187500.02, 0.000, -0.020, 1.032, 15:26:24.479
148, 26850.46, 25376.67, -187500.02, -187500.02, -187500.02, -187500.02, -94938.07, -187500.02, 0.000, 0.000, 0.000, 15:26:24.479
149, 27321.50, 26403.47, -187500.02, -187500.02, -187500.02, -187500.02, -94879.82, -187500.02, 0.000, 0.000, 0.000, 15:26:24.479
150, 27223.06, 27683.89, -187500.02, -187500.02, -187500.02, -187500.02, -94659.52, -187500.02, 0.000, 0.000, 0.000, 15:26:24.479
151, 26572.67, 29522.25, -187500.02, -187500.02, -187500.02, -187500.02, -94287.01, -187500.02, 0.000, 0.000, 0.000, 15:26:24.479
152, 26126.37, 27259.02, -187500.02, -187500.02, -187500.02, -187500.02, -94582.79, -187500.02, 0.000, 0.000, 0.000, 15:26:24.479
153, 26852.92, 25370.62, -187500.02, -187500.02, -187500.02, -187500.02, -94930.78, -187500.02, 0.000, 0.000, 0.000, 15:26:24.480
154, 27343.02, 26400.74, -187500.02, -187500.02, -187500.02, -187500.02, -94884.65, -187500.02, 0.000, 0.000, 0.000, 15:26:24.480
155, 27245.50, 27679.33, -187500.02, -187500.02, -187500.02, -187500.02, -94672.48, -187500.02, 0.000, 0.000, 0.000, 15:26:24.480
156, 26577.97, 29514.79, -187500.02, -187500.02, -187500.02, -187500.02, -94279.23, -187500.02, 0.000, 0.000, 0.000, 15:26:24.480
157, 26119.98, 27269.33, -187500.02, -187500.02, -187500.02, -187500.02, -94592.94, -187500.02, 0.004, -0.018, 1.030, 15:26:24.480
158, 26839.82, 25354.43, -187500.02, -187500.02, -187500.02, -187500.02, -94938.23, -187500.02, 0.000, 0.000, 0.000, 15:26:24.480
159, 27341.39, 26388.07, -187500.02, -187500.02, -187500.02, -187500.02, -94904.52, -187500.02, 0.000, 0.000, 0.000, 15:26:24.481
160, 27247.18, 27672.49, -187500.02, -187500.02, -187500.02, -187500.02, -94728.70, -187500.02, 0.000, 0.000, 0.000, 15:26:24.481
161, 26584.20, 29525.13, -187500.02, -187500.02, -187500.02, -187500.02, -94319.71, -187500.02, 0.000, 0.000, 0.000, 15:26:24.481
162, 26131.85, 27305.81, -187500.02, -187500.02, -187500.02, -187500.02, -94604.00, -187500.02, 0.000, 0.000, 0.000, 15:26:24.481
163, 26857.88, 25376.76, -187500.02, -187500.02, -187500.02, -187500.02, -94971.71, -187500.02, 0.000, 0.000, 0.000, 15:26:24.481
164, 27353.42, 26396.54, -187500.02, -187500.02, -187500.02, -187500.02, -94912.08, -187500.02, 0.000, 0.000, 0.000, 15:26:24.481
165, 27259.87, 27665.27, -187500.02, -187500.02, -187500.02, -187500.02, -94689.41, -187500.02, 0.000, 0.000, 0.000, 15:26:24.482
166, 26606.89, 29534.37, -187500.02, -187500.02, -187500.02, -187500.02, -94312.38, -187500.02, 0.000, 0.000, 0.000, 15:26:24.482
167, 26126.71, 27317.72, -187500.02, -187500.02, -187500.02, -187500.02, -94588.53, -187500.02, 0.008, -0.018, 1.024, 15:26:24.482
168, 26845.88, 25361.65, -187500.02, -187500.02, -187500.02, -187500.02, -94945.00, -187500.02, 0.000, 0.000, 0.000, 15:26:24.482
169, 27353.53, 26387.08, -187500.02, -187500.02, -187500.02, -187500.02, -94895.94, -187500.02, 0.000, 0.000, 0.000, 15:26:24.482
170, 27256.43, 27651.14, -187500.02, -187500.02, -187500.02, -187500.02, -94693.03, -187500.02, 0.000, 0.000, 0.000, 15:26:24.482
171, 26598.33, 29524.33, -187500.02, -187500.02, -187500.02, -187500.02, -94289.73, -187500.02, 0.000, 0.000, 0.000, 15:26:24.483
172, 26117.19, 27334.19, -187500.02, -187500.02, -187500.02, -187500.02, -94562.36, -187500.02, 0.000, 0.000, 0.000, 15:26:24.483
173, 26835.75, 25361.03, -187500.02, -187500.02, -187500.02, -187500.02, -94925.24, -187500.02, 0.000, 0.000, 0.000, 15:26:24.483
174, 27346.15, 26382.01, -187500.02, -187500.02, -187500.02, -187500.02, -94887.51, -187500.02, 0.000, 0.000, 0.000, 15:26:24.483
175, 27255.29, 27644.57, -187500.02, -187500.02, -187500.02, -187500.02, -94696.27, -187500.02, 0.000, 0.000, 0.000, 15:26:24.483
176, 26603.83, 29531.50, -187500.02, -187500.02, -187500.02, -187500.02, -94322.77, -187500.02, 0.000, 0.000, 0.000, 15:26:24.483
177, 26130.39, 27372.04, -187500.02, -187500.02, -187500.02, -187500.02, -94630.06, -187500.02, 0.008, -0.014, 1.030, 15:26:24.484
178, 26844.87, 25372.87, -187500.02, -187500.02, -187500.02, -187500.02, -95012.14, -187500.02, 0.000, 0.000, 0.000, 15:26:24.484
179, 27339.36, 26365.07, -187500.02, -187500.02, -187500.02, -187500.02, -94923.52, -187500.02, 0.000, 0.000, 0.000, 15:26:24.484
180, 27252.65, 27621.70, -187500.02, -187500.02, -187500.02, -187500.02, -94709.70, -187500.02, 0.000, 0.000, 0.000, 15:26:24.484
181, 26596.76, 29512.73, -187500.02, -187500.02, -187500.02, -187500.02, -94290.79, -187500.02, 0.000, 0.000, 0.000, 15:26:24.484
182, 26115.51, 27375.32, -187500.02, -187500.02, -187500.02, -187500.02, -94561.53, -187500.02, 0.000, 0.000, 0.000, 15:26:24.484
183, 26837.69, 25366.97, -187500.02, -187500.02, -187500.02, -187500.02, -94954.27, -187500.02, 0.000, 0.000, 0.000, 15:26:24.485
184, 27353.73, 26369.98, -187500.02, -187500.02, -187500.02, -187500.02, -94904.25, -187500.02, 0.000, 0.000, 0.000, 15:26:24.485
185, 27266.76, 27611.53, -187500.02, -187500.02, -187500.02, -187500.02, -94675.59, -187500.02, 0.000, 0.000, 0.000, 15:26:24.485
186, 26620.44, 29516.91, -187500.02, -187500.02, -187500.02, -187500.02, -94266.96, -187500.02, 0.000, 0.000, 0.000, 15:26:24.485
187, 26137.53, 27414.03, -187500.02, -187500.02, -187500.02, -187500.02, -94569.87, -187500.02, 0.004, -0.016, 1.024, 15:26:24.485
188, 26839.44, 25373.95, -187500.02, -187500.02, -187500.02, -187500.02, -94929.87, -187500.02, 0.000, 0.000, 0.000, 15:26:24.485
189, 27367.47, 26385.05, -187500.02, -187500.02, -187500.02, -187500.02, -94883.46, -187500.02, 0.000, 0.000, 0.000, 15:26:24.486
190, 27293.47, 27641.11, -187500.02, -187500.02, -187500.02, -187500.02, -94731.88, -187500.02, 0.000, 0.000, 0.000, 15:26:24.486
191, 26635.79, 29535.33, -187500.02, -187500.02, -187500.02, -187500.02, -94344.01, -187500.02, 0.000, 0.000, 0.000, 15:26:24.486
192, 26128.25, 27424.34, -187500.02, -187500.02, -187500.02, -187500.02, -94612.38, -187500.02, 0.000, 0.000, 0.000, 15:26:24.486
193, 26820.68, 25355.37, -187500.02, -187500.02, -187500.02, -187500.02, -94953.63, -187500.02, 0.000, 0.000, 0.000, 15:26:24.486
194, 27343.92, 26352.13, -187500.02, -187500.02, -187500.02, -187500.02, -94908.59, -187500.02, 0.000, 0.000, 0.000, 15:26:24.486
195, 27265.46, 27593.12, -187500.02, -187500.02, -187500.02, -187500.02, -94734.34, -187500.02, 0.000, 0.000, 0.000, 15:26:24.487
196, 26606.06, 29493.17, -187500.02, -187500.02, -187500.02, -187500.02, -94271.23, -187500.02, 0.000, 0.000, 0.000, 15:26:24.487
197, 26112.89, 27434.80, -187500.02, -187500.02, -187500.02, -187500.02, -94531.45, -187500.02, 0.002, -0.020, 1.026, 15:26:24.487
198, 26825.15, 25368.45, -187500.02, -187500.02, -187500.02, -187500.02, -94946.32, -187500.02, 0.000, 0.000, 0.000, 15:26:24.487
199, 27353.30, 26359.86, -187500.02, -187500.02, -187500.02, -187500.02, -94903.63, -187500.02, 0.000, 0.000, 0.000, 15:26:24.487
200, 27277.02, 27596.78, -187500.02, -187500.02, -187500.02, -187500.02, -94752.06, -187500.02, 0.000, 0.000, 0.000, 15:26:24.487
201, 26629.69, 29508.08, -187500.02, -187500.02, -187500.02, -187500.02, -94360.73, -187500.02, 0.000, 0.000, 0.000, 15:26:24.488
202, 26112.54, 27452.68, -187500.02, -187500.02, -187500.02, -187500.02, -94603.89, -187500.02, 0.000, 0.000, 0.000, 15:26:24.488
203, 26800.30, 25351.71, -187500.02, -187500.02, -187500.02, -187500.02, -94976.96, -187500.02, 0.000, 0.000, 0.000, 15:26:24.488
204, 27327.38, 26332.23, -187500.02, -187500.02, -187500.02, -187500.02, -94911.23, -187500.02, 0.000, 0.000, 0.000, 15:26:24.488
205, 27261.71, 27569.91, -187500.02, -187500.02, -187500.02, -187500.02, -94713.14, -187500.02, 0.000, 0.000, 0.000, 15:26:24.488
206, 26641.22, 29506.74, -187500.02, -187500.02, -187500.02, -187500.02, -94321.03, -187500.02, 0.000, 0.000, 0.000, 15:26:24.488
207, 26131.38, 27487.24, -187500.02, -187500.02, -187500.02, -187500.02, -94547.14, -187500.02, 0.008, -0.022, 1.022, 15:26:24.489
208, 26820.53, 25380.40, -187500.02, -187500.02, -187500.02, -187500.02, -94918.87, -187500.02, 0.000, 0.000, 0.000, 15:26:24.489
209, 27370.74, 26373.25, -187500.02, -187500.02, -187500.02, -187500.02, -94906.98, -187500.02, 0.000, 0.000, 0.000, 15:26:24.489
210, 27309.83, 27606.79, -187500.02, -187500.02, -187500.02, -187500.02, -94745.17, -187500.02, 0.000, 0.000, 0.000, 15:26:24.489
211, 26672.34, 29531.15, -187500.02, -187500.02, -187500.02, -187500.02, -94375.55, -187500.02, 0.000, 0.000, 0.000, 15:26:24.489
212, 26125.46, 27504.36, -187500.02, -187500.02, -187500.02, -187500.02, -94615.96, -187500.02, 0.000, 0.000, 0.000, 15:26:24.489
213, 26797.13, 25363.66, -187500.02, -187500.02, -187500.02, -187500.02, -94959.04, -187500.02, 0.000, 0.000, 0.000, 15:26:24.490
214, 27339.78, 26336.86, -187500.02, -187500.02, -187500.02, -187500.02, -94892.34, -187500.02, 0.000, 0.000, 0.000, 15:26:24.490
215, 27276.32, 27555.86, -187500.02, -187500.02, -187500.02, -187500.02, -94713.59, -187500.02, 0.000, 0.000, 0.000, 15:26:24.490
216, 26642.07, 29485.97, -187500.02, -187500.02, -187500.02, -187500.02, -94284.62, -187500.02, 0.000, 0.000, 0.000, 15:26:24.490
217, 26116.43, 27516.85, -187500.02, -187500.02, -187500.02, -187500.02, -94505.43, -187500.02, 0.004, -0.018, 1.024, 15:26:24.490
218, 26808.77, 25381.79, -187500.02, -187500.02, -187500.02, -187500.02, -94917.55, -187500.02, 0.000, 0.000, 0.000, 15:26:24.490
219, 27355.43, 26346.25, -187500.02, -187500.02, -187500.02, -187500.02, -94897.77, -187500.02, 0.000, 0.000, 0.000, 15:26:24.491
220, 27286.92, 27551.68, -187500.02, -187500.02, -187500.02, -187500.02, -94732.45, -187500.02, 0.000, 0.000, 0.000, 15:26:24.491
221, 26661.58, 29491.63, -187500.02, -187500.02, -187500.02, -187500.02, -94314.88, -187500.02, 0.000, 0.000, 0.000, 15:26:24.491
222, 26114.68, 27533.97, -187500.02, -187500.02, -187500.02, -187500.02, -94544.92, -187500.02, 0.000, 0.000, 0.000, 15:26:24.491
223, 26779.20, 25359.48, -187500.02, -187500.02, -187500.02, -187500.02, -94915.74, -187500.02, 0.000, 0.000, 0.000, 15:26:24.491
224, 27324.52, 26310.97, -187500.02, -187500.02, -187500.02, -187500.02, -94835.74, -187500.02, 0.000, 0.000, 0.000, 15:26:24.955
225, 27273.08, 27529.66, -187500.02, -187500.02, -187500.02, -187500.02, -94660.28, -187500.02, 0.000, 0.000, 0.000, 15:26:24.955
226, 26669.38, 29491.92, -187500.02, -187500.02, -187500.02, -187500.02, -94271.88, -187500.02, 0.000, 0.000, 0.000, 15:26:24.956
227, 26125.95, 27566.34, -187500.02, -187500.02, -187500.02, -187500.02, -94491.10, -187500.02, 0.006, -0.016, 1.024, 15:26:24.956
228, 26798.82, 25382.60, -187500.02, -187500.02, -187500.02, -187500.02, -94869.36, -187500.02, 0.000, 0.000, 0.000, 15:26:24.956
229, 27362.38, 26343.85, -187500.02, -187500.02, -187500.02, -187500.02, -94839.84, -187500.02, 0.000, 0.000, 0.000, 15:26:24.956
230, 27309.67, 27557.29, -187500.02, -187500.02, -187500.02, -187500.02, -94685.43, -187500.02, 0.000, 0.000, 0.000, 15:26:24.956
231, 26688.74, 29501.15, -187500.02, -187500.02, -187500.02, -187500.02, -94279.16, -187500.02, 0.000, 0.000, 0.000, 15:26:24.956
232, 26146.29, 27602.57, -187500.02, -187500.02, -187500.02, -187500.02, -94534.30, -187500.02, 0.000, 0.000, 0.000, 15:26:24.957
233, 26806.74, 25394.11, -187500.02, -187500.02, -187500.02, -187500.02, -94925.40, -187500.02, 0.000, 0.000, 0.000, 15:26:24.957
234, 27351.56, 26325.57, -187500.02, -187500.02, -187500.02, -187500.02, -94879.24, -187500.02, 0.000, 0.000, 0.000, 15:26:24.957
235, 27285.96, 27521.43, -187500.02, -187500.02, -187500.02, -187500.02, -94693.07, -187500.02, 0.000, 0.000, 0.000, 15:26:24.957
236, 26664.58, 29477.66, -187500.02, -187500.02, -187500.02, -187500.02, -94265.38, -187500.02, 0.000, 0.000, 0.000, 15:26:24.957
237, 26116.69, 27605.30, -187500.02, -187500.02, -187500.02, -187500.02, -94479.39, -187500.02, 0.006, -0.016, 1.024, 15:26:24.958
238, 26789.10, 25390.84, -187500.02, -187500.02, -187500.02, -187500.02, -94909.17, -187500.02, 0.000, 0.000, 0.000, 15:26:24.958
239, 27353.15, 26326.76, -187500.02, -187500.02, -187500.02, -187500.02, -94900.43, -187500.02, 0.000, 0.000, 0.000, 15:26:24.958
240, 27289.85, 27510.95, -187500.02, -187500.02, -187500.02, -187500.02, -94719.13, -187500.02, 0.000, 0.000, 0.000, 15:26:24.958
241, 26668.54, 29467.47, -187500.02, -187500.02, -187500.02, -187500.02, -94279.37, -187500.02, 0.000, 0.000, 0.000, 15:26:24.958
242, 26122.88, 27623.04, -187500.02, -187500.02, -187500.02, -187500.02, -94519.49, -187500.02, 0.000, 0.000, 0.000, 15:26:24.958
243, 26793.06, 25391.87, -187500.02, -187500.02, -187500.02, -187500.02, -94960.04, -187500.02, 0.000, 0.000, 0.000, 15:26:24.958
244, 27340.12, 26301.83, -187500.02, -187500.02, -187500.02, -187500.02, -94888.88, -187500.02, 0.000, 0.000, 0.000, 15:26:24.958
245, 27288.55, 27493.92, -187500.02, -187500.02, -187500.02, -187500.02, -94731.07, -187500.02, 0.000, 0.000, 0.000, 15:26:24.959
246, 26674.62, 29460.89, -187500.02, -187500.02, -187500.02, -187500.02, -94318.14, -187500.02, 0.000, -0.020, 1.024, 15:26:24.959
247, 26113.97, 27630.09, -187500.02, -187500.02, -187500.02, -187500.02, -94509.14, -187500.02, 0.000, 0.000, 0.000, 15:26:24.959
248, 26787.74, 25378.46, -187500.02, -187500.02, -187500.02, -187500.02, -94944.71, -187500.02, 0.000, 0.000, 0.000, 15:26:24.959
249, 27365.06, 26300.83, -187500.02, -187500.02, -187500.02, -187500.02, -94929.84, -187500.02, 0.000, 0.000, 0.000, 15:26:24.959
250, 27303.73, 27481.69, -187500.02, -187500.02, -187500.02, -187500.02, -94760.62, -187500.02, 0.000, 0.000, 0.000, 15:26:24.959
251, 26681.01, 29450.81, -187500.02, -187500.02, -187500.02, -187500.02, -94284.28, -187500.02, 0.000, 0.000, 0.000, 15:26:24.959
252, 26126.71, 27659.90, -187500.02, -187500.02, -187500.02, -187500.02, -94502.77, -187500.02, 0.000, 0.000, 0.000, 15:26:24.959
253, 26796.34, 25398.46, -187500.02, -187500.02, -187500.02, -187500.02, -94984.83, -187500.02, 0.000, 0.000, 0.000, 15:26:24.960
254, 27361.28, 26305.54, -187500.02, -187500.02, -187500.02, -187500.02, -94944.15, -187500.02, 0.000, 0.000, 0.000, 15:26:24.960
255, 27311.24, 27485.29, -187500.02, -187500.02, -187500.02, -187500.02, -94785.90, -187500.02, 0.000, 0.000, 0.000, 15:26:24.960
0, 26707.83, 29467.13, -187500.02, -187500.02, -187500.02, -187500.02, -94383.30, -187500.02, 0.000, -0.014, 1.024, 15:26:24.960
1, 26133.90, 27683.26, -187500.02, -187500.02, -187500.02, -187500.02, -94575.01, -187500.02, 0.000, 0.000, 0.000, 15:26:24.960
2, 26776.43, 25379.02, -187500.02, -187500.02, -187500.02, -187500.02, -94971.35, -187500.02, 0.000, 0.000, 0.000, 15:26:24.960
3, 27345.48, 26281.81, -187500.02, -187500.02, -187500.02, -187500.02, -94918.31, -187500.02, 0.000, 0.000, 0.000, 15:26:24.960
4, 27299.97, 27463.23, -187500.02, -187500.02, -187500.02, -187500.02, -94739.03, -187500.02, 0.000, 0.000, 0.000, 15:26:24.960
5, 26700.54, 29453.25, -187500.02, -187500.02, -187500.02, -187500.02, -94326.46, -187500.02, 0.000, 0.000, 0.000, 15:26:24.960
6, 26120.31, 27690.79, -187500.02, -187500.02, -187500.02, -187500.02, -94515.63, -187500.02, 0.000, 0.000, 0.000, 15:26:24.961
7, 26770.17, 25381.05, -187500.02, -187500.02, -187500.02, -187500.02, -94949.36, -187500.02, 0.000, 0.000, 0.000, 15:26:24.961
8, 27341.97, 26270.09, -187500.02, -187500.02, -187500.02, -187500.02, -94902.33, -187500.02, 0.000, 0.000, 0.000, 15:26:24.961
9, 27306.59, 27452.32, -187500.02, -187500.02, -187500.02, -187500.02, -94725.30, -187500.02, 0.000, 0.000, 0.000, 15:26:24.961
10, 26708.95, 29448.60, -187500.02, -187500.02, -187500.02, -187500.02, -94301.98, -187500.02, 0.000, -0.016, 1.026, 15:26:24.961
11, 26130.06, 27717.48, -187500.02, -187500.02, -187500.02, -187500.02, -94498.08, -187500.02, 0.000, 0.000, 0.000, 15:26:24.962
12, 26779.83, 25391.09, -187500.02, -187500.02, -187500.02, -187500.02, -94949.85, -187500.02, 0.000, 0.000, 0.000, 15:26:24.962
13, 27357.66, 26277.78, -187500.02, -187500.02, -187500.02, -187500.02, -94928.62, -187500.02, 0.000, 0.000, 0.000, 15:26:24.962
14, 27307.59, 27444.83, -187500.02, -187500.02, -187500.02, -187500.02, -94731.54, -187500.02, 0.000, 0.000, 0.000, 15:26:24.962
15, 26727.19, 29453.18, -187500.02, -187500.02, -187500.02, -187500.02, -94339.06, -187500.02, 0.000, 0.000, 0.000, 15:26:24.962
16, 26129.70, 27731.70, -187500.02, -187500.02, -187500.02, -187500.02, -94527.71, -187500.02, 0.000, 0.000, 0.000, 15:26:24.963
17, 26752.06, 25373.16, -187500.02, -187500.02, -187500.02, -187500.02, -94926.72, -187500.02, 0.000, 0.000, 0.000, 15:26:24.963
18, 27325.07, 26243.25, -187500.02, -187500.02, -187500.02, -187500.02, -94837.24, -187500.02, 0.000, 0.000, 0.000, 15:26:24.963
19, 27299.68, 27424.83, -187500.02, -187500.02, -187500.02, -187500.02, -94673.05, -187500.02, 0.000, 0.000, 0.000, 15:26:24.963
20, 26726.43, 29443.42, -187500.02, -187500.02, -187500.02, -187500.02, -94296.59, -187500.02, 0.002, -0.016, 1.024, 15:26:24.963
21, 26135.76, 27753.22, -187500.02, -187500.02, -187500.02, -187500.02, -94489.96, -187500.02, 0.000, 0.000, 0.000, 15:26:24.963
22, 26778.89, 25393.99, -187500.02, -187500.02, -187500.02, -187500.02, -94938.56, -187500.02, 0.000, 0.000, 0.000, 15:26:24.964
23, 27363.07, 26266.63, -187500.02, -187500.02, -187500.02, -187500.02, -94906.42, -187500.02, 0.000, 0.000, 0.000, 15:26:24.964
24, 27325.05, 27436.61, -187500.02, -187500.02, -187500.02, -187500.02, -94756.77, -187500.02, 0.000, 0.000, 0.000, 15:26:24.964
25, 26744.00, 29460.00, -187500.02, -187500.02, -187500.02, -187500.02, -94380.51, -187500.02, 0.000, 0.000, 0.000, 15:26:24.964
26, 26141.28, 27795.31, -187500.02, -187500.02, -187500.02, -187500.02, -94571.16, -187500.02, 0.000, 0.000, 0.000, 15:26:24.964
27, 26746.81, 25382.95, -187500.02, -187500.02, -187500.02, -187500.02, -94969.56, -187500.02, 0.000, 0.000, 0.000, 15:26:24.964
28, 27330.84, 26235.90, -187500.02, -187500.02, -187500.02, -187500.02, -94921.28, -187500.02, 0.000, 0.000, 0.000, 15:26:24.965
29, 27305.96, 27405.81, -187500.02, -187500.02, -187500.02, -187500.02, -94786.16, -187500.02, 0.000, 0.000, 0.000, 15:26:24.965
30, 26734.29, 29432.75, -187500.02, -187500.02, -187500.02, -187500.02, -94386.48, -187500.02, 0.000, -0.012, 1.028, 15:26:24.965
31, 26114.59, 27778.81, -187500.02, -187500.02, -187500.02, -187500.02, -94533.77, -187500.02, 0.000, 0.000, 0.000, 15:26:24.965
32, 26716.14, 25359.21, -187500.02, -187500.02, -187500.02, -187500.02, -94908.16, -187500.02, 0.000, 0.000, 0.000, 15:26:24.965
33, 27316.92, 26227.40, -187500.02, -187500.02, -187500.02, -187500.02, -94870.95, -187500.02, 0.000, 0.000, 0.000, 15:26:24.965
34, 27285.69, 27396.31, -187500.02, -187500.02, -187500.02, -187500.02, -94722.87, -187500.02, 0.000, 0.000, 0.000, 15:26:24.966
35, 26708.01, 29428.28, -187500.02, -187500.02, -187500.02, -187500.02, -94320.65, -187500.02, 0.000, 0.000, 0.000, 15:26:24.966
36, 26102.84, 27807.87, -187500.02, -187500.02, -187500.02, -187500.02, -94506.05, -187500.02, 0.000, 0.000, 0.000, 15:26:24.966
37, 26717.17, 25375.24, -187500.02, -187500.02, -187500.02, -187500.02, -94898.89, -187500.02, 0.000, 0.000, 0.000, 15:26:24.966
38, 27342.69, 26247.79, -187500.02, -187500.02, -187500.02, -187500.02, -94908.74, -187500.02, 0.000, 0.000, 0.000, 15:26:24.966
39, 27323.93, 27417.83, -187500.02, -187500.02, -187500.02, -187500.02, -94783.77, -187500.02, 0.000, 0.000, 0.000, 15:26:24.966
40, 26749.54, 29452.85, -187500.02, -187500.02, -187500.02, -187500.02, -94390.38, -187500.02, 0.000, -0.014, 1.028, 15:26:24.966
41, 26129.17, 27849.31, -187500.02, -187500.02, -187500.02, -187500.02, -94518.66, -187500.02, 0.000, 0.000, 0.000, 15:26:24.966
42, 26734.45, 25397.50, -187500.02, -187500.02, -187500.02, -187500.02, -94905.28, -187500.02, 0.000, 0.000, 0.000, 15:26:24.967
43, 27339.40, 26237.79, -187500.02, -187500.02, -187500.02, -187500.02, -94878.39, -187500.02, 0.000, 0.000, 0.000, 15:26:24.967
44, 27314.48, 27387.35, -187500.02, -187500.02, -187500.02, -187500.02, -94719.29, -187500.02, 0.000, 0.000, 0.000, 15:26:24.967
45, 26746.01, 29424.37, -187500.02, -187500.02, -187500.02, -187500.02, -94288.04, -187500.02, 0.000, 0.000, 0.000, 15:26:24.967
46, 26136.03, 27860.42, -187500.02, -187500.02, -187500.02, -187500.02, -94470.12, -187500.02, 0.000, 0.000, 0.000, 15:26:24.967
47, 26740.58, 25390.20, -187500.02, -187500.02, -187500.02, -187500.02, -94896.41, -187500.02, 0.000, 0.000, 0.000, 15:26:24.967
48, 27360.08, 26237.97, -187500.02, -187500.02, -187500.02, -187500.02, -94908.09, -187500.02, 0.000, 0.000, 0.000, 15:26:24.967
49, 27321.23, 27382.99, -187500.02, -187500.02, -187500.02, -187500.02, -94764.93, -187500.02, 0.000, 0.000, 0.000, 15:26:24.967
50, 26733.49, 29406.71, -187500.02, -187500.02, -187500.02, -187500.02, -94322.77, -187500.02, 0.002, -0.012, 1.022, 15:26:24.967
51, 26102.17, 27847.63, -187500.02, -187500.02, -187500.02, -187500.02, -94448.23, -187500.02, 0.000, 0.000, 0.000, 15:26:24.968
52, 26706.78, 25368.56, -187500.02, -187500.02, -187500.02, -187500.02, -94871.66, -187500.02, 0.000, 0.000, 0.000, 15:26:24.968
53, 27327.91, 26206.39, -187500.02, -187500.02, -187500.02, -187500.02, -94875.91, -187500.02, 0.000, 0.000, 0.000, 15:26:24.968
54, 27308.04, 27356.50, -187500.02, -187500.02, -187500.02, -187500.02, -94703.40, -187500.02, 0.000, 0.000, 0.000, 15:26:24.968
55, 26751.26, 29400.21, -187500.02, -187500.02, -187500.02, -187500.02, -94278.80, -187500.02, 0.000, 0.000, 0.000, 15:26:24.968
56, 26133.48, 27882.75, -187500.02, -187500.02, -187500.02, -187500.02, -94427.16, -187500.02, 0.000, 0.000, 0.000, 15:26:24.968
57, 26733.63, 25390.78, -187500.02, -187500.02, -187500.02, -187500.02, -94863.41, -187500.02, 0.000, 0.000, 0.000, 15:26:24.968
58, 27346.33, 26207.78, -187500.02, -187500.02, -187500.02, -187500.02, -94847.75, -187500.02, 0.000, 0.000, 0.000, 15:26:24.968
59, 27332.32, 27359.67, -187500.02, -187500.02, -187500.02, -187500.02, -94684.87, -187500.02, 0.000, 0.000, 0.000, 15:26:24.969
60, 26781.66, 29406.40, -187500.02, -187500.02, -187500.02, -187500.02, -94287.34, -187500.02, 0.006, -0.014, 1.030, 15:26:24.969
61, 26156.88, 27917.06, -187500.02, -187500.02, -187500.02, -187500.02, -94451.56, -187500.02, 0.000, 0.000, 0.000, 15:26:24.969
62, 26749.99, 25413.06, -187500.02, -187500.02, -187500.02, -187500.02, -94910.84, -187500.02, 0.000, 0.000, 0.000, 15:26:24.969
63, 27363.54, 26214.95, -187500.02, -187500.02, -187500.02, -187500.02, -94854.67, -187500.02, 0.000, 0.000, 0.000, 15:26:24.969
64, 27352.12, 27365.13, -187500.02, -187500.02, -187500.02, -187500.02, -94710.87, -187500.02, 0.000, 0.000, 0.000, 15:26:24.969
65, 26797.86, 29408.70, -187500.02, -187500.02, -187500.02, -187500.02, -94322.23, -187500.02, 0.000, 0.000, 0.000, 15:26:24.969
66, 26166.31, 27938.56, -187500.02, -187500.02, -187500.02, -187500.02, -94465.42, -187500.02, 0.000, 0.000, 0.000, 15:26:24.969
67, 26750.59, 25416.64, -187500.02, -187500.02, -187500.02, -187500.02, -94910.11, -187500.02, 0.000, 0.000, 0.000, 15:26:24.970
68, 27367.34, 26217.43, -187500.02, -187500.02, -187500.02, -187500.02, -94897.32, -187500.02, 0.000, 0.000, 0.000, 15:26:24.970
69, 27351.54, 27358.94, -187500.02, -187500.02, -187500.02, -187500.02, -94720.48, -187500.02, 0.000, 0.000, 0.000, 15:26:24.970
70, 26800.77, 29395.52, -187500.02, -187500.02, -187500.02, -187500.02, -94276.77, -187500.02, 0.004, -0.014, 1.028, 15:26:24.970
71, 26161.42, 27944.17, -187500.02, -187500.02, -187500.02, -187500.02, -94427.16, -187500.02, 0.000, 0.000, 0.000, 15:26:24.970
72, 26745.54, 25403.23, -187500.02, -187500.02, -187500.02, -187500.02, -94848.59, -187500.02, 0.000, 0.000, 0.000, 15:26:24.970
73, 27377.80, 26199.66, -187500.02, -187500.02, -187500.02, -187500.02, -94836.15, -187500.02, 0.000, 0.000, 0.000, 15:26:24.970
74, 27361.51, 27344.99, -187500.02, -187500.02, -187500.02, -187500.02, -94685.80, -187500.02, 0.000, 0.000, 0.000, 15:26:24.970
75, 26827.19, 29410.78, -187500.02, -187500.02, -187500.02, -187500.02, -94347.70, -187500.02, 0.000, 0.000, 0.000, 15:26:24.970
76, 26183.41, 27990.51, -187500.02, -187500.02, -187500.02, -187500.02, -94511.30, -187500.02, 0.000, 0.000, 0.000, 15:26:24.971
77, 26738.61, 25417.60, -187500.02, -187500.02, -187500.02, -187500.02, -94944.93, -187500.02, 0.000, 0.000, 0.000, 15:26:24.971
78, 27355.05, 26189.05, -187500.02, -187500.02, -187500.02, -187500.02, -94908.07, -187500.02, 0.000, 0.000, 0.000, 15:26:24.971
79, 27344.88, 27326.08, -187500.02, -187500.02, -187500.02, -187500.02, -94730.16, -187500.02, 0.000, 0.000, 0.000, 15:26:24.971
80, 26809.53, 29385.26, -187500.02, -187500.02, -187500.02, -187500.02, -94324.91, -187500.02, 0.000, -0.014, 1.024, 15:26:24.971
81, 26161.58, 27993.48, -187500.02, -187500.02, -187500.02, -187500.02, -94462.88, -187500.02, 0.000, 0.000, 0.000, 15:26:24.971
82, 26724.39, 25416.19, -187500.02, -187500.02, -187500.02, -187500.02, -94894.23, -187500.02, 0.000, 0.000, 0.000, 15:26:24.972
83, 27347.60, 26179.35, -187500.02, -187500.02, -187500.02, -187500.02, -94867.26, -187500.02, 0.000, 0.000, 0.000, 15:26:24.972
84, 27339.78, 27316.36, -187500.02, -187500.02, -187500.02, -187500.02, -94701.86, -187500.02, 0.000, 0.000, 0.000, 15:26:24.972
85, 26806.16, 29380.34, -187500.02, -187500.02, -187500.02, -187500.02, -94296.73, -187500.02, 0.000, 0.000, 0.000, 15:26:24.972
86, 26169.38, 28025.89, -187500.02, -187500.02, -187500.02, -187500.02, -94448.48, -187500.02, 0.000, 0.000, 0.000, 15:26:24.972
87, 26729.33, 25432.02, -187500.02, -187500.02, -187500.02, -187500.02, -94849.67, -187500.02, 0.000, 0.000, 0.000, 15:26:24.972
88, 27378.76, 26203.89, -187500.02, -187500.02, -187500.02, -187500.02, -94856.09, -187500.02, 0.000, 0.000, 0.000, 15:26:24.972
89, 27377.78, 27337.26, -187500.02, -187500.02, -187500.02, -187500.02, -94741.46, -187500.02, 0.000, 0.000, 0.000, 15:26:25.434
90, 26843.06, 29393.08, -187500.02, -187500.02, -187500.02, -187500.02, -94346.40, -187500.02, 0.000, -0.012, 1.024, 15:26:25.435
91, 26174.29, 28046.28, -187500.02, -187500.02, -187500.02, -187500.02, -94458.63, -187500.02, 0.000, 0.000, 0.000, 15:26:25.435
92, 26717.53, 25431.61, -187500.02, -187500.02, -187500.02, -187500.02, -94865.92, -187500.02, 0.000, 0.000, 0.000, 15:26:25.435
93, 27363.47, 26191.64, -187500.02, -187500.02, -187500.02, -187500.02, -94870.01, -187500.02, 0.000, 0.000, 0.000, 15:26:25.435
94, 27357.57, 27311.51, -187500.02, -187500.02, -187500.02, -187500.02, -94725.33, -187500.02, 0.000, 0.000, 0.000, 15:26:25.435
95, 26808.41, 29351.73, -187500.02, -187500.02, -187500.02, -187500.02, -94284.98, -187500.02, 0.000, 0.000, 0.000, 15:26:25.436
96, 26157.84, 28045.43, -187500.02, -187500.02, -187500.02, -187500.02, -94445.41, -187500.02, 0.000, 0.000, 0.000, 15:26:25.436
97, 26709.89, 25432.26, -187500.02, -187500.02, -187500.02, -187500.02, -94908.90, -187500.02, 0.000, 0.000, 0.000, 15:26:25.436
98, 27357.77, 26179.23, -187500.02, -187500.02, -187500.02, -187500.02, -94928.99, -187500.02, 0.000, 0.000, 0.000, 15:26:25.436
99, 27362.65, 27303.39, -187500.02, -187500.02, -187500.02, -187500.02, -94798.02, -187500.02, 0.000, 0.000, 0.000, 15:26:25.436
100, 26840.98, 29358.99, -187500.02, -187500.02, -187500.02, -187500.02, -94401.72, -187500.02, 0.002, -0.014, 1.020, 15:26:25.436
101, 26168.46, 28061.07, -187500.02, -187500.02, -187500.02, -187500.02, -94521.86, -187500.02, 0.000, 0.000, 0.000, 15:26:25.437
102, 26694.08, 25422.98, -187500.02, -187500.02, -187500.02, -187500.02, -94929.60, -187500.02, 0.000, 0.000, 0.000, 15:26:25.437
103, 27346.78, 26163.59, -187500.02, -187500.02, -187500.02, -187500.02, -94930.47, -187500.02, 0.000, 0.000, 0.000, 15:26:25.437
104, 27361.39, 27298.77, -187500.02, -187500.02, -187500.02, -187500.02, -94789.90, -187500.02, 0.000, 0.000, 0.000, 15:26:25.437
105, 26830.18, 29351.53, -187500.02, -187500.02, -187500.02, -187500.02, -94352.79, -187500.02, 0.000, 0.000, 0.000, 15:26:25.437
106, 26167.21, 28087.96, -187500.02, -187500.02, -187500.02, -187500.02, -94460.41, -187500.02, 0.000, 0.000, 0.000, 15:26:25.437
107, 26700.63, 25443.79, -187500.02, -187500.02, -187500.02, -187500.02, -94883.13, -187500.02, 0.000, 0.000, 0.000, 15:26:25.438
108, 27361.60, 26183.50, -187500.02, -187500.02, -187500.02, -187500.02, -94881.41, -187500.02, 0.000, 0.000, 0.000, 15:26:25.438
109, 27381.24, 27313.79, -187500.02, -187500.02, -187500.02, -187500.02, -94738.52, -187500.02, 0.004, -0.012, 1.022, 15:26:25.438
110, 26867.64, 29377.93, -187500.02, -187500.02, -187500.02, -187500.02, -94365.42, -187500.02, 0.000, 0.000, 0.000, 15:26:25.438
111, 26186.23, 28134.27, -187500.02, -187500.02, -187500.02, -187500.02, -94490.27, -187500.02, 0.000, 0.000, 0.000, 15:26:25.438
112, 26710.09, 25470.46, -187500.02, -187500.02, -187500.02, -187500.02, -94939.92, -187500.02, 0.000, 0.000, 0.000, 15:26:25.438
113, 27368.75, 26184.13, -187500.02, -187500.02, -187500.02, -187500.02, -94960.63, -187500.02, 0.000, 0.000, 0.000, 15:26:25.439
114, 27373.62, 27301.56, -187500.02, -187500.02, -187500.02, -187500.02, -94817.46, -187500.02, 0.000, 0.000, 0.000, 15:26:25.439
115, 26848.18, 29351.15, -187500.02, -187500.02, -187500.02, -187500.02, -94409.05, -187500.02, 0.000, 0.000, 0.000, 15:26:25.439
116, 26155.47, 28117.78, -187500.02, -187500.02, -187500.02, -187500.02, -94468.46, -187500.02, 0.000, 0.000, 0.000, 15:26:25.439
117, 26679.62, 25445.45, -187500.02, -187500.02, -187500.02, -187500.02, -94900.27, -187500.02, 0.000, 0.000, 0.000, 15:26:25.439
118, 27330.71, 26145.97, -187500.02, -187500.02, -187500.02, -187500.02, -94888.77, -187500.02, 0.000, 0.000, 0.000, 15:26:25.440
119, 27339.80, 27267.50, -187500.02, -187500.02, -187500.02, -187500.02, -94724.95, -187500.02, 0.004, -0.014, 1.022, 15:26:25.440
120, 26825.20, 29329.62, -187500.02, -187500.02, -187500.02, -187500.02, -94316.36, -187500.02, 0.000, 0.000, 0.000, 15:26:25.440
121, 26148.39, 28143.91, -187500.02, -187500.02, -187500.02, -187500.02, -94442.95, -187500.02, 0.000, 0.000, 0.000, 15:26:25.440
122, 26678.33, 25459.26, -187500.02, -187500.02, -187500.02, -187500.02, -94934.59, -187500.02, 0.000, 0.000, 0.000, 15:26:25.440
123, 27340.38, 26151.29, -187500.02, -187500.02, -187500.02, -187500.02, -94950.90, -187500.02, 0.000, 0.000, 0.000, 15:26:25.440
124, 27353.48, 27270.89, -187500.02, -187500.02, -187500.02, -187500.02, -94838.43, -187500.02, 0.000, 0.000, 0.000, 15:26:25.440
125, 26836.42, 29324.95, -187500.02, -187500.02, -187500.02, -187500.02, -94430.48, -187500.02, 0.000, 0.000, 0.000, 15:26:25.440
126, 26155.68, 28163.89, -187500.02, -187500.02, -187500.02, -187500.02, -94514.03, -187500.02, 0.000, 0.000, 0.000, 15:26:25.441
127, 26661.74, 25448.31, -187500.02, -187500.02, -187500.02, -187500.02, -94924.97, -187500.02, 0.000, 0.000, 0.000, 15:26:25.441
128, 27328.09, 26131.71, -187500.02, -187500.02, -187500.02, -187500.02, -94907.56, -187500.02, 0.000, 0.000, 0.000, 15:26:25.441
129, 27347.22, 27256.28, -187500.02, -187500.02, -187500.02, -187500.02, -94754.23, -187500.02, 0.008, -0.014, 1.024, 15:26:25.441
130, 26842.68, 29319.92, -187500.02, -187500.02, -187500.02, -187500.02, -94332.54, -187500.02, 0.000, 0.000, 0.000, 15:26:25.441
131, 26162.31, 28188.48, -187500.02, -187500.02, -187500.02, -187500.02, -94426.88, -187500.02, 0.000, 0.000, 0.000, 15:26:25.441
132, 26682.26, 25475.06, -187500.02, -187500.02, -187500.02, -187500.02, -94887.27, -187500.02, 0.000, 0.000, 0.000, 15:26:25.441
133, 27358.85, 26149.73, -187500.02, -187500.02, -187500.02, -187500.02, -94908.12, -187500.02, 0.000, 0.000, 0.000, 15:26:25.441
134, 27379.63, 27270.13, -187500.02, -187500.02, -187500.02, -187500.02, -94771.88, -187500.02, 0.000, 0.000, 0.000, 15:26:25.442
135, 26880.07, 29344.67, -187500.02, -187500.02, -187500.02, -187500.02, -94381.83, -187500.02, 0.000, 0.000, 0.000, 15:26:25.442
136, 26187.93, 28234.83, -187500.02, -187500.02, -187500.02, -187500.02, -94484.15, -187500.02, 0.000, 0.000, 0.000, 15:26:25.442
137, 26690.98, 25492.25, -187500.02, -187500.02, -187500.02, -187500.02, -94965.97, -187500.02, 0.000, 0.000, 0.000, 15:26:25.442
138, 27354.71, 26138.93, -187500.02, -187500.02, -187500.02, -187500.02, -94955.30, -187500.02, 0.000, 0.000, 0.000, 15:26:25.442
139, 27371.56, 27250.44, -187500.02, -187500.02, -187500.02, -187500.02, -94806.64, -187500.02, 0.002, -0.014, 1.022, 15:26:25.442
140, 26861.83, 29311.61, -187500.02, -187500.02, -187500.02, -187500.02, -94386.88, -187500.02, 0.000, 0.000, 0.000, 15:26:25.442
141, 26162.63, 28225.33, -187500.02, -187500.02, -187500.02, -187500.02, -94466.23, -187500.02, 0.000, 0.000, 0.000, 15:26:25.442
142, 26657.61, 25471.51, -187500.02, -187500.02, -187500.02, -187500.02, -94904.97, -187500.02, 0.000, 0.000, 0.000, 15:26:25.442
143, 27325.86, 26110.64, -187500.02, -187500.02, -187500.02, -187500.02, -94900.16, -187500.02, 0.000, 0.000, 0.000, 15:26:25.443
144, 27346.89, 27220.27, -187500.02, -187500.02, -187500.02, -187500.02, -94749.53, -187500.02, 0.000, 0.000, 0.000, 15:26:25.443
145, 26842.66, 29282.64, -187500.02, -187500.02, -187500.02, -187500.02, -94305.56, -187500.02, 0.000, 0.000, 0.000, 15:26:25.443
146, 26151.94, 28232.85, -187500.02, -187500.02, -187500.02, -187500.02, -94388.53, -187500.02, 0.000, 0.000, 0.000, 15:26:25.443
147, 26663.30, 25484.29, -187500.02, -187500.02, -187500.02, -187500.02, -94886.10, -187500.02, 0.000, 0.000, 0.000, 15:26:25.443
148, 27359.99, 26141.10, -187500.02, -187500.02, -187500.02, -187500.02, -94961.54, -187500.02, 0.000, 0.000, 0.000, 15:26:25.443
149, 27384.28, 27255.40, -187500.02, -187500.02, -187500.02, -187500.02, -94853.34, -187500.02, 0.000, -0.016, 1.028, 15:26:25.443
150, 26873.63, 29305.28, -187500.02, -187500.02, -187500.02, -187500.02, -94416.70, -187500.02, 0.000, 0.000, 0.000, 15:26:25.443
151, 26168.68, 28263.18, -187500.02, -187500.02, -187500.02, -187500.02, -94452.21, -187500.02, 0.000, 0.000, 0.000, 15:26:25.444
152, 26659.06, 25481.46, -187500.02, -187500.02, -187500.02, -187500.02, -94890.35, -187500.02, 0.000, 0.000, 0.000, 15:26:25.444
153, 27337.26, 26109.38, -187500.02, -187500.02, -187500.02, -187500.02, -94906.63, -187500.02, 0.000, 0.000, 0.000, 15:26:25.444
154, 27372.48, 27230.53, -187500.02, -187500.02, -187500.02, -187500.02, -94792.27, -187500.02, 0.000, 0.000, 0.000, 15:26:25.444
155, 26882.55, 29295.80, -187500.02, -187500.02, -187500.02, -187500.02, -94384.62, -187500.02, 0.000, 0.000, 0.000, 15:26:25.444
156, 26178.23, 28284.90, -187500.02, -187500.02, -187500.02, -187500.02, -94437.41, -187500.02, 0.000, 0.000, 0.000, 15:26:25.444
157, 26660.02, 25488.01, -187500.02, -187500.02, -187500.02, -187500.02, -94878.13, -187500.02, 0.000, 0.000, 0.000, 15:26:25.445
158, 27353.91, 26110.41, -187500.02, -187500.02, -187500.02, -187500.02, -94916.27, -187500.02, 0.000, 0.000, 0.000, 15:26:25.445
159, 27385.85, 27226.41, -187500.02, -187500.02, -187500.02, -187500.02, -94794.13, -187500.02, 0.000, -0.014, 1.026, 15:26:25.445
160, 26893.51, 29295.71, -187500.02, -187500.02, -187500.02, -187500.02, -94403.06, -187500.02, 0.000, 0.000, 0.000, 15:26:25.445
161, 26184.40, 28315.23, -187500.02, -187500.02, -187500.02, -187500.02, -94483.59, -187500.02, 0.000, 0.000, 0.000, 15:26:25.445
162, 26657.25, 25505.55, -187500.02, -187500.02, -187500.02, -187500.02, -94980.18, -187500.02, 0.000, 0.000, 0.000, 15:26:25.445
163, 27322.79, 26087.41, -187500.02, -187500.02, -187500.02, -187500.02, -94956.73, -187500.02, 0.000, 0.000, 0.000, 15:26:25.446
164, 27357.13, 27198.79, -187500.02, -187500.02, -187500.02, -187500.02, -94801.92, -187500.02, 0.000, 0.000, 0.000, 15:26:25.446
165, 26869.93, 29262.72, -187500.02, -187500.02, -187500.02, -187500.02, -94419.48, -187500.02, 0.000, 0.000, 0.000, 15:26:25.446
166, 26145.75, 28294.80, -187500.02, -187500.02, -187500.02, -187500.02, -94448.32, -187500.02, 0.000, 0.000, 0.000, 15:26:25.446
167, 26609.55, 25469.92, -187500.02, -187500.02, -187500.02, -187500.02, -94907.07, -187500.02, 0.000, 0.000, 0.000, 15:26:25.446
168, 27303.01, 26059.23, -187500.02, -187500.02, -187500.02, -187500.02, -94945.98, -187500.02, 0.000, 0.000, 0.000, 15:26:25.447
169, 27343.04, 27169.68, -187500.02, -187500.02, -187500.02, -187500.02, -94799.73, -187500.02, 0.002, -0.014, 1.026, 15:26:25.447
170, 26853.34, 29228.12, -187500.02, -187500.02, -187500.02, -187500.02, -94339.02, -187500.02, 0.000, 0.000, 0.000, 15:26:25.447
171, 26144.95, 28309.00, -187500.02, -187500.02, -187500.02, -187500.02, -94371.59, -187500.02, 0.000, 0.000, 0.000, 15:26:25.447
172, 26628.17, 25497.28, -187500.02, -187500.02, -187500.02, -187500.02, -94871.80, -187500.02, 0.000, 0.000, 0.000, 15:26:25.447
173, 27327.89, 26081.65, -187500.02, -187500.02, -187500.02, -187500.02, -94915.36, -187500.02, 0.000, 0.000, 0.000, 15:26:25.447
174, 27372.75, 27196.44, -187500.02, -187500.02, -187500.02, -187500.02, -94786.10, -187500.02, 0.000, 0.000, 0.000, 15:26:25.448
175, 26897.51, 29261.85, -187500.02, -187500.02, -187500.02, -187500.02, -94420.78, -187500.02, 0.000, 0.000, 0.000, 15:26:25.448
176, 26179.46, 28362.71, -187500.02, -187500.02, -187500.02, -187500.02, -94487.33, -187500.02, 0.000, 0.000, 0.000, 15:26:25.448
177, 26629.24, 25517.89, -187500.02, -187500.02, -187500.02, -187500.02, -94936.26, -187500.02, 0.000, 0.000, 0.000, 15:26:25.448
178, 27314.79, 26070.56, -187500.02, -187500.02, -187500.02, -187500.02, -94886.52, -187500.02, 0.000, 0.000, 0.000, 15:26:25.448
179, 27360.84, 27179.92, -187500.02, -187500.02, -187500.02, -187500.02, -94727.47, -187500.02, 0.004, -0.014, 1.020, 15:26:25.448
180, 26895.14, 29242.43, -187500.02, -187500.02, -187500.02, -187500.02, -94355.45, -187500.02, 0.000, 0.000, 0.000, 15:26:25.449
181, 26180.24, 28371.38, -187500.02, -187500.02, -187500.02, -187500.02, -94405.36, -187500.02, 0.000, 0.000, 0.000, 15:26:25.449
182, 26641.63, 25529.74, -187500.02, -187500.02, -187500.02, -187500.02, -94912.59, -187500.02, 0.000, 0.000, 0.000, 15:26:25.449
183, 27337.77, 26080.10, -187500.02, -187500.02, -187500.02, -187500.02, -94959.41, -187500.02, 0.000, 0.000, 0.000, 15:26:25.449
184, 27376.37, 27179.97, -187500.02, -187500.02, -187500.02, -187500.02, -94822.29, -187500.02, 0.000, 0.000, 0.000, 15:26:25.449
185, 26897.37, 29224.21, -187500.02, -187500.02, -187500.02, -187500.02, -94393.41, -187500.02, 0.000, 0.000, 0.000, 15:26:25.449
186, 26173.31, 28378.44, -187500.02, -187500.02, -187500.02, -187500.02, -94425.70, -187500.02, 0.000, 0.000, 0.000, 15:26:25.450
187, 26615.36, 25516.42, -187500.02, -187500.02, -187500.02, -187500.02, -94891.96, -187500.02, 0.000, 0.000, 0.000, 15:26:25.450
188, 27309.72, 26050.98, -187500.02, -187500.02, -187500.02, -187500.02, -94925.04, -187500.02, 0.000, 0.000, 0.000, 15:26:25.450
189, 27351.09, 27146.33, -187500.02, -187500.02, -187500.02, -187500.02, -94804.79, -187500.02, 0.004, -0.006, 1.016, 15:26:25.450
190, 26885.06, 29199.18, -187500.02, -187500.02, -187500.02, -187500.02, -94438.40, -187500.02, 0.000, 0.000, 0.000, 15:26:25.450
191, 26148.70, 28372.43, -187500.02, -187500.02, -187500.02, -187500.02, -94458.36, -187500.02, 0.000, 0.000, 0.000, 15:26:25.451
192, 26580.58, 25495.67, -187500.02, -187500.02, -187500.02, -187500.02, -94894.93, -187500.02, 0.000, 0.000, 0.000, 15:26:25.451
193, 27287.54, 26022.01, -187500.02, -187500.02, -187500.02, -187500.02, -94906.84, -187500.02, 0.000, 0.000, 0.000, 15:26:25.451
194, 27341.68, 27128.40, -187500.02, -187500.02, -187500.02, -187500.02, -94783.95, -187500.02, 0.000, 0.000, 0.000, 15:26:25.451
195, 26879.76, 29179.26, -187500.02, -187500.02, -187500.02, -187500.02, -94352.23, -187500.02, 0.000, 0.000, 0.000, 15:26:25.451
196, 26167.50, 28411.05, -187500.02, -187500.02, -187500.02, -187500.02, -94385.53, -187500.02, 0.000, 0.000, 0.000, 15:26:25.451
197, 26611.56, 25548.67, -187500.02, -187500.02, -187500.02, -187500.02, -94877.36, -187500.02, 0.000, 0.000, 0.000, 15:26:25.452
198, 27320.27, 26063.65, -187500.02, -187500.02, -187500.02, -187500.02, -94917.30, -187500.02, 0.000, 0.000, 0.000, 15:26:25.452
199, 27376.10, 27168.59, -187500.02, -187500.02, -187500.02, -187500.02, -94780.83, -187500.02, 0.004, -0.014, 1.022, 15:26:25.452
200, 26919.01, 29217.73, -187500.02, -187500.02, -187500.02, -187500.02, -94398.21, -187500.02, 0.000, 0.000, 0.000, 15:26:25.452
201, 26186.59, 28449.08, -187500.02, -187500.02, -187500.02, -187500.02, -94437.55, -187500.02, 0.000, 0.000, 0.000, 15:26:25.452
202, 26606.71, 25553.88, -187500.02, -187500.02, -187500.02, -187500.02, -94921.04, -187500.02, 0.000, 0.000, 0.000, 15:26:25.453
203, 27313.76, 26051.14, -187500.02, -187500.02, -187500.02, -187500.02, -94944.20, -187500.02, 0.000, 0.000, 0.000, 15:26:25.453
204, 27367.27, 27143.69, -187500.02, -187500.02, -187500.02, -187500.02, -94804.74, -187500.02, 0.000, 0.000, 0.000, 15:26:25.453
205, 26911.57, 29186.84, -187500.02, -187500.02, -187500.02, -187500.02, -94417.97, -187500.02, 0.000, 0.000, 0.000, 15:26:25.453
206, 26171.97, 28454.20, -187500.02, -187500.02, -187500.02, -187500.02, -94449.33, -187500.02, 0.000, 0.000, 0.000, 15:26:25.453
207, 26582.88, 25549.59, -187500.02, -187500.02, -187500.02, -187500.02, -94907.11, -187500.02, 0.000, 0.000, 0.000, 15:26:25.453
208, 27297.49, 26031.49, -187500.02, -187500.02, -187500.02, -187500.02, -94916.05, -187500.02, 0.000, 0.000, 0.000, 15:26:25.454
209, 27355.32, 27126.66, -187500.02, -187500.02, -187500.02, -187500.02, -94771.21, -187500.02, 0.010, -0.016, 1.026, 15:26:25.915
210, 26907.45, 29169.34, -187500.02, -187500.02, -187500.02, -187500.02, -94394.97, -187500.02, 0.000, 0.000, 0.000, 15:26:25.915
211, 26165.64, 28465.33, -187500.02, -187500.02, -187500.02, -187500.02, -94407.73, -187500.02, 0.000, 0.000, 0.000, 15:26:25.915
212, 26575.33, 25561.14, -187500.02, -187500.02, -187500.02, -187500.02, -94896.34, -187500.02, 0.000, 0.000, 0.000, 15:26:25.916
213, 27297.34, 26030.82, -187500.02, -187500.02, -187500.02, -187500.02, -94955.33, -187500.02, 0.000, 0.000, 0.000, 15:26:25.916
214, 27375.25, 27136.83, -187500.02, -187500.02, -187500.02, -187500.02, -94898.71, -187500.02, 0.000, 0.000, 0.000, 15:26:25.916
215, 26919.12, 29164.89, -187500.02, -187500.02, -187500.02, -187500.02, -94513.95, -187500.02, 0.000, 0.000, 0.000, 15:26:25.916
216, 26156.99, 28467.58, -187500.02, -187500.02, -187500.02, -187500.02, -94474.65, -187500.02, 0.000, 0.000, 0.000, 15:26:25.916
217, 26551.55, 25544.58, -187500.02, -187500.02, -187500.02, -187500.02, -94923.07, -187500.02, 0.000, 0.000, 0.000, 15:26:25.916
218, 27275.81, 26004.44, -187500.02, -187500.02, -187500.02, -187500.02, -94951.13, -187500.02, 0.000, 0.000, 0.000, 15:26:25.916
219, 27343.58, 27105.27, -187500.02, -187500.02, -187500.02, -187500.02, -94821.55, -187500.02, 0.010, -0.016, 1.024, 15:26:25.916
220, 26906.18, 29129.42, -187500.02, -187500.02, -187500.02, -187500.02, -94420.67, -187500.02, 0.000, 0.000, 0.000, 15:26:25.917
221, 26179.17, 28494.18, -187500.02, -187500.02, -187500.02, -187500.02, -94448.39, -187500.02, 0.000, 0.000, 0.000, 15:26:25.917
222, 26586.08, 25588.95, -187500.02, -187500.02, -187500.02, -187500.02, -94958.74, -187500.02, 0.000, 0.000, 0.000, 15:26:25.917
223, 27304.09, 26023.33, -187500.02, -187500.02, -187500.02, -187500.02, -94953.02, -187500.02, 0.000, 0.000, 0.000, 15:26:25.917
224, 27390.14, 27131.64, -187500.02, -187500.02, -187500.02, -187500.02, -94856.91, -187500.02, 0.000, 0.000, 0.000, 15:26:25.917
225, 26954.50, 29156.91, -187500.02, -187500.02, -187500.02, -187500.02, -94492.35, -187500.02, 0.000, 0.000, 0.000, 15:26:25.917
226, 26202.08, 28527.22, -187500.02, -187500.02, -187500.02, -187500.02, -94509.30, -187500.02, 0.000, 0.000, 0.000, 15:26:25.917
227, 26581.92, 25588.52, -187500.02, -187500.02, -187500.02, -187500.02, -94957.34, -187500.02, 0.000, 0.000, 0.000, 15:26:25.917
228, 27307.26, 26014.28, -187500.02, -187500.02, -187500.02, -187500.02, -94975.58, -187500.02, 0.012, -0.012, 1.026, 15:26:25.918
229, 27377.60, 27103.23, -187500.02, -187500.02, -187500.02, -187500.02, -94817.48, -187500.02, 0.000, 0.000, 0.000, 15:26:25.918
230, 26948.67, 29130.65, -187500.02, -187500.02, -187500.02, -187500.02, -94405.02, -187500.02, 0.000, 0.000, 0.000, 15:26:25.918
231, 26208.38, 28540.29, -187500.02, -187500.02, -187500.02, -187500.02, -94429.32, -187500.02, 0.000, 0.000, 0.000, 15:26:25.918
232, 26587.31, 25590.49, -187500.02, -187500.02, -187500.02, -187500.02, -94895.36, -187500.02, 0.000, 0.000, 0.000, 15:26:25.918
233, 27331.44, 26021.81, -187500.02, -187500.02, -187500.02, -187500.02, -94972.02, -187500.02, 0.000, 0.000, 0.000, 15:26:25.918
234, 27397.90, 27112.53, -187500.02, -187500.02, -187500.02, -187500.02, -94878.28, -187500.02, 0.000, 0.000, 0.000, 15:26:25.918
235, 26929.38, 29112.95, -187500.02, -187500.02, -187500.02, -187500.02, -94461.69, -187500.02, 0.000, 0.000, 0.000, 15:26:25.918
236, 26158.45, 28527.49, -187500.02, -187500.02, -187500.02, -187500.02, -94445.37, -187500.02, 0.000, 0.000, 0.000, 15:26:25.919
237, 26554.86, 25575.74, -187500.02, -187500.02, -187500.02, -187500.02, -94890.91, -187500.02, 0.000, 0.000, 0.000, 15:26:25.919
238, 27292.11, 25980.26, -187500.02, -187500.02, -187500.02, -187500.02, -94902.28, -187500.02, 0.006, -0.012, 1.026, 15:26:25.919
239, 27362.56, 27073.71, -187500.02, -187500.02, -187500.02, -187500.02, -94767.48, -187500.02, 0.000, 0.000, 0.000, 15:26:25.919
240, 26909.17, 29093.32, -187500.02, -187500.02, -187500.02, -187500.02, -94402.66, -187500.02, 0.000, 0.000, 0.000, 15:26:25.919
241, 26142.11, 28541.01, -187500.02, -187500.02, -187500.02, -187500.02, -94383.45, -187500.02, 0.000, 0.000, 0.000, 15:26:25.920
242, 26557.31, 25592.61, -187500.02, -187500.02, -187500.02, -187500.02, -94872.80, -187500.02, 0.000, 0.000, 0.000, 15:26:25.920
243, 27312.45, 25991.86, -187500.02, -187500.02, -187500.02, -187500.02, -94917.44, -187500.02, 0.000, 0.000, 0.000, 15:26:25.920
244, 27395.08, 27090.89, -187500.02, -187500.02, -187500.02, -187500.02, -94844.02, -187500.02, 0.000, 0.000, 0.000, 15:26:25.920
245, 26927.23, 29091.58, -187500.02, -187500.02, -187500.02, -187500.02, -94484.33, -187500.02, 0.000, 0.000, 0.000, 15:26:25.920
246, 26144.21, 28556.72, -187500.02, -187500.02, -187500.02, -187500.02, -94462.07, -187500.02, 0.000, 0.000, 0.000, 15:26:25.920
247, 26535.70, 25576.27, -187500.02, -187500.02, -187500.02, -187500.02, -94884.76, -187500.02, 0.000, 0.000, 0.000, 15:26:25.921
248, 27308.44, 25980.33, -187500.02, -187500.02, -187500.02, -187500.02, -94923.92, -187500.02, 0.008, -0.018, 1.036, 15:26:25.921
249, 27390.92, 27083.23, -187500.02, -187500.02, -187500.02, -187500.02, -94816.01, -187500.02, 0.000, 0.000, 0.000, 15:26:25.921
250, 26922.59, 29080.13, -187500.02, -187500.02, -187500.02, -187500.02, -94403.33, -187500.02, 0.000, 0.000, 0.000, 15:26:25.921
251, 26158.78, 28590.03, -187500.02, -187500.02, -187500.02, -187500.02, -94381.02, -187500.02, 0.000, 0.000, 0.000, 15:26:25.921
252, 26576.76, 25621.09, -187500.02, -187500.02, -187500.02, -187500.02, -94898.04, -187500.02, 0.000, 0.000, 0.000, 15:26:25.922
253, 27328.70, 25989.33, -187500.02, -187500.02, -187500.02, -187500.02, -94964.09, -187500.02, 0.000, 0.000, 0.000, 15:26:25.922
254, 27402.70, 27090.07, -187500.02, -187500.02, -187500.02, -187500.02, -94847.23, -187500.02, 0.000, 0.000, 0.000, 15:26:25.922
255, 26956.94, 29108.50, -187500.02, -187500.02, -187500.02, -187500.02, -94485.31, -187500.02, 0.000, 0.000, 0.000, 15:26:25.922
0, 26188.55, 28633.25, -187500.02, -187500.02, -187500.02, -187500.02, -94442.02, -187500.02, 0.000, 0.000, 0.000, 15:26:25.924
1, 26576.47, 25625.85, -187500.02, -187500.02, -187500.02, -187500.02, -94910.80, -187500.02, 0.000, 0.000, 0.000, 15:26:25.924
2, 27322.79, 25972.14, -187500.02, -187500.02, -187500.02, -187500.02, -94954.70, -187500.02, 0.008, -0.014, 1.032, 15:26:25.924
3, 27399.30, 27073.42, -187500.02, -187500.02, -187500.02, -187500.02, -94812.84, -187500.02, 0.000, 0.000, 0.000, 15:26:25.924
4, 26963.87, 29097.28, -187500.02, -187500.02, -187500.02, -187500.02, -94426.88, -187500.02, 0.000, 0.000, 0.000, 15:26:25.924
5, 26200.45, 28656.61, -187500.02, -187500.02, -187500.02, -187500.02, -94388.89, -187500.02, 0.000, 0.000, 0.000, 15:26:25.924
6, 26573.45, 25635.17, -187500.02, -187500.02, -187500.02, -187500.02, -94882.98, -187500.02, 0.000, 0.000, 0.000, 15:26:25.925
7, 27324.65, 25973.08, -187500.02, -187500.02, -187500.02, -187500.02, -94959.62, -187500.02, 0.000, 0.000, 0.000, 15:26:25.925
8, 27395.84, 27072.52, -187500.02, -187500.02, -187500.02, -187500.02, -94838.13, -187500.02, 0.000, 0.000, 0.000, 15:26:25.925
9, 26969.12, 29099.89, -187500.02, -187500.02, -187500.02, -187500.02, -94457.66, -187500.02, 0.000, 0.000, 0.000, 15:26:25.925
10, 26209.63, 28690.01, -187500.02, -187500.02, -187500.02, -187500.02, -94441.39, -187500.02, 0.000, 0.000, 0.000, 15:26:25.925
11, 26552.15, 25618.88, -187500.02, -187500.02, -187500.02, -187500.02, -94903.85, -187500.02, 0.000, 0.000, 0.000, 15:26:25.926
12, 27290.83, 25924.76, -187500.02, -187500.02, -187500.02, -187500.02, -94929.13, -187500.02, 0.000, -0.014, 1.028, 15:26:25.926
13, 27378.76, 27037.99, -187500.02, -187500.02, -187500.02, -187500.02, -94790.88, -187500.02, 0.000, 0.000, 0.000, 15:26:25.926
14, 26965.66, 29071.30, -187500.02, -187500.02, -187500.02, -187500.02, -94395.26, -187500.02, 0.000, 0.000, 0.000, 15:26:25.926
15, 26207.80, 28695.04, -187500.02, -187500.02, -187500.02, -187500.02, -94363.54, -187500.02, 0.000, 0.000, 0.000, 15:26:25.926
16, 26559.95, 25639.24, -187500.02, -187500.02, -187500.02, -187500.02, -94883.40, -187500.02, 0.000, 0.000, 0.000, 15:26:25.926
17, 27308.78, 25934.93, -187500.02, -187500.02, -187500.02, -187500.02, -94943.32, -187500.02, 0.000, 0.000, 0.000, 15:26:25.927
18, 27401.65, 27049.66, -187500.02, -187500.02, -187500.02, -187500.02, -94823.12, -187500.02, 0.000, 0.000, 0.000, 15:26:25.927
19, 26997.64, 29089.14, -187500.02, -187500.02, -187500.02, -187500.02, -94483.97, -187500.02, 0.000, 0.000, 0.000, 15:26:25.927
20, 26224.27, 28726.57, -187500.02, -187500.02, -187500.02, -187500.02, -94423.76, -187500.02, 0.000, 0.000, 0.000, 15:26:25.927
21, 26559.21, 25649.72, -187500.02, -187500.02, -187500.02, -187500.02, -94902.17, -187500.02, 0.000, 0.000, 0.000, 15:26:25.927
22, 27306.41, 25927.87, -187500.02, -187500.02, -187500.02, -187500.02, -94946.32, -187500.02, 0.004, -0.020, 1.028, 15:26:25.927
23, 27401.96, 27038.90, -187500.02, -187500.02, -187500.02, -187500.02, -94799.71, -187500.02, 0.000, 0.000, 0.000, 15:26:25.927
24, 27004.01, 29069.56, -187500.02, -187500.02, -187500.02, -187500.02, -94441.44, -187500.02, 0.000, 0.000, 0.000, 15:26:25.927
25, 26232.88, 28743.63, -187500.02, -187500.02, -187500.02, -187500.02, -94389.05, -187500.02, 0.000, 0.000, 0.000, 15:26:25.927
26, 26561.67, 25664.96, -187500.02, -187500.02, -187500.02, -187500.02, -94894.41, -187500.02, 0.000, 0.000, 0.000, 15:26:25.928
27, 27314.03, 25931.58, -187500.02, -187500.02, -187500.02, -187500.02, -94984.05, -187500.02, 0.000, 0.000, 0.000, 15:26:25.928
28, 27405.45, 27038.21, -187500.02, -187500.02, -187500.02, -187500.02, -94841.94, -187500.02, 0.000, 0.000, 0.000, 15:26:25.928
29, 26993.96, 29052.46, -187500.02, -187500.02, -187500.02, -187500.02, -94423.20, -187500.02, 0.000, 0.000, 0.000, 15:26:25.928
30, 26225.77, 28753.98, -187500.02, -187500.02, -187500.02, -187500.02, -94354.13, -187500.02, 0.000, 0.000, 0.000, 15:26:25.928
31, 26559.71, 25676.92, -187500.02, -187500.02, -187500.02, -187500.02, -94896.32, -187500.02, 0.000, 0.000, 0.000, 15:26:25.928
32, 27312.96, 25923.26, -187500.02, -187500.02, -187500.02, -187500.02, -94974.05, -187500.02, 0.006, -0.022, 1.022, 15:26:25.928
33, 27411.96, 27030.95, -187500.02, -187500.02, -187500.02, -187500.02, -94844.48, -187500.02, 0.000, 0.000, 0.000, 15:26:25.928
34, 27011.54, 29039.12, -187500.02, -187500.02, -187500.02, -187500.02, -94451.67, -187500.02, 0.000, 0.000, 0.000, 15:26:25.929
35, 26246.71, 28774.14, -187500.02, -187500.02, -187500.02, -187500.02, -94385.24, -187500.02, 0.000, 0.000, 0.000, 15:26:25.929
36, 26559.15, 25684.75, -187500.02, -187500.02, -187500.02, -187500.02, -94858.03, -187500.02, 0.000, 0.000, 0.000, 15:26:25.929
37, 27320.34, 25924.29, -187500.02, -187500.02, -187500.02, -187500.02, -94948.84, -187500.02, 0.000, 0.000, 0.000, 15:26:25.929
38, 27419.76, 27031.33, -187500.02, -187500.02, -187500.02, -187500.02, -94847.50, -187500.02, 0.000, 0.000, 0.000, 15:26:25.929
39, 27022.68, 29042.58, -187500.02, -187500.02, -187500.02, -187500.02, -94496.38, -187500.02, 0.000, 0.000, 0.000, 15:26:25.929
40, 26236.14, 28791.26, -187500.02, -187500.02, -187500.02, -187500.02, -94408.91, -187500.02, 0.000, 0.000, 0.000, 15:26:25.929
41, 26529.89, 25688.77, -187500.02, -187500.02, -187500.02, -187500.02, -94880.11, -187500.02, 0.000, 0.000, 0.000, 15:26:25.929
42, 27293.00, 25904.20, -187500.02, -187500.02, -187500.02, -187500.02, -94951.59, -187500.02, 0.008, -0.018, 1.028, 15:26:25.929
43, 27409.61, 27017.85, -187500.02, -187500.02, -187500.02, -187500.02, -94832.52, -187500.02, 0.000, 0.000, 0.000, 15:26:25.930
44, 27014.45, 29014.29, -187500.02, -187500.02, -187500.02, -187500.02, -94447.07, -187500.02, 0.000, 0.000, 0.000, 15:26:25.930
45, 26233.41, 28796.06, -187500.02, -187500.02, -187500.02, -187500.02, -94360.92, -187500.02, 0.000, 0.000, 0.000, 15:26:25.930
46, 26538.49, 25713.69, -187500.02, -187500.02, -187500.02, -187500.02, -94851.70, -187500.02, 0.000, 0.000, 0.000, 15:26:25.930
47, 27312.09, 25923.08, -187500.02, -187500.02, -187500.02, -187500.02, -94959.23, -187500.02, 0.000, 0.000, 0.000, 15:26:25.930
48, 27429.43, 27033.76, -187500.02, -187500.02, -187500.02, -187500.02, -94880.65, -187500.02, 0.000, 0.000, 0.000, 15:26:25.930
49, 27039.35, 29020.21, -187500.02, -187500.02, -187500.02, -187500.02, -94520.36, -187500.02, 0.000, 0.000, 0.000, 15:26:25.931
50, 26258.98, 28833.32, -187500.02, -187500.02, -187500.02, -187500.02, -94465.98, -187500.02, 0.000, 0.000, 0.000, 15:26:25.931
51, 26537.38, 25735.87, -187500.02, -187500.02, -187500.02, -187500.02, -94966.88, -187500.02, 0.000, 0.000, 0.000, 15:26:25.931
52, 27294.81, 25914.88, -187500.02, -187500.02, -187500.02, -187500.02, -94997.93, -187500.02, 0.006, -0.016, 1.030, 15:26:25.931
53, 27418.91, 27024.33, -187500.02, -187500.02, -187500.02, -187500.02, -94850.66, -187500.02, 0.000, 0.000, 0.000, 15:26:25.931
54, 27028.82, 28994.26, -187500.02, -187500.02, -187500.02, -187500.02, -94461.20, -187500.02, 0.000, 0.000, 0.000, 15:26:25.932
55, 26230.96, 28822.39, -187500.02, -187500.02, -187500.02, -187500.02, -94369.27, -187500.02, 0.000, 0.000, 0.000, 15:26:25.932
56, 26524.39, 25734.95, -187500.02, -187500.02, -187500.02, -187500.02, -94848.71, -187500.02, 0.000, 0.000, 0.000, 15:26:25.932
57, 27310.50, 25921.27, -187500.02, -187500.02, -187500.02, -187500.02, -94948.35, -187500.02, 0.000, 0.000, 0.000, 15:26:25.932
58, 27429.19, 27026.77, -187500.02, -187500.02, -187500.02, -187500.02, -94840.93, -187500.02, 0.000, 0.000, 0.000, 15:26:25.932
59, 27019.86, 28976.06, -187500.02, -187500.02, -187500.02, -187500.02, -94437.59, -187500.02, 0.000, 0.000, 0.000, 15:26:25.933
60, 26219.36, 28835.56, -187500.02, -187500.02, -187500.02, -187500.02, -94348.38, -187500.02, 0.000, 0.000, 0.000, 15:26:25.933
61, 26527.00, 25757.72, -187500.02, -187500.02, -187500.02, -187500.02, -94834.34, -187500.02, 0.000, 0.000, 0.000, 15:26:25.933
62, 27316.60, 25916.91, -187500.02, -187500.02, -187500.02, -187500.02, -94902.77, -187500.02, 0.004, -0.018, 1.032, 15:26:25.933
63, 27444.57, 27032.49, -187500.02, -187500.02, -187500.02, -187500.02, -94813.15, -187500.02, 0.000, 0.000, 0.000, 15:26:25.933
64, 27043.89, 28988.74, -187500.02, -187500.02, -187500.02, -187500.02, -94496.42, -187500.02, 0.000, 0.000, 0.000, 15:26:25.933
65, 26235.83, 28865.73, -187500.02, -187500.02, -187500.02, -187500.02, -94436.61, -187500.02, 0.000, 0.000, 0.000, 15:26:25.934
66, 26524.61, 25775.38, -187500.02, -187500.02, -187500.02, -187500.02, -94902.69, -187500.02, 0.000, 0.000, 0.000, 15:26:25.934
67, 27310.68, 25913.36, -187500.02, -187500.02, -187500.02, -187500.02, -94968.00, -187500.02, 0.000, 0.000, 0.000, 15:26:25.934
68, 27425.10, 27007.57, -187500.02, -187500.02, -187500.02, -187500.02, -94839.90, -187500.02, 0.000, 0.000, 0.000, 15:26:25.934
69, 27025.36, 28949.08, -187500.02, -187500.02, -187500.02, -187500.02, -94453.35, -187500.02, 0.000, 0.000, 0.000, 15:26:25.934
70, 26225.55, 28861.44, -187500.02, -187500.02, -187500.02, -187500.02, -94345.28, -187500.02, 0.000, 0.000, 0.000, 15:26:25.934
71, 26514.87, 25783.83, -187500.02, -187500.02, -187500.02, -187500.02, -94854.34, -187500.02, 0.000, 0.000, 0.000, 15:26:25.935
72, 27308.44, 25913.67, -187500.02, -187500.02, -187500.02, -187500.02, -94966.34, -187500.02, 0.004, -0.010, 1.026, 15:26:25.935
73, 27425.05, 27004.86, -187500.02, -187500.02, -187500.02, -187500.02, -94872.84, -187500.02, 0.000, 0.000, 0.000, 15:26:26.396
74, 27034.97, 28937.93, -187500.02, -187500.02, -187500.02, -187500.02, -94507.51, -187500.02, 0.000, 0.000, 0.000, 15:26:26.396
75, 26236.21, 28880.84, -187500.02, -187500.02, -187500.02, -187500.02, -94407.77, -187500.02, 0.000, 0.000, 0.000, 15:26:26.396
76, 26495.15, 25786.38, -187500.02, -187500.02, -187500.02, -187500.02, -94869.00, -187500.02, 0.000, 0.000, 0.000, 15:26:26.396
77, 27287.12, 25892.26, -187500.02, -187500.02, -187500.02, -187500.02, -94943.99, -187500.02, 0.000, 0.000, 0.000, 15:26:26.396
78, 27427.27, 27000.21, -187500.02, -187500.02, -187500.02, -187500.02, -94849.24, -187500.02, 0.000, 0.000, 0.000, 15:26:26.397
79, 27064.79, 28939.58, -187500.02, -187500.02, -187500.02, -187500.02, -94498.52, -187500.02, 0.000, 0.000, 0.000, 15:26:26.397
80, 26269.63, 28912.94, -187500.02, -187500.02, -187500.02, -187500.02, -94365.10, -187500.02, 0.000, 0.000, 0.000, 15:26:26.397
81, 26529.93, 25837.83, -187500.02, -187500.02, -187500.02, -187500.02, -94856.46, -187500.02, 0.000, 0.000, 0.000, 15:26:26.397
82, 27318.77, 25918.05, -187500.02, -187500.02, -187500.02, -187500.02, -94979.45, -187500.02, 0.004, -0.018, 1.026, 15:26:26.397
83, 27444.79, 27007.95, -187500.02, -187500.02, -187500.02, -187500.02, -94866.81, -187500.02, 0.000, 0.000, 0.000, 15:26:26.398
84, 27075.74, 28931.36, -187500.02, -187500.02, -187500.02, -187500.02, -94512.49, -187500.02, 0.000, 0.000, 0.000, 15:26:26.398
85, 26281.47, 28931.05, -187500.02, -187500.02, -187500.02, -187500.02, -94423.17, -187500.02, 0.000, 0.000, 0.000, 15:26:26.398
86, 26512.79, 25832.16, -187500.02, -187500.02, -187500.02, -187500.02, -94922.24, -187500.02, 0.000, 0.000, 0.000, 15:26:26.398
87, 27299.48, 25895.23, -187500.02, -187500.02, -187500.02, -187500.02, -95016.59, -187500.02, 0.000, 0.000, 0.000, 15:26:26.398
88, 27436.34, 26985.01, -187500.02, -187500.02, -187500.02, -187500.02, -94894.20, -187500.02, 0.000, 0.000, 0.000, 15:26:26.398
89, 27070.58, 28896.18, -187500.02, -187500.02, -187500.02, -187500.02, -94541.86, -187500.02, 0.000, 0.000, 0.000, 15:26:26.399
90, 26267.97, 28915.98, -187500.02, -187500.02, -187500.02, -187500.02, -94398.48, -187500.02, 0.000, 0.000, 0.000, 15:26:26.399
91, 26488.72, 25809.69, -187500.02, -187500.02, -187500.02, -187500.02, -94858.27, -187500.02, 0.002, -0.016, 1.024, 15:26:26.399
92, 27275.32, 25853.41, -187500.02, -187500.02, -187500.02, -187500.02, -94943.79, -187500.02, 0.000, 0.000, 0.000, 15:26:26.399
93, 27411.84, 26948.42, -187500.02, -187500.02, -187500.02, -187500.02, -94819.72, -187500.02, 0.000, 0.000, 0.000, 15:26:26.399
94, 27053.19, 28860.77, -187500.02, -187500.02, -187500.02, -187500.02, -94435.98, -187500.02, 0.000, 0.000, 0.000, 15:26:26.399
95, 26269.11, 28930.13, -187500.02, -187500.02, -187500.02, -187500.02, -94344.97, -187500.02, 0.000, 0.000, 0.000, 15:26:26.400
96, 26488.11, 25834.30, -187500.02, -187500.02, -187500.02, -187500.02, -94830.76, -187500.02, 0.000, 0.000, 0.000, 15:26:26.400
97, 27290.79, 25875.79, -187500.02, -187500.02, -187500.02, -187500.02, -94964.60, -187500.02, 0.000, 0.000, 0.000, 15:26:26.400
98, 27437.79, 26976.19, -187500.02, -187500.02, -187500.02, -187500.02, -94883.98, -187500.02, 0.000, 0.000, 0.000, 15:26:26.400
99, 27078.85, 28878.90, -187500.02, -187500.02, -187500.02, -187500.02, -94525.63, -187500.02, 0.000, 0.000, 0.000, 15:26:26.400
100, 26274.12, 28957.60, -187500.02, -187500.02, -187500.02, -187500.02, -94397.70, -187500.02, 0.000, 0.000, 0.000, 15:26:26.401
101, 26480.29, 25847.02, -187500.02, -187500.02, -187500.02, -187500.02, -94866.86, -187500.02, 0.008, -0.014, 1.028, 15:26:26.401
102, 27281.06, 25866.85, -187500.02, -187500.02, -187500.02, -187500.02, -94975.15, -187500.02, 0.000, 0.000, 0.000, 15:26:26.401
103, 27424.09, 26962.08, -187500.02, -187500.02, -187500.02, -187500.02, -94843.27, -187500.02, 0.000, 0.000, 0.000, 15:26:26.401
104, 27077.62, 28868.84, -187500.02, -187500.02, -187500.02, -187500.02, -94487.13, -187500.02, 0.000, 0.000, 0.000, 15:26:26.401
105, 26292.85, 28990.17, -187500.02, -187500.02, -187500.02, -187500.02, -94372.57, -187500.02, 0.000, 0.000, 0.000, 15:26:26.401
106, 26490.30, 25875.29, -187500.02, -187500.02, -187500.02, -187500.02, -94849.27, -187500.02, 0.000, 0.000, 0.000, 15:26:26.402
107, 27286.63, 25868.59, -187500.02, -187500.02, -187500.02, -187500.02, -94976.67, -187500.02, 0.000, 0.000, 0.000, 15:26:26.402
108, 27441.88, 26969.93, -187500.02, -187500.02, -187500.02, -187500.02, -94859.21, -187500.02, 0.000, 0.000, 0.000, 15:26:26.402
109, 27089.49, 28865.51, -187500.02, -187500.02, -187500.02, -187500.02, -94496.96, -187500.02, 0.000, 0.000, 0.000, 15:26:26.402
110, 26285.45, 28997.01, -187500.02, -187500.02, -187500.02, -187500.02, -94394.03, -187500.02, 0.000, 0.000, 0.000, 15:26:26.402
111, 26479.51, 25880.01, -187500.02, -187500.02, -187500.02, -187500.02, -94895.04, -187500.02, 0.006, -0.016, 1.024, 15:26:26.402
112, 27271.74, 25852.72, -187500.02, -187500.02, -187500.02, -187500.02, -95011.97, -187500.02, 0.000, 0.000, 0.000, 15:26:26.403
113, 27415.11, 26943.80, -187500.02, -187500.02, -187500.02, -187500.02, -94865.07, -187500.02, 0.000, 0.000, 0.000, 15:26:26.403
114, 27073.84, 28839.05, -187500.02, -187500.02, -187500.02, -187500.02, -94515.16, -187500.02, 0.000, 0.000, 0.000, 15:26:26.403
115, 26279.50, 29009.54, -187500.02, -187500.02, -187500.02, -187500.02, -94417.77, -187500.02, 0.000, 0.000, 0.000, 15:26:26.403
116, 26462.41, 25882.71, -187500.02, -187500.02, -187500.02, -187500.02, -94886.13, -187500.02, 0.000, 0.000, 0.000, 15:26:26.403
117, 27245.79, 25832.11, -187500.02, -187500.02, -187500.02, -187500.02, -94959.35, -187500.02, 0.000, 0.000, 0.000, 15:26:26.403
118, 27398.95, 26934.66, -187500.02, -187500.02, -187500.02, -187500.02, -94832.21, -187500.02, 0.000, 0.000, 0.000, 15:26:26.404
119, 27055.20, 28819.51, -187500.02, -187500.02, -187500.02, -187500.02, -94485.63, -187500.02, 0.000, 0.000, 0.000, 15:26:26.404
120, 26265.02, 29018.22, -187500.02, -187500.02, -187500.02, -187500.02, -94357.64, -187500.02, 0.000, 0.000, 0.000, 15:26:26.404
121, 26447.01, 25889.94, -187500.02, -187500.02, -187500.02, -187500.02, -94823.54, -187500.02, 0.006, -0.014, 1.022, 15:26:26.404
122, 27245.28, 25819.35, -187500.02, -187500.02, -187500.02, -187500.02, -94934.49, -187500.02, 0.000, 0.000, 0.000, 15:26:26.404
123, 27413.72, 26933.07, -187500.02, -187500.02, -187500.02, -187500.02, -94847.10, -187500.02, 0.000, 0.000, 0.000, 15:26:26.404
124, 27084.01, 28826.57, -187500.02, -187500.02, -187500.02, -187500.02, -94525.50, -187500.02, 0.000, 0.000, 0.000, 15:26:26.405
125, 26290.97, 29052.66, -187500.02, -187500.02, -187500.02, -187500.02, -94368.81, -187500.02, 0.000, 0.000, 0.000, 15:26:26.405
126, 26461.63, 25917.72, -187500.02, -187500.02, -187500.02, -187500.02, -94821.82, -187500.02, 0.000, 0.000, 0.000, 15:26:26.405
127, 27265.39, 25831.87, -187500.02, -187500.02, -187500.02, -187500.02, -94936.30, -187500.02, 0.000, 0.000, 0.000, 15:26:26.405
128, 27437.41, 26941.54, -187500.02, -187500.02, -187500.02, -187500.02, -94836.23, -187500.02, 0.000, 0.000, 0.000, 15:26:26.405
129, 27104.46, 28822.78, -187500.02, -187500.02, -187500.02, -187500.02, -94483.28, -187500.02, 0.000, 0.000, 0.000, 15:26:26.405
130, 26301.47, 29071.88, -187500.02, -187500.02, -187500.02, -187500.02, -94319.80, -187500.02, 0.000, 0.000, 0.000, 15:26:26.406
131, 26463.44, 25942.30, -187500.02, -187500.02, -187500.02, -187500.02, -94783.59, -187500.02, 0.008, -0.010, 1.024, 15:26:26.406
132, 27276.23, 25853.35, -187500.02, -187500.02, -187500.02, -187500.02, -94953.72, -187500.02, 0.000, 0.000, 0.000, 15:26:26.406
133, 27443.43, 26958.88, -187500.02, -187500.02, -187500.02, -187500.02, -94859.26, -187500.02, 0.000, 0.000, 0.000, 15:26:26.406
134, 27112.89, 28828.81, -187500.02, -187500.02, -187500.02, -187500.02, -94518.28, -187500.02, 0.000, 0.000, 0.000, 15:26:26.406
135, 26314.13, 29100.36, -187500.02, -187500.02, -187500.02, -187500.02, -94353.33, -187500.02, 0.000, 0.000, 0.000, 15:26:26.407
136, 26464.38, 25954.53, -187500.02, -187500.02, -187500.02, -187500.02, -94826.91, -187500.02, 0.000, 0.000, 0.000, 15:26:26.407
137, 27264.48, 25826.34, -187500.02, -187500.02, -187500.02, -187500.02, -94937.60, -187500.02, 0.000, 0.000, 0.000, 15:26:26.407
138, 27432.70, 26929.78, -187500.02, -187500.02, -187500.02, -187500.02, -94800.52, -187500.02, 0.000, 0.000, 0.000, 15:26:26.407
139, 27105.94, 28802.14, -187500.02, -187500.02, -187500.02, -187500.02, -94442.27, -187500.02, 0.000, 0.000, 0.000, 15:26:26.407
140, 26309.19, 29115.34, -187500.02, -187500.02, -187500.02, -187500.02, -94320.80, -187500.02, 0.000, 0.000, 0.000, 15:26:26.407
141, 26451.63, 25973.04, -187500.02, -187500.02, -187500.02, -187500.02, -94798.06, -187500.02, 0.006, -0.012, 1.028, 15:26:26.408
142, 27256.39, 25823.51, -187500.02, -187500.02, -187500.02, -187500.02, -94920.57, -187500.02, 0.000, 0.000, 0.000, 15:26:26.408
143, 27441.88, 26941.88, -187500.02, -187500.02, -187500.02, -187500.02, -94849.00, -187500.02, 0.000, 0.000, 0.000, 15:26:26.408
144, 27133.45, 28815.96, -187500.02, -187500.02, -187500.02, -187500.02, -94599.58, -187500.02, 0.000, 0.000, 0.000, 15:26:26.408
145, 26314.57, 29126.71, -187500.02, -187500.02, -187500.02, -187500.02, -94434.38, -187500.02, 0.000, 0.000, 0.000, 15:26:26.408
146, 26442.98, 25969.55, -187500.02, -187500.02, -187500.02, -187500.02, -94860.69, -187500.02, 0.000, 0.000, 0.000, 15:26:26.408
147, 27245.32, 25803.93, -187500.02, -187500.02, -187500.02, -187500.02, -94970.63, -187500.02, 0.000, 0.000, 0.000, 15:26:26.409
148, 27424.45, 26918.16, -187500.02, -187500.02, -187500.02, -187500.02, -94866.66, -187500.02, 0.000, 0.000, 0.000, 15:26:26.409
149, 27109.60, 28785.71, -187500.02, -187500.02, -187500.02, -187500.02, -94522.22, -187500.02, 0.000, 0.000, 0.000, 15:26:26.409
150, 26316.94, 29149.91, -187500.02, -187500.02, -187500.02, -187500.02, -94355.16, -187500.02, 0.000, 0.000, 0.000, 15:26:26.409
151, 26455.95, 26000.53, -187500.02, -187500.02, -187500.02, -187500.02, -94817.52, -187500.02, 0.010, -0.016, 1.022, 15:26:26.409
152, 27267.41, 25815.24, -187500.02, -187500.02, -187500.02, -187500.02, -94983.04, -187500.02, 0.000, 0.000, 0.000, 15:26:26.409
153, 27445.93, 26929.18, -187500.02, -187500.02, -187500.02, -187500.02, -94872.52, -187500.02, 0.000, 0.000, 0.000, 15:26:26.410
154, 27124.00, 28775.37, -187500.02, -187500.02, -187500.02, -187500.02, -94528.34, -187500.02, 0.000, 0.000, 0.000, 15:26:26.410
155, 26324.43, 29155.48, -187500.02, -187500.02, -187500.02, -187500.02, -94360.57, -187500.02, 0.000, 0.000, 0.000, 15:26:26.410
