%OpenBCI Raw EEG Data
%
%Sample Rate = 250.0 Hz
%First Column = SampleIndex
%Last Column = Timestamp 
%Other Columns = EEG data in microvolts followed by Accel Data (in G) interleaved with Aux Data
0, 44199.19, 9596.63, -187500.02, -187500.02, -187500.02, -187500.02, -187500.02, -187500.02, 0.006, -0.010, 1.022, 15:18:45.597
1, 44176.01, 9590.98, -187500.02, -187500.02, -187500.02, -187500.02, -187500.02, -187500.02, 0.000, 0.000, 0.000, 15:18:45.597
2, 43981.39, 9418.18, -187500.02, -187500.02, -187500.02, -187500.02, -187500.02, -187500.02, 0.000, 0.000, 0.000, 15:18:45.597
3, 43739.70, 9169.45, -187500.02, -187500.02, -187500.02, -187500.02, -187500.02, -187500.02, 0.000, 0.000, 0.000, 15:18:45.598
4, 43939.64, 9325.39, -187500.02, -187500.02, -187500.02, -187500.02, -187500.02, -187500.02, 0.000, 0.000, 0.000, 15:18:45.598
5, 44200.42, 9606.65, -187500.02, -187500.02, -187500.02, -187500.02, -187500.02, -187500.02, 0.000, 0.000, 0.000, 15:18:45.598
6, 44178.47, 9601.01, -187500.02, -187500.02, -187500.02, -187500.02, -187500.02, -187500.02, 0.000, 0.000, 0.000, 15:18:45.598
7, 43986.73, 9434.20, -187500.02, -187500.02, -187500.02, -187500.02, -187500.02, -187500.02, -0.008, -0.024, 0.980, 15:18:45.598
8, 43729.96, 9163.57, -187500.02, -187500.02, -187500.02, -187500.02, -187500.02, -187500.02, 0.000, 0.000, 0.000, 15:18:45.598
9, 43919.90, 9303.26, -187500.02, -187500.02, -187500.02, -187500.02, -187500.02, -187500.02, 0.000, 0.000, 0.000, 15:18:45.598
10, 44192.68, 9597.12, -187500.02, -187500.02, -187500.02, -187500.02, -187500.02, -187500.02, 0.000, 0.000, 0.000, 15:18:45.598
11, 44174.60, 9598.53, -187500.02, -187500.02, -187500.02, -187500.02, -187500.02, -187500.02, 0.000, 0.000, 0.000, 15:18:45.598
12, 43969.81, 9423.92, -187500.02, -187500.02, -187500.02, -187500.02, -187500.02, -187500.02, 0.000, 0.000, 0.000, 15:18:45.599
13, 43717.57, 9163.50, -187500.02, -187500.02, -187500.02, -187500.02, -187500.02, -187500.02, 0.000, 0.000, 0.000, 15:18:45.599
14, 43920.89, 9316.18, -187500.02, -187500.02, -187500.02, -187500.02, -187500.02, -187500.02, 0.000, 0.000, 0.000, 15:18:45.599
15, 44179.81, 9588.96, -187500.02, -187500.02, -187500.02, -187500.02, -187500.02, -187500.02, 0.000, 0.000, 0.000, 15:18:45.599
16, 44161.75, 9587.51, -187500.02, -187500.02, -187500.02, -187500.02, -187500.02, -187500.02, 0.000, 0.000, 0.000, 15:18:45.599
17, 43975.29, 9419.76, -187500.02, -187500.02, -187500.02, -187500.02, -187500.02, -187500.02, -0.014, -0.018, 1.006, 15:18:45.599
18, 43717.26, 9151.92, -187500.02, -187500.02, -187500.02, -187500.02, -187500.02, -187500.02, 0.000, 0.000, 0.000, 15:18:45.599
19, 43910.40, 9299.69, -187500.02, -187500.02, -187500.02, -187500.02, -187500.02, -187500.02, 0.000, 0.000, 0.000, 15:18:45.599
20, 44176.75, 9587.40, -187500.02, -187500.02, -187500.02, -187500.02, -187500.02, -187500.02, 0.000, 0.000, 0.000, 15:18:45.600
21, 44164.54, 9596.25, -187500.02, -187500.02, -187500.02, -187500.02, -187500.02, -187500.02, 0.000, 0.000, 0.000, 15:18:45.600
22, 43968.36, 9422.58, -187500.02, -187500.02, -187500.02, -187500.02, -187500.02, -187500.02, 0.000, 0.000, 0.000, 15:18:45.600
23, 43723.90, 9164.15, -187500.02, -187500.02, -187500.02, -187500.02, -187500.02, -187500.02, 0.000, 0.000, 0.000, 15:18:45.600
24, 43930.63, 9321.33, -187500.02, -187500.02, -187500.02, -187500.02, -187500.02, -187500.02, 0.000, 0.000, 0.000, 15:18:45.600
25, 44196.84, 9608.48, -187500.02, -187500.02, -187500.02, -187500.02, -187500.02, -187500.02, 0.000, 0.000, 0.000, 15:18:45.600
26, 44186.74, 9618.09, -187500.02, -187500.02, -187500.02, -187500.02, -187500.02, -187500.02, 0.000, 0.000, 0.000, 15:18:45.600
27, 43996.23, 9445.82, -187500.02, -187500.02, -187500.02, -187500.02, -187500.02, -187500.02, -0.002, -0.014, 1.018, 15:18:45.600
28, 43742.38, 9177.29, -187500.02, -187500.02, -187500.02, -187500.02, -187500.02, -187500.02, 0.000, 0.000, 0.000, 15:18:45.601
29, 43944.55, 9329.84, -187500.02, -187500.02, -187500.02, -187500.02, -187500.02, -187500.02, 0.000, 0.000, 0.000, 15:18:45.601
30, 44212.00, 9617.71, -187500.02, -187500.02, -187500.02, -187500.02, -187500.02, -187500.02, 0.000, 0.000, 0.000, 15:18:45.601
31, 44187.86, 9616.26, -187500.02, -187500.02, -187500.02, -187500.02, -187500.02, -187500.02, 0.000, 0.000, 0.000, 15:18:45.601
32, 43996.34, 9449.76, -187500.02, -187500.02, -187500.02, -187500.02, -187500.02, -187500.02, 0.000, 0.000, 0.000, 15:18:45.601
33, 43740.91, 9183.48, -187500.02, -187500.02, -187500.02, -187500.02, -187500.02, -187500.02, 0.000, 0.000, 0.000, 15:18:45.601
34, 43927.34, 9317.57, -187500.02, -187500.02, -187500.02, -187500.02, -187500.02, -187500.02, 0.000, 0.000, 0.000, 15:18:45.601
35, 44207.66, 9613.46, -187500.02, -187500.02, -187500.02, -187500.02, -187500.02, -187500.02, 0.000, 0.000, 0.000, 15:18:45.601
36, 44193.82, 9620.01, -187500.02, -187500.02, -187500.02, -187500.02, -187500.02, -187500.02, 0.000, -0.012, 1.026, 15:18:45.601
37, 43996.08, 9444.01, -187500.02, -187500.02, -187500.02, -187500.02, -187500.02, -187500.02, 0.000, 0.000, 0.000, 15:18:45.602
38, 43739.59, 9177.07, -187500.02, -187500.02, -187500.02, -187500.02, -187500.02, -187500.02, 0.000, 0.000, 0.000, 15:18:45.602
39, 43927.32, 9317.12, -187500.02, -187500.02, -187500.02, -187500.02, -187500.02, -187500.02, 0.000, 0.000, 0.000, 15:18:45.602
40, 44203.32, 9609.26, -187500.02, -187500.02, -187500.02, -187500.02, -187500.02, -187500.02, 0.000, 0.000, 0.000, 15:18:45.602
41, 44179.68, 9606.49, -187500.02, -187500.02, -187500.02, -187500.02, -187500.02, -187500.02, 0.000, 0.000, 0.000, 15:18:45.602
42, 43975.96, 9429.73, -187500.02, -187500.02, -187500.02, -187500.02, -187500.02, -187500.02, 0.000, 0.000, 0.000, 15:18:45.602
43, 43731.03, 9173.36, -187500.02, -187500.02, -187500.02, -187500.02, -187500.02, -187500.02, 0.000, 0.000, 0.000, 15:18:45.602
44, 43928.24, 9320.88, -187500.02, -187500.02, -187500.02, -187500.02, -187500.02, -187500.02, 0.000, 0.000, 0.000, 15:18:45.602
45, 44196.97, 9608.72, -187500.02, -187500.02, -187500.02, -187500.02, -187500.02, -187500.02, 0.000, 0.000, 0.000, 15:18:45.603
46, 44186.92, 9621.67, -187500.02, -187500.02, -187500.02, -187500.02, -187500.02, -187500.02, -0.004, -0.016, 1.024, 15:18:45.603
47, 43988.23, 9447.14, -187500.02, -187500.02, -187500.02, -187500.02, -187500.02, -187500.02, 0.000, 0.000, 0.000, 15:18:45.603
48, 43728.88, 9181.20, -187500.02, -187500.02, -187500.02, -187500.02, -187500.02, -187500.02, 0.000, 0.000, 0.000, 15:18:45.603
49, 43922.65, 9323.87, -187500.02, -187500.02, -187500.02, -187500.02, -187500.02, -187500.02, 0.000, 0.000, 0.000, 15:18:45.603
50, 44205.47, 9624.84, -187500.02, -187500.02, -187500.02, -187500.02, -187500.02, -187500.02, 0.000, 0.000, 0.000, 15:18:45.603
51, 44189.24, 9635.43, -187500.02, -187500.02, -187500.02, -187500.02, -187500.02, -187500.02, 0.000, 0.000, 0.000, 15:18:45.603
52, 43996.52, 9466.97, -187500.02, -187500.02, -187500.02, -187500.02, -187500.02, -187500.02, 0.000, 0.000, 0.000, 15:18:45.603
53, 43742.50, 9204.22, -187500.02, -187500.02, -187500.02, -187500.02, -187500.02, -187500.02, 0.000, 0.000, 0.000, 15:18:45.603
54, 43931.37, 9341.00, -187500.02, -187500.02, -187500.02, -187500.02, -187500.02, -187500.02, 0.000, 0.000, 0.000, 15:18:45.604
55, 44212.40, 9636.73, -187500.02, -187500.02, -187500.02, -187500.02, -187500.02, -187500.02, 0.000, 0.000, 0.000, 15:18:45.604
56, 44199.75, 9644.04, -187500.02, -187500.02, -187500.02, -187500.02, -187500.02, -187500.02, 0.002, -0.008, 1.020, 15:18:45.604
57, 44002.63, 9473.43, -187500.02, -187500.02, -187500.02, -187500.02, -187500.02, -187500.02, 0.000, 0.000, 0.000, 15:18:45.604
58, 43742.32, 9201.52, -187500.02, -187500.02, -187500.02, -187500.02, -187500.02, -187500.02, 0.000, 0.000, 0.000, 15:18:45.604
59, 43934.23, 9341.22, -187500.02, -187500.02, -187500.02, -187500.02, -187500.02, -187500.02, 0.000, 0.000, 0.000, 15:18:45.604
60, 44216.15, 9641.27, -187500.02, -187500.02, -187500.02, -187500.02, -187500.02, -187500.02, 0.000, 0.000, 0.000, 15:18:45.604
61, 44193.22, 9638.92, -187500.02, -187500.02, -187500.02, -187500.02, -187500.02, -187500.02, 0.000, 0.000, 0.000, 15:18:45.604
62, 43992.72, 9467.01, -187500.02, -187500.02, -187500.02, -187500.02, -187500.02, -187500.02, 0.000, 0.000, 0.000, 15:18:45.605
63, 43726.56, 9197.90, -187500.02, -187500.02, -187500.02, -187500.02, -187500.02, -187500.02, 0.000, 0.000, 0.000, 15:18:45.605
64, 43923.84, 9340.03, -187500.02, -187500.02, -187500.02, -187500.02, -187500.02, -187500.02, 0.000, 0.000, 0.000, 15:18:45.606
65, 44196.53, 9626.65, -187500.02, -187500.02, -187500.02, -187500.02, -187500.02, -187500.02, 0.000, 0.000, 0.000, 15:18:45.606
66, 44176.66, 9625.85, -187500.02, -187500.02, -187500.02, -187500.02, -187500.02, -187500.02, -0.002, -0.008, 1.014, 15:18:45.606
67, 43967.46, 9443.83, -187500.02, -187500.02, -187500.02, -187500.02, -187500.02, -187500.02, 0.000, 0.000, 0.000, 15:18:45.606
68, 43707.61, 9177.78, -187500.02, -187500.02, -187500.02, -187500.02, -187500.02, -187500.02, 0.000, 0.000, 0.000, 15:18:45.606
69, 43884.41, 9302.88, -187500.02, -187500.02, -187500.02, -187500.02, -187500.02, -187500.02, 0.000, 0.000, 0.000, 15:18:45.606
70, 44151.67, 9583.42, -187500.02, -187500.02, -187500.02, -187500.02, -187500.02, -187500.02, 0.000, 0.000, 0.000, 15:18:45.606
71, 44141.43, 9595.69, -187500.02, -187500.02, -187500.02, -187500.02, -187500.02, -187500.02, 0.000, 0.000, 0.000, 15:18:45.607
72, 43942.25, 9416.10, -187500.02, -187500.02, -187500.02, -187500.02, -187500.02, -187500.02, 0.000, 0.000, 0.000, 15:18:45.607
73, 43676.83, 9141.04, -187500.02, -187500.02, -187500.02, -187500.02, -187500.02, -187500.02, 0.000, 0.000, 0.000, 15:18:45.607
74, 43863.98, 9281.29, -187500.02, -187500.02, -187500.02, -187500.02, -187500.02, -187500.02, 0.000, 0.000, 0.000, 15:18:45.607
75, 44146.50, 9581.63, -187500.02, -187500.02, -187500.02, -187500.02, -187500.02, -187500.02, 0.000, 0.000, 0.000, 15:18:45.607
76, 44133.70, 9588.96, -187500.02, -187500.02, -187500.02, -187500.02, -187500.02, -187500.02, 0.004, -0.010, 1.020, 15:18:45.607
77, 43941.32, 9417.57, -187500.02, -187500.02, -187500.02, -187500.02, -187500.02, -187500.02, 0.000, 0.000, 0.000, 15:18:45.607
78, 43690.20, 9160.44, -187500.02, -187500.02, -187500.02, -187500.02, -187500.02, -187500.02, 0.000, 0.000, 0.000, 15:18:45.607
79, 43874.21, 9293.09, -187500.02, -187500.02, -187500.02, -187500.02, -187500.02, -187500.02, 0.000, 0.000, 0.000, 15:18:45.608
80, 44143.24, 9581.08, -187500.02, -187500.02, -187500.02, -187500.02, -187500.02, -187500.02, 0.000, 0.000, 0.000, 15:18:45.608
81, 44129.72, 9589.48, -187500.02, -187500.02, -187500.02, -187500.02, -187500.02, -187500.02, 0.000, 0.000, 0.000, 15:18:45.608
82, 43938.16, 9427.70, -187500.02, -187500.02, -187500.02, -187500.02, -187500.02, -187500.02, 0.000, 0.000, 0.000, 15:18:45.608
83, 43683.76, 9164.19, -187500.02, -187500.02, -187500.02, -187500.02, -187500.02, -187500.02, 0.000, 0.000, 0.000, 15:18:45.608
84, 43873.54, 9302.44, -187500.02, -187500.02, -187500.02, -187500.02, -187500.02, -187500.02, 0.000, 0.000, 0.000, 15:18:45.608
85, 44160.00, 9604.08, -187500.02, -187500.02, -187500.02, -187500.02, -187500.02, -187500.02, 0.000, 0.000, 0.000, 15:18:45.608
86, 44140.69, 9605.13, -187500.02, -187500.02, -187500.02, -187500.02, -187500.02, -187500.02, 0.006, -0.012, 1.026, 15:18:45.608
87, 43949.05, 9437.98, -187500.02, -187500.02, -187500.02, -187500.02, -187500.02, -187500.02, 0.000, 0.000, 0.000, 15:18:45.609
88, 43684.49, 9164.39, -187500.02, -187500.02, -187500.02, -187500.02, -187500.02, -187500.02, 0.000, 0.000, 0.000, 15:18:45.609
89, 43863.09, 9290.12, -187500.02, -187500.02, -187500.02, -187500.02, -187500.02, -187500.02, 0.000, 0.000, 0.000, 15:18:45.609
90, 44134.12, 9580.72, -187500.02, -187500.02, -187500.02, -187500.02, -187500.02, -187500.02, 0.000, 0.000, 0.000, 15:18:45.609
91, 44120.71, 9591.65, -187500.02, -187500.02, -187500.02, -187500.02, -187500.02, -187500.02, 0.000, 0.000, 0.000, 15:18:45.609
92, 43925.63, 9423.90, -187500.02, -187500.02, -187500.02, -187500.02, -187500.02, -187500.02, 0.000, 0.000, 0.000, 15:18:45.609
93, 43678.37, 9168.44, -187500.02, -187500.02, -187500.02, -187500.02, -187500.02, -187500.02, 0.000, 0.000, 0.000, 15:18:45.609
94, 43855.44, 9285.61, -187500.02, -187500.02, -187500.02, -187500.02, -187500.02, -187500.02, 0.000, 0.000, 0.000, 15:18:45.609
95, 44128.82, 9572.92, -187500.02, -187500.02, -187500.02, -187500.02, -187500.02, -187500.02, 0.000, 0.000, 0.000, 15:18:45.610
96, 44118.61, 9587.96, -187500.02, -187500.02, -187500.02, -187500.02, -187500.02, -187500.02, 0.006, -0.014, 1.028, 15:18:45.610
97, 43934.39, 9429.93, -187500.02, -187500.02, -187500.02, -187500.02, -187500.02, -187500.02, 0.000, 0.000, 0.000, 15:18:45.610
98, 43676.40, 9161.04, -187500.02, -187500.02, -187500.02, -187500.02, -187500.02, -187500.02, 0.000, 0.000, 0.000, 15:18:45.610
99, 43856.04, 9284.76, -187500.02, -187500.02, -187500.02, -187500.02, -187500.02, -187500.02, 0.000, 0.000, 0.000, 15:18:45.610
100, 44125.09, 9570.17, -187500.02, -187500.02, -187500.02, -187500.02, -187500.02, -187500.02, 0.000, 0.000, 0.000, 15:18:45.610
101, 44110.47, 9582.17, -187500.02, -187500.02, -187500.02, -187500.02, -187500.02, -187500.02, 0.000, 0.000, 0.000, 15:18:45.610
102, 43927.39, 9424.14, -187500.02, -187500.02, -187500.02, -187500.02, -187500.02, -187500.02, 0.000, 0.000, 0.000, 15:18:45.610
103, 43671.48, 9157.15, -187500.02, -187500.02, -187500.02, -187500.02, -187500.02, -187500.02, 0.000, 0.000, 0.000, 15:18:45.610
104, 43847.24, 9281.85, -187500.02, -187500.02, -187500.02, -187500.02, -187500.02, -187500.02, 0.000, 0.000, 0.000, 15:18:45.611
105, 44123.66, 9574.59, -187500.02, -187500.02, -187500.02, -187500.02, -187500.02, -187500.02, 0.000, 0.000, 0.000, 15:18:45.611
106, 44115.14, 9589.48, -187500.02, -187500.02, -187500.02, -187500.02, -187500.02, -187500.02, 0.006, -0.016, 1.026, 15:18:45.611
107, 43932.55, 9434.42, -187500.02, -187500.02, -187500.02, -187500.02, -187500.02, -187500.02, 0.000, 0.000, 0.000, 15:18:45.611
108, 43675.84, 9171.10, -187500.02, -187500.02, -187500.02, -187500.02, -187500.02, -187500.02, 0.000, 0.000, 0.000, 15:18:45.611
109, 43856.27, 9299.11, -187500.02, -187500.02, -187500.02, -187500.02, -187500.02, -187500.02, 0.000, 0.000, 0.000, 15:18:45.611
110, 44140.43, 9599.00, -187500.02, -187500.02, -187500.02, -187500.02, -187500.02, -187500.02, 0.000, 0.000, 0.000, 15:18:45.611
111, 44139.04, 9619.45, -187500.02, -187500.02, -187500.02, -187500.02, -187500.02, -187500.02, 0.000, 0.000, 0.000, 15:18:45.611
112, 43946.30, 9453.51, -187500.02, -187500.02, -187500.02, -187500.02, -187500.02, -187500.02, 0.000, 0.000, 0.000, 15:18:45.612
113, 43688.81, 9186.66, -187500.02, -187500.02, -187500.02, -187500.02, -187500.02, -187500.02, 0.000, 0.000, 0.000, 15:18:45.612
114, 43867.06, 9310.42, -187500.02, -187500.02, -187500.02, -187500.02, -187500.02, -187500.02, 0.000, 0.000, 0.000, 15:18:45.612
115, 44142.82, 9600.97, -187500.02, -187500.02, -187500.02, -187500.02, -187500.02, -187500.02, 0.000, 0.000, 0.000, 15:18:45.612
116, 44133.32, 9612.10, -187500.02, -187500.02, -187500.02, -187500.02, -187500.02, -187500.02, 0.008, -0.020, 1.028, 15:18:45.612
117, 43952.38, 9457.63, -187500.02, -187500.02, -187500.02, -187500.02, -187500.02, -187500.02, 0.000, 0.000, 0.000, 15:18:45.612
118, 43687.73, 9186.59, -187500.02, -187500.02, -187500.02, -187500.02, -187500.02, -187500.02, 0.000, 0.000, 0.000, 15:18:45.612
119, 43858.21, 9299.53, -187500.02, -187500.02, -187500.02, -187500.02, -187500.02, -187500.02, 0.000, 0.000, 0.000, 15:18:45.612
120, 44151.42, 9605.75, -187500.02, -187500.02, -187500.02, -187500.02, -187500.02, -187500.02, 0.000, 0.000, 0.000, 15:18:46.078
121, 44150.28, 9626.74, -187500.02, -187500.02, -187500.02, -187500.02, -187500.02, -187500.02, 0.000, 0.000, 0.000, 15:18:46.078
122, 43969.39, 9465.61, -187500.02, -187500.02, -187500.02, -187500.02, -187500.02, -187500.02, 0.000, 0.000, 0.000, 15:18:46.078
123, 43708.39, 9191.91, -187500.02, -187500.02, -187500.02, -187500.02, -187500.02, -187500.02, 0.000, 0.000, 0.000, 15:18:46.078
124, 43870.44, 9301.46, -187500.02, -187500.02, -187500.02, -187500.02, -187500.02, -187500.02, 0.000, 0.000, 0.000, 15:18:46.078
125, 44151.76, 9598.20, -187500.02, -187500.02, -187500.02, -187500.02, -187500.02, -187500.02, 0.000, 0.000, 0.000, 15:18:46.079
126, 44151.49, 9619.41, -187500.02, -187500.02, -187500.02, -187500.02, -187500.02, -187500.02, 0.004, -0.020, 1.028, 15:18:46.079
127, 43969.61, 9462.10, -187500.02, -187500.02, -187500.02, -187500.02, -187500.02, -187500.02, 0.000, 0.000, 0.000, 15:18:46.079
128, 43701.13, 9189.52, -187500.02, -187500.02, -187500.02, -187500.02, -187500.02, -187500.02, 0.000, 0.000, 0.000, 15:18:46.079
129, 43860.49, 9300.54, -187500.02, -187500.02, -187500.02, -187500.02, -187500.02, -187500.02, 0.000, 0.000, 0.000, 15:18:46.079
130, 44142.73, 9594.11, -187500.02, -187500.02, -187500.02, -187500.02, -187500.02, -187500.02, 0.000, 0.000, 0.000, 15:18:46.079
131, 44139.57, 9611.16, -187500.02, -187500.02, -187500.02, -187500.02, -187500.02, -187500.02, 0.000, 0.000, 0.000, 15:18:46.080
132, 43962.50, 9458.79, -187500.02, -187500.02, -187500.02, -187500.02, -187500.02, -187500.02, 0.000, 0.000, 0.000, 15:18:46.080
133, 43706.27, 9195.04, -187500.02, -187500.02, -187500.02, -187500.02, -187500.02, -187500.02, 0.000, 0.000, 0.000, 15:18:46.080
134, 43885.30, 9320.59, -187500.02, -187500.02, -187500.02, -187500.02, -187500.02, -187500.02, 0.000, 0.000, 0.000, 15:18:46.080
135, 44162.48, 9614.29, -187500.02, -187500.02, -187500.02, -187500.02, -187500.02, -187500.02, 0.000, 0.000, 0.000, 15:18:46.080
136, 44161.52, 9636.15, -187500.02, -187500.02, -187500.02, -187500.02, -187500.02, -187500.02, 0.004, -0.020, 1.028, 15:18:46.080
137, 43978.44, 9477.09, -187500.02, -187500.02, -187500.02, -187500.02, -187500.02, -187500.02, 0.000, 0.000, 0.000, 15:18:46.080
138, 43722.45, 9211.65, -187500.02, -187500.02, -187500.02, -187500.02, -187500.02, -187500.02, 0.000, 0.000, 0.000, 15:18:46.081
139, 43871.96, 9311.49, -187500.02, -187500.02, -187500.02, -187500.02, -187500.02, -187500.02, 0.000, 0.000, 0.000, 15:18:46.081
140, 44168.72, 9619.72, -187500.02, -187500.02, -187500.02, -187500.02, -187500.02, -187500.02, 0.000, 0.000, 0.000, 15:18:46.081
141, 44172.21, 9647.10, -187500.02, -187500.02, -187500.02, -187500.02, -187500.02, -187500.02, 0.000, 0.000, 0.000, 15:18:46.081
142, 43985.71, 9485.01, -187500.02, -187500.02, -187500.02, -187500.02, -187500.02, -187500.02, 0.000, 0.000, 0.000, 15:18:46.081
143, 43720.19, 9214.42, -187500.02, -187500.02, -187500.02, -187500.02, -187500.02, -187500.02, 0.000, 0.000, 0.000, 15:18:46.081
144, 43878.53, 9320.63, -187500.02, -187500.02, -187500.02, -187500.02, -187500.02, -187500.02, 0.000, 0.000, 0.000, 15:18:46.081
145, 44162.04, 9619.43, -187500.02, -187500.02, -187500.02, -187500.02, -187500.02, -187500.02, 0.000, 0.000, 0.000, 15:18:46.082
146, 44160.74, 9637.02, -187500.02, -187500.02, -187500.02, -187500.02, -187500.02, -187500.02, 0.004, -0.018, 1.032, 15:18:46.082
147, 43980.97, 9481.97, -187500.02, -187500.02, -187500.02, -187500.02, -187500.02, -187500.02, 0.000, 0.000, 0.000, 15:18:46.082
148, 43709.15, 9207.33, -187500.02, -187500.02, -187500.02, -187500.02, -187500.02, -187500.02, 0.000, 0.000, 0.000, 15:18:46.082
149, 43878.73, 9319.92, -187500.02, -187500.02, -187500.02, -187500.02, -187500.02, -187500.02, 0.000, 0.000, 0.000, 15:18:46.082
150, 44167.52, 9624.68, -187500.02, -187500.02, -187500.02, -187500.02, -187500.02, -187500.02, 0.000, 0.000, 0.000, 15:18:46.082
151, 44153.81, 9637.33, -187500.02, -187500.02, -187500.02, -187500.02, -187500.02, -187500.02, 0.000, 0.000, 0.000, 15:18:46.082
152, 43975.67, 9483.51, -187500.02, -187500.02, -187500.02, -187500.02, -187500.02, -187500.02, 0.000, 0.000, 0.000, 15:18:46.082
153, 43705.88, 9208.65, -187500.02, -187500.02, -187500.02, -187500.02, -187500.02, -187500.02, 0.000, 0.000, 0.000, 15:18:46.083
154, 43845.63, 9295.00, -187500.02, -187500.02, -187500.02, -187500.02, -187500.02, -187500.02, 0.000, 0.000, 0.000, 15:18:46.083
155, 44139.13, 9598.35, -187500.02, -187500.02, -187500.02, -187500.02, -187500.02, -187500.02, 0.000, 0.000, 0.000, 15:18:46.083
156, 44138.75, 9620.46, -187500.02, -187500.02, -187500.02, -187500.02, -187500.02, -187500.02, 0.008, -0.014, 1.028, 15:18:46.083
157, 43959.60, 9464.09, -187500.02, -187500.02, -187500.02, -187500.02, -187500.02, -187500.02, 0.000, 0.000, 0.000, 15:18:46.083
158, 43697.97, 9192.58, -187500.02, -187500.02, -187500.02, -187500.02, -187500.02, -187500.02, 0.000, 0.000, 0.000, 15:18:46.083
159, 43843.23, 9283.06, -187500.02, -187500.02, -187500.02, -187500.02, -187500.02, -187500.02, 0.000, 0.000, 0.000, 15:18:46.083
160, 44130.57, 9584.74, -187500.02, -187500.02, -187500.02, -187500.02, -187500.02, -187500.02, 0.000, 0.000, 0.000, 15:18:46.083
161, 44144.09, 9619.16, -187500.02, -187500.02, -187500.02, -187500.02, -187500.02, -187500.02, 0.000, 0.000, 0.000, 15:18:46.084
162, 43970.75, 9468.58, -187500.02, -187500.02, -187500.02, -187500.02, -187500.02, -187500.02, 0.000, 0.000, 0.000, 15:18:46.084
163, 43698.42, 9192.89, -187500.02, -187500.02, -187500.02, -187500.02, -187500.02, -187500.02, 0.000, 0.000, 0.000, 15:18:46.084
164, 43848.38, 9290.61, -187500.02, -187500.02, -187500.02, -187500.02, -187500.02, -187500.02, 0.000, 0.000, 0.000, 15:18:46.084
165, 44150.75, 9605.66, -187500.02, -187500.02, -187500.02, -187500.02, -187500.02, -187500.02, 0.004, -0.014, 1.028, 15:18:46.084
166, 44155.49, 9635.81, -187500.02, -187500.02, -187500.02, -187500.02, -187500.02, -187500.02, 0.000, 0.000, 0.000, 15:18:46.084
167, 43974.33, 9480.18, -187500.02, -187500.02, -187500.02, -187500.02, -187500.02, -187500.02, 0.000, 0.000, 0.000, 15:18:46.084
168, 43712.99, 9208.11, -187500.02, -187500.02, -187500.02, -187500.02, -187500.02, -187500.02, 0.000, 0.000, 0.000, 15:18:46.084
169, 43868.85, 9307.47, -187500.02, -187500.02, -187500.02, -187500.02, -187500.02, -187500.02, 0.000, 0.000, 0.000, 15:18:46.085
170, 44164.56, 9616.57, -187500.02, -187500.02, -187500.02, -187500.02, -187500.02, -187500.02, 0.000, 0.000, 0.000, 15:18:46.085
171, 44164.05, 9643.46, -187500.02, -187500.02, -187500.02, -187500.02, -187500.02, -187500.02, 0.000, 0.000, 0.000, 15:18:46.085
172, 43990.27, 9490.55, -187500.02, -187500.02, -187500.02, -187500.02, -187500.02, -187500.02, 0.000, 0.000, 0.000, 15:18:46.085
173, 43712.55, 9209.39, -187500.02, -187500.02, -187500.02, -187500.02, -187500.02, -187500.02, 0.000, 0.000, 0.000, 15:18:46.085
174, 43852.29, 9297.79, -187500.02, -187500.02, -187500.02, -187500.02, -187500.02, -187500.02, 0.000, 0.000, 0.000, 15:18:46.085
175, 44138.57, 9597.46, -187500.02, -187500.02, -187500.02, -187500.02, -187500.02, -187500.02, 0.004, -0.014, 1.032, 15:18:46.085
176, 44145.21, 9628.15, -187500.02, -187500.02, -187500.02, -187500.02, -187500.02, -187500.02, 0.000, 0.000, 0.000, 15:18:46.085
177, 43974.46, 9478.15, -187500.02, -187500.02, -187500.02, -187500.02, -187500.02, -187500.02, 0.000, 0.000, 0.000, 15:18:46.085
178, 43709.75, 9210.17, -187500.02, -187500.02, -187500.02, -187500.02, -187500.02, -187500.02, 0.000, 0.000, 0.000, 15:18:46.086
179, 43860.67, 9307.98, -187500.02, -187500.02, -187500.02, -187500.02, -187500.02, -187500.02, 0.000, 0.000, 0.000, 15:18:46.086
180, 44140.00, 9600.36, -187500.02, -187500.02, -187500.02, -187500.02, -187500.02, -187500.02, 0.000, 0.000, 0.000, 15:18:46.086
181, 44139.17, 9625.62, -187500.02, -187500.02, -187500.02, -187500.02, -187500.02, -187500.02, 0.000, 0.000, 0.000, 15:18:46.086
182, 43968.20, 9474.43, -187500.02, -187500.02, -187500.02, -187500.02, -187500.02, -187500.02, 0.000, 0.000, 0.000, 15:18:46.086
183, 43703.65, 9201.03, -187500.02, -187500.02, -187500.02, -187500.02, -187500.02, -187500.02, 0.000, 0.000, 0.000, 15:18:46.086
184, 43856.33, 9300.31, -187500.02, -187500.02, -187500.02, -187500.02, -187500.02, -187500.02, 0.000, 0.000, 0.000, 15:18:46.086
185, 44143.31, 9596.92, -187500.02, -187500.02, -187500.02, -187500.02, -187500.02, -187500.02, 0.006, -0.016, 1.030, 15:18:46.086
186, 44154.04, 9628.71, -187500.02, -187500.02, -187500.02, -187500.02, -187500.02, -187500.02, 0.000, 0.000, 0.000, 15:18:46.087
187, 43980.23, 9480.87, -187500.02, -187500.02, -187500.02, -187500.02, -187500.02, -187500.02, 0.000, 0.000, 0.000, 15:18:46.087
188, 43703.83, 9203.31, -187500.02, -187500.02, -187500.02, -187500.02, -187500.02, -187500.02, 0.000, 0.000, 0.000, 15:18:46.087
189, 43847.80, 9293.50, -187500.02, -187500.02, -187500.02, -187500.02, -187500.02, -187500.02, 0.000, 0.000, 0.000, 15:18:46.087
190, 44143.91, 9601.64, -187500.02, -187500.02, -187500.02, -187500.02, -187500.02, -187500.02, 0.000, 0.000, 0.000, 15:18:46.087
191, 44149.59, 9636.73, -187500.02, -187500.02, -187500.02, -187500.02, -187500.02, -187500.02, 0.000, 0.000, 0.000, 15:18:46.087
192, 43975.25, 9483.69, -187500.02, -187500.02, -187500.02, -187500.02, -187500.02, -187500.02, 0.000, 0.000, 0.000, 15:18:46.087
193, 43719.74, 9222.17, -187500.02, -187500.02, -187500.02, -187500.02, -187500.02, -187500.02, 0.000, 0.000, 0.000, 15:18:46.087
194, 43870.84, 9317.64, -187500.02, -187500.02, -187500.02, -187500.02, -187500.02, -187500.02, 0.000, 0.000, 0.000, 15:18:46.088
195, 44168.59, 9624.26, -187500.02, -187500.02, -187500.02, -187500.02, -187500.02, -187500.02, 0.008, -0.020, 1.028, 15:18:46.088
196, 44161.73, 9643.59, -187500.02, -187500.02, -187500.02, -187500.02, -187500.02, -187500.02, 0.000, 0.000, 0.000, 15:18:46.088
197, 43986.93, 9490.06, -187500.02, -187500.02, -187500.02, -187500.02, -187500.02, -187500.02, 0.000, 0.000, 0.000, 15:18:46.088
198, 43727.90, 9223.22, -187500.02, -187500.02, -187500.02, -187500.02, -187500.02, -187500.02, 0.000, 0.000, 0.000, 15:18:46.088
199, 43868.11, 9310.19, -187500.02, -187500.02, -187500.02, -187500.02, -187500.02, -187500.02, 0.000, 0.000, 0.000, 15:18:46.088
200, 44149.30, 9607.47, -187500.02, -187500.02, -187500.02, -187500.02, -187500.02, -187500.02, 0.000, 0.000, 0.000, 15:18:46.088
201, 44144.47, 9628.64, -187500.02, -187500.02, -187500.02, -187500.02, -187500.02, -187500.02, 0.000, 0.000, 0.000, 15:18:46.089
202, 43975.63, 9482.24, -187500.02, -187500.02, -187500.02, -187500.02, -187500.02, -187500.02, 0.000, 0.000, 0.000, 15:18:46.089
203, 43701.53, 9210.06, -187500.02, -187500.02, -187500.02, -187500.02, -187500.02, -187500.02, 0.000, 0.000, 0.000, 15:18:46.089
204, 43844.53, 9294.68, -187500.02, -187500.02, -187500.02, -187500.02, -187500.02, -187500.02, 0.000, 0.000, 0.000, 15:18:46.089
205, 44138.79, 9593.44, -187500.02, -187500.02, -187500.02, -187500.02, -187500.02, -187500.02, 0.006, -0.016, 1.028, 15:18:46.089
206, 44146.44, 9625.24, -187500.02, -187500.02, -187500.02, -187500.02, -187500.02, -187500.02, 0.000, 0.000, 0.000, 15:18:46.089
207, 43982.24, 9480.34, -187500.02, -187500.02, -187500.02, -187500.02, -187500.02, -187500.02, 0.000, 0.000, 0.000, 15:18:46.089
208, 43711.81, 9203.06, -187500.02, -187500.02, -187500.02, -187500.02, -187500.02, -187500.02, 0.000, 0.000, 0.000, 15:18:46.089
209, 43839.17, 9274.74, -187500.02, -187500.02, -187500.02, -187500.02, -187500.02, -187500.02, 0.000, 0.000, 0.000, 15:18:46.089
210, 44142.28, 9591.96, -187500.02, -187500.02, -187500.02, -187500.02, -187500.02, -187500.02, 0.000, 0.000, 0.000, 15:18:46.090
211, 44155.82, 9632.66, -187500.02, -187500.02, -187500.02, -187500.02, -187500.02, -187500.02, 0.000, 0.000, 0.000, 15:18:46.090
212, 43980.14, 9479.60, -187500.02, -187500.02, -187500.02, -187500.02, -187500.02, -187500.02, 0.000, 0.000, 0.000, 15:18:46.090
213, 43709.33, 9206.01, -187500.02, -187500.02, -187500.02, -187500.02, -187500.02, -187500.02, 0.000, 0.000, 0.000, 15:18:46.090
214, 43845.45, 9286.32, -187500.02, -187500.02, -187500.02, -187500.02, -187500.02, -187500.02, 0.000, 0.000, 0.000, 15:18:46.090
215, 44152.23, 9602.22, -187500.02, -187500.02, -187500.02, -187500.02, -187500.02, -187500.02, 0.008, -0.014, 1.028, 15:18:46.090
216, 44162.08, 9639.88, -187500.02, -187500.02, -187500.02, -187500.02, -187500.02, -187500.02, 0.000, 0.000, 0.000, 15:18:46.090
217, 43983.16, 9482.68, -187500.02, -187500.02, -187500.02, -187500.02, -187500.02, -187500.02, 0.000, 0.000, 0.000, 15:18:46.090
218, 43710.22, 9206.84, -187500.02, -187500.02, -187500.02, -187500.02, -187500.02, -187500.02, 0.000, 0.000, 0.000, 15:18:46.091
219, 43857.83, 9300.52, -187500.02, -187500.02, -187500.02, -187500.02, -187500.02, -187500.02, 0.000, 0.000, 0.000, 15:18:46.091
220, 44148.02, 9608.46, -187500.02, -187500.02, -187500.02, -187500.02, -187500.02, -187500.02, 0.000, 0.000, 0.000, 15:18:46.091
221, 44150.71, 9636.28, -187500.02, -187500.02, -187500.02, -187500.02, -187500.02, -187500.02, 0.000, 0.000, 0.000, 15:18:46.091
222, 43969.48, 9475.28, -187500.02, -187500.02, -187500.02, -187500.02, -187500.02, -187500.02, 0.000, 0.000, 0.000, 15:18:46.091
223, 43697.73, 9201.01, -187500.02, -187500.02, -187500.02, -187500.02, -187500.02, -187500.02, 0.000, 0.000, 0.000, 15:18:46.091
224, 43838.86, 9288.74, -187500.02, -187500.02, -187500.02, -187500.02, -187500.02, -187500.02, 0.000, 0.000, 0.000, 15:18:46.091
225, 44138.17, 9599.65, -187500.02, -187500.02, -187500.02, -187500.02, -187500.02, -187500.02, 0.010, -0.018, 1.024, 15:18:46.091
226, 44149.59, 9637.42, -187500.02, -187500.02, -187500.02, -187500.02, -187500.02, -187500.02, 0.000, 0.000, 0.000, 15:18:46.092
227, 43977.23, 9487.49, -187500.02, -187500.02, -187500.02, -187500.02, -187500.02, -187500.02, 0.000, 0.000, 0.000, 15:18:46.092
228, 43702.20, 9204.83, -187500.02, -187500.02, -187500.02, -187500.02, -187500.02, -187500.02, 0.000, 0.000, 0.000, 15:18:46.092
229, 43839.73, 9286.26, -187500.02, -187500.02, -187500.02, -187500.02, -187500.02, -187500.02, 0.000, 0.000, 0.000, 15:18:46.092
230, 44150.82, 9608.81, -187500.02, -187500.02, -187500.02, -187500.02, -187500.02, -187500.02, 0.000, 0.000, 0.000, 15:18:46.092
231, 44152.50, 9635.23, -187500.02, -187500.02, -187500.02, -187500.02, -187500.02, -187500.02, 0.000, 0.000, 0.000, 15:18:46.092
232, 43979.80, 9485.10, -187500.02, -187500.02, -187500.02, -187500.02, -187500.02, -187500.02, 0.000, 0.000, 0.000, 15:18:46.092
233, 43699.27, 9208.29, -187500.02, -187500.02, -187500.02, -187500.02, -187500.02, -187500.02, 0.000, 0.000, 0.000, 15:18:46.092
234, 43835.93, 9286.32, -187500.02, -187500.02, -187500.02, -187500.02, -187500.02, -187500.02, 0.000, 0.000, 0.000, 15:18:46.093
235, 44140.67, 9597.08, -187500.02, -187500.02, -187500.02, -187500.02, -187500.02, -187500.02, 0.010, -0.014, 1.018, 15:18:46.093
236, 44154.89, 9638.09, -187500.02, -187500.02, -187500.02, -187500.02, -187500.02, -187500.02, 0.000, 0.000, 0.000, 15:18:46.093
237, 43987.49, 9495.11, -187500.02, -187500.02, -187500.02, -187500.02, -187500.02, -187500.02, 0.000, 0.000, 0.000, 15:18:46.093
238, 43705.71, 9211.15, -187500.02, -187500.02, -187500.02, -187500.02, -187500.02, -187500.02, 0.000, 0.000, 0.000, 15:18:46.093
239, 43826.72, 9280.58, -187500.02, -187500.02, -187500.02, -187500.02, -187500.02, -187500.02, 0.000, 0.000, 0.000, 15:18:46.093
240, 44127.71, 9589.14, -187500.02, -187500.02, -187500.02, -187500.02, -187500.02, -187500.02, 0.000, 0.000, 0.000, 15:18:46.558
241, 44142.93, 9628.04, -187500.02, -187500.02, -187500.02, -187500.02, -187500.02, -187500.02, 0.000, 0.000, 0.000, 15:18:46.558
242, 43967.87, 9478.97, -187500.02, -187500.02, -187500.02, -187500.02, -187500.02, -187500.02, 0.000, 0.000, 0.000, 15:18:46.558
243, 43693.43, 9207.55, -187500.02, -187500.02, -187500.02, -187500.02, -187500.02, -187500.02, 0.000, 0.000, 0.000, 15:18:46.558
244, 43822.89, 9287.42, -187500.02, -187500.02, -187500.02, -187500.02, -187500.02, -187500.02, 0.000, 0.000, 0.000, 15:18:46.559
245, 44124.42, 9604.86, -187500.02, -187500.02, -187500.02, -187500.02, -187500.02, -187500.02, 0.008, -0.012, 1.016, 15:18:46.559
246, 44139.53, 9644.62, -187500.02, -187500.02, -187500.02, -187500.02, -187500.02, -187500.02, 0.000, 0.000, 0.000, 15:18:46.559
247, 43968.25, 9492.90, -187500.02, -187500.02, -187500.02, -187500.02, -187500.02, -187500.02, 0.000, 0.000, 0.000, 15:18:46.559
248, 43696.47, 9215.69, -187500.02, -187500.02, -187500.02, -187500.02, -187500.02, -187500.02, 0.000, 0.000, 0.000, 15:18:46.559
249, 43824.13, 9284.65, -187500.02, -187500.02, -187500.02, -187500.02, -187500.02, -187500.02, 0.000, 0.000, 0.000, 15:18:46.559
250, 44128.51, 9597.37, -187500.02, -187500.02, -187500.02, -187500.02, -187500.02, -187500.02, 0.000, 0.000, 0.000, 15:18:46.559
251, 44151.80, 9647.53, -187500.02, -187500.02, -187500.02, -187500.02, -187500.02, -187500.02, 0.000, 0.000, 0.000, 15:18:46.559
252, 43990.58, 9507.81, -187500.02, -187500.02, -187500.02, -187500.02, -187500.02, -187500.02, 0.000, 0.000, 0.000, 15:18:46.560
253, 43725.33, 9242.65, -187500.02, -187500.02, -187500.02, -187500.02, -187500.02, -187500.02, 0.000, 0.000, 0.000, 15:18:46.560
254, 43844.38, 9310.48, -187500.02, -187500.02, -187500.02, -187500.02, -187500.02, -187500.02, 0.000, 0.000, 0.000, 15:18:46.560
255, 44144.31, 9623.03, -187500.02, -187500.02, -187500.02, -187500.02, -187500.02, -187500.02, 0.008, -0.010, 1.018, 15:18:46.560
0, 44168.16, 9667.73, -187500.02, -187500.02, -187500.02, -187500.02, -187500.02, -187500.02, 0.000, 0.000, 0.000, 15:18:46.560
1, 44009.98, 9528.15, -187500.02, -187500.02, -187500.02, -187500.02, -187500.02, -187500.02, 0.000, 0.000, 0.000, 15:18:46.560
2, 43738.96, 9257.65, -187500.02, -187500.02, -187500.02, -187500.02, -187500.02, -187500.02, 0.000, 0.000, 0.000, 15:18:46.560
3, 43863.75, 9329.60, -187500.02, -187500.02, -187500.02, -187500.02, -187500.02, -187500.02, 0.000, 0.000, 0.000, 15:18:46.560
4, 44156.09, 9625.80, -187500.02, -187500.02, -187500.02, -187500.02, -187500.02, -187500.02, 0.000, 0.000, 0.000, 15:18:46.561
5, 44175.23, 9667.71, -187500.02, -187500.02, -187500.02, -187500.02, -187500.02, -187500.02, 0.000, 0.000, 0.000, 15:18:46.561
6, 44004.77, 9521.84, -187500.02, -187500.02, -187500.02, -187500.02, -187500.02, -187500.02, 0.000, 0.000, 0.000, 15:18:46.561
7, 43738.05, 9250.92, -187500.02, -187500.02, -187500.02, -187500.02, -187500.02, -187500.02, 0.000, 0.000, 0.000, 15:18:46.561
8, 43865.79, 9320.86, -187500.02, -187500.02, -187500.02, -187500.02, -187500.02, -187500.02, 0.000, 0.000, 0.000, 15:18:46.561
9, 44156.00, 9619.65, -187500.02, -187500.02, -187500.02, -187500.02, -187500.02, -187500.02, 0.008, -0.008, 1.024, 15:18:46.561
10, 44160.36, 9648.42, -187500.02, -187500.02, -187500.02, -187500.02, -187500.02, -187500.02, 0.000, 0.000, 0.000, 15:18:46.561
11, 43998.47, 9508.81, -187500.02, -187500.02, -187500.02, -187500.02, -187500.02, -187500.02, 0.000, 0.000, 0.000, 15:18:46.561
12, 43713.77, 9227.89, -187500.02, -187500.02, -187500.02, -187500.02, -187500.02, -187500.02, 0.000, 0.000, 0.000, 15:18:46.561
13, 43831.10, 9292.87, -187500.02, -187500.02, -187500.02, -187500.02, -187500.02, -187500.02, 0.000, 0.000, 0.000, 15:18:46.562
14, 44141.43, 9607.25, -187500.02, -187500.02, -187500.02, -187500.02, -187500.02, -187500.02, 0.000, 0.000, 0.000, 15:18:46.562
15, 44163.83, 9651.68, -187500.02, -187500.02, -187500.02, -187500.02, -187500.02, -187500.02, 0.000, 0.000, 0.000, 15:18:46.562
16, 43990.98, 9501.39, -187500.02, -187500.02, -187500.02, -187500.02, -187500.02, -187500.02, 0.000, 0.000, 0.000, 15:18:46.562
17, 43710.36, 9221.73, -187500.02, -187500.02, -187500.02, -187500.02, -187500.02, -187500.02, 0.000, 0.000, 0.000, 15:18:46.562
18, 43834.50, 9291.53, -187500.02, -187500.02, -187500.02, -187500.02, -187500.02, -187500.02, 0.000, 0.000, 0.000, 15:18:46.562
19, 44139.87, 9603.87, -187500.02, -187500.02, -187500.02, -187500.02, -187500.02, -187500.02, 0.006, -0.008, 1.020, 15:18:46.562
20, 44154.28, 9646.19, -187500.02, -187500.02, -187500.02, -187500.02, -187500.02, -187500.02, 0.000, 0.000, 0.000, 15:18:46.562
21, 43987.47, 9500.38, -187500.02, -187500.02, -187500.02, -187500.02, -187500.02, -187500.02, 0.000, 0.000, 0.000, 15:18:46.563
22, 43717.29, 9229.01, -187500.02, -187500.02, -187500.02, -187500.02, -187500.02, -187500.02, 0.000, 0.000, 0.000, 15:18:46.563
23, 43834.72, 9296.89, -187500.02, -187500.02, -187500.02, -187500.02, -187500.02, -187500.02, 0.000, 0.000, 0.000, 15:18:46.563
24, 44143.20, 9615.05, -187500.02, -187500.02, -187500.02, -187500.02, -187500.02, -187500.02, 0.000, 0.000, 0.000, 15:18:46.563
25, 44164.72, 9664.18, -187500.02, -187500.02, -187500.02, -187500.02, -187500.02, -187500.02, 0.000, 0.000, 0.000, 15:18:46.563
26, 44008.71, 9525.44, -187500.02, -187500.02, -187500.02, -187500.02, -187500.02, -187500.02, 0.000, 0.000, 0.000, 15:18:46.563
27, 43731.41, 9249.62, -187500.02, -187500.02, -187500.02, -187500.02, -187500.02, -187500.02, 0.000, 0.000, 0.000, 15:18:46.563
28, 43852.87, 9317.30, -187500.02, -187500.02, -187500.02, -187500.02, -187500.02, -187500.02, 0.000, 0.000, 0.000, 15:18:46.564
29, 44157.86, 9627.12, -187500.02, -187500.02, -187500.02, -187500.02, -187500.02, -187500.02, 0.010, -0.012, 1.018, 15:18:46.564
30, 44179.32, 9670.91, -187500.02, -187500.02, -187500.02, -187500.02, -187500.02, -187500.02, 0.000, 0.000, 0.000, 15:18:46.564
31, 44024.20, 9535.30, -187500.02, -187500.02, -187500.02, -187500.02, -187500.02, -187500.02, 0.000, 0.000, 0.000, 15:18:46.564
32, 43744.26, 9257.53, -187500.02, -187500.02, -187500.02, -187500.02, -187500.02, -187500.02, 0.000, 0.000, 0.000, 15:18:46.564
33, 43858.32, 9317.53, -187500.02, -187500.02, -187500.02, -187500.02, -187500.02, -187500.02, 0.000, 0.000, 0.000, 15:18:46.564
34, 44163.94, 9629.09, -187500.02, -187500.02, -187500.02, -187500.02, -187500.02, -187500.02, 0.000, 0.000, 0.000, 15:18:46.564
35, 44172.59, 9664.85, -187500.02, -187500.02, -187500.02, -187500.02, -187500.02, -187500.02, 0.000, 0.000, 0.000, 15:18:46.565
36, 44012.95, 9530.14, -187500.02, -187500.02, -187500.02, -187500.02, -187500.02, -187500.02, 0.000, 0.000, 0.000, 15:18:46.565
37, 43728.71, 9249.89, -187500.02, -187500.02, -187500.02, -187500.02, -187500.02, -187500.02, 0.000, 0.000, 0.000, 15:18:46.565
38, 43830.14, 9294.37, -187500.02, -187500.02, -187500.02, -187500.02, -187500.02, -187500.02, 0.014, -0.014, 1.024, 15:18:46.565
39, 44138.73, 9610.15, -187500.02, -187500.02, -187500.02, -187500.02, -187500.02, -187500.02, 0.000, 0.000, 0.000, 15:18:46.565
40, 44160.47, 9655.75, -187500.02, -187500.02, -187500.02, -187500.02, -187500.02, -187500.02, 0.000, 0.000, 0.000, 15:18:46.565
41, 44002.89, 9520.46, -187500.02, -187500.02, -187500.02, -187500.02, -187500.02, -187500.02, 0.000, 0.000, 0.000, 15:18:46.565
42, 43722.87, 9245.04, -187500.02, -187500.02, -187500.02, -187500.02, -187500.02, -187500.02, 0.000, 0.000, 0.000, 15:18:46.565
43, 43819.83, 9289.00, -187500.02, -187500.02, -187500.02, -187500.02, -187500.02, -187500.02, 0.000, 0.000, 0.000, 15:18:46.565
44, 44131.51, 9604.41, -187500.02, -187500.02, -187500.02, -187500.02, -187500.02, -187500.02, 0.000, 0.000, 0.000, 15:18:46.566
45, 44147.69, 9648.42, -187500.02, -187500.02, -187500.02, -187500.02, -187500.02, -187500.02, 0.000, 0.000, 0.000, 15:18:46.566
46, 43981.50, 9510.17, -187500.02, -187500.02, -187500.02, -187500.02, -187500.02, -187500.02, 0.000, 0.000, 0.000, 15:18:46.566
47, 43710.46, 9237.82, -187500.02, -187500.02, -187500.02, -187500.02, -187500.02, -187500.02, 0.000, 0.000, 0.000, 15:18:46.566
48, 43829.33, 9298.39, -187500.02, -187500.02, -187500.02, -187500.02, -187500.02, -187500.02, 0.012, -0.012, 1.030, 15:18:46.566
49, 44142.19, 9620.62, -187500.02, -187500.02, -187500.02, -187500.02, -187500.02, -187500.02, 0.000, 0.000, 0.000, 15:18:46.566
50, 44159.80, 9668.78, -187500.02, -187500.02, -187500.02, -187500.02, -187500.02, -187500.02, 0.000, 0.000, 0.000, 15:18:46.566
51, 44007.32, 9535.28, -187500.02, -187500.02, -187500.02, -187500.02, -187500.02, -187500.02, 0.000, 0.000, 0.000, 15:18:46.566
52, 43726.14, 9252.86, -187500.02, -187500.02, -187500.02, -187500.02, -187500.02, -187500.02, 0.000, 0.000, 0.000, 15:18:46.567
53, 43832.06, 9303.26, -187500.02, -187500.02, -187500.02, -187500.02, -187500.02, -187500.02, 0.000, 0.000, 0.000, 15:18:46.567
54, 44131.13, 9607.81, -187500.02, -187500.02, -187500.02, -187500.02, -187500.02, -187500.02, 0.000, 0.000, 0.000, 15:18:46.567
55, 44155.49, 9660.07, -187500.02, -187500.02, -187500.02, -187500.02, -187500.02, -187500.02, 0.000, 0.000, 0.000, 15:18:46.567
56, 43995.70, 9524.59, -187500.02, -187500.02, -187500.02, -187500.02, -187500.02, -187500.02, 0.000, 0.000, 0.000, 15:18:46.567
57, 43723.39, 9256.19, -187500.02, -187500.02, -187500.02, -187500.02, -187500.02, -187500.02, 0.000, 0.000, 0.000, 15:18:46.567
58, 43823.54, 9306.17, -187500.02, -187500.02, -187500.02, -187500.02, -187500.02, -187500.02, 0.010, -0.014, 1.028, 15:18:46.567
59, 44126.07, 9612.50, -187500.02, -187500.02, -187500.02, -187500.02, -187500.02, -187500.02, 0.000, 0.000, 0.000, 15:18:46.568
60, 44150.80, 9663.13, -187500.02, -187500.02, -187500.02, -187500.02, -187500.02, -187500.02, 0.000, 0.000, 0.000, 15:18:46.568
61, 43980.88, 9515.27, -187500.02, -187500.02, -187500.02, -187500.02, -187500.02, -187500.02, 0.000, 0.000, 0.000, 15:18:46.568
62, 43696.61, 9238.94, -187500.02, -187500.02, -187500.02, -187500.02, -187500.02, -187500.02, 0.000, 0.000, 0.000, 15:18:46.568
63, 43794.31, 9283.71, -187500.02, -187500.02, -187500.02, -187500.02, -187500.02, -187500.02, 0.000, 0.000, 0.000, 15:18:46.568
64, 44098.27, 9593.50, -187500.02, -187500.02, -187500.02, -187500.02, -187500.02, -187500.02, 0.000, 0.000, 0.000, 15:18:46.568
65, 44132.42, 9654.14, -187500.02, -187500.02, -187500.02, -187500.02, -187500.02, -187500.02, 0.000, 0.000, 0.000, 15:18:46.568
66, 43972.54, 9516.79, -187500.02, -187500.02, -187500.02, -187500.02, -187500.02, -187500.02, 0.000, 0.000, 0.000, 15:18:46.568
67, 43680.65, 9233.39, -187500.02, -187500.02, -187500.02, -187500.02, -187500.02, -187500.02, 0.000, 0.000, 0.000, 15:18:46.569
68, 43791.13, 9287.10, -187500.02, -187500.02, -187500.02, -187500.02, -187500.02, -187500.02, 0.008, -0.012, 1.028, 15:18:46.569
69, 44101.89, 9605.15, -187500.02, -187500.02, -187500.02, -187500.02, -187500.02, -187500.02, 0.000, 0.000, 0.000, 15:18:46.569
70, 44122.52, 9649.87, -187500.02, -187500.02, -187500.02, -187500.02, -187500.02, -187500.02, 0.000, 0.000, 0.000, 15:18:46.569
71, 43964.47, 9512.46, -187500.02, -187500.02, -187500.02, -187500.02, -187500.02, -187500.02, 0.000, 0.000, 0.000, 15:18:46.569
72, 43682.91, 9236.84, -187500.02, -187500.02, -187500.02, -187500.02, -187500.02, -187500.02, 0.000, 0.000, 0.000, 15:18:46.569
73, 43789.82, 9284.31, -187500.02, -187500.02, -187500.02, -187500.02, -187500.02, -187500.02, 0.000, 0.000, 0.000, 15:18:46.569
74, 44107.97, 9612.32, -187500.02, -187500.02, -187500.02, -187500.02, -187500.02, -187500.02, 0.000, 0.000, 0.000, 15:18:46.569
75, 44134.21, 9671.53, -187500.02, -187500.02, -187500.02, -187500.02, -187500.02, -187500.02, 0.000, 0.000, 0.000, 15:18:46.570
76, 43977.12, 9533.64, -187500.02, -187500.02, -187500.02, -187500.02, -187500.02, -187500.02, 0.000, 0.000, 0.000, 15:18:46.570
77, 43705.79, 9265.65, -187500.02, -187500.02, -187500.02, -187500.02, -187500.02, -187500.02, 0.000, 0.000, 0.000, 15:18:46.570
78, 43806.04, 9310.60, -187500.02, -187500.02, -187500.02, -187500.02, -187500.02, -187500.02, 0.006, -0.014, 1.026, 15:18:46.570
79, 44118.27, 9629.09, -187500.02, -187500.02, -187500.02, -187500.02, -187500.02, -187500.02, 0.000, 0.000, 0.000, 15:18:46.570
80, 44159.49, 9698.73, -187500.02, -187500.02, -187500.02, -187500.02, -187500.02, -187500.02, 0.000, 0.000, 0.000, 15:18:46.570
81, 44013.29, 9576.22, -187500.02, -187500.02, -187500.02, -187500.02, -187500.02, -187500.02, 0.000, 0.000, 0.000, 15:18:46.570
82, 43729.36, 9303.09, -187500.02, -187500.02, -187500.02, -187500.02, -187500.02, -187500.02, 0.000, 0.000, 0.000, 15:18:46.570
83, 43822.45, 9339.16, -187500.02, -187500.02, -187500.02, -187500.02, -187500.02, -187500.02, 0.000, 0.000, 0.000, 15:18:46.570
84, 44132.49, 9644.75, -187500.02, -187500.02, -187500.02, -187500.02, -187500.02, -187500.02, 0.000, 0.000, 0.000, 15:18:46.571
85, 44152.09, 9680.18, -187500.02, -187500.02, -187500.02, -187500.02, -187500.02, -187500.02, 0.000, 0.000, 0.000, 15:18:46.571
86, 43995.14, 9537.18, -187500.02, -187500.02, -187500.02, -187500.02, -187500.02, -187500.02, 0.000, 0.000, 0.000, 15:18:46.571
87, 43709.19, 9251.30, -187500.02, -187500.02, -187500.02, -187500.02, -187500.02, -187500.02, 0.000, 0.000, 0.000, 15:18:46.571
88, 43794.69, 9282.59, -187500.02, -187500.02, -187500.02, -187500.02, -187500.02, -187500.02, 0.006, -0.016, 1.022, 15:18:46.571
89, 44117.38, 9607.32, -187500.02, -187500.02, -187500.02, -187500.02, -187500.02, -187500.02, 0.000, 0.000, 0.000, 15:18:46.571
90, 44147.11, 9665.70, -187500.02, -187500.02, -187500.02, -187500.02, -187500.02, -187500.02, 0.000, 0.000, 0.000, 15:18:46.572
91, 43996.59, 9535.50, -187500.02, -187500.02, -187500.02, -187500.02, -187500.02, -187500.02, 0.000, 0.000, 0.000, 15:18:46.572
92, 43712.95, 9258.49, -187500.02, -187500.02, -187500.02, -187500.02, -187500.02, -187500.02, 0.000, 0.000, 0.000, 15:18:46.572
93, 43798.46, 9290.30, -187500.02, -187500.02, -187500.02, -187500.02, -187500.02, -187500.02, 0.000, 0.000, 0.000, 15:18:46.572
94, 44117.27, 9610.91, -187500.02, -187500.02, -187500.02, -187500.02, -187500.02, -187500.02, 0.000, 0.000, 0.000, 15:18:46.572
95, 44156.56, 9678.35, -187500.02, -187500.02, -187500.02, -187500.02, -187500.02, -187500.02, 0.000, 0.000, 0.000, 15:18:46.572
96, 44005.40, 9553.20, -187500.02, -187500.02, -187500.02, -187500.02, -187500.02, -187500.02, 0.000, 0.000, 0.000, 15:18:46.573
97, 43723.03, 9273.74, -187500.02, -187500.02, -187500.02, -187500.02, -187500.02, -187500.02, 0.000, 0.000, 0.000, 15:18:46.573
98, 43808.77, 9302.59, -187500.02, -187500.02, -187500.02, -187500.02, -187500.02, -187500.02, 0.006, -0.016, 1.028, 15:18:46.573
99, 44119.77, 9615.76, -187500.02, -187500.02, -187500.02, -187500.02, -187500.02, -187500.02, 0.000, 0.000, 0.000, 15:18:46.573
100, 44159.31, 9676.61, -187500.02, -187500.02, -187500.02, -187500.02, -187500.02, -187500.02, 0.000, 0.000, 0.000, 15:18:46.573
101, 44006.23, 9546.00, -187500.02, -187500.02, -187500.02, -187500.02, -187500.02, -187500.02, 0.000, 0.000, 0.000, 15:18:46.573
102, 43721.89, 9269.27, -187500.02, -187500.02, -187500.02, -187500.02, -187500.02, -187500.02, 0.000, 0.000, 0.000, 15:18:46.574
103, 43813.38, 9307.69, -187500.02, -187500.02, -187500.02, -187500.02, -187500.02, -187500.02, 0.000, 0.000, 0.000, 15:18:46.574
104, 44120.78, 9620.24, -187500.02, -187500.02, -187500.02, -187500.02, -187500.02, -187500.02, 0.000, 0.000, 0.000, 15:18:47.038
105, 44150.73, 9674.04, -187500.02, -187500.02, -187500.02, -187500.02, -187500.02, -187500.02, 0.000, 0.000, 0.000, 15:18:47.038
106, 43997.30, 9540.69, -187500.02, -187500.02, -187500.02, -187500.02, -187500.02, -187500.02, 0.000, 0.000, 0.000, 15:18:47.038
107, 43717.75, 9273.81, -187500.02, -187500.02, -187500.02, -187500.02, -187500.02, -187500.02, 0.000, 0.000, 0.000, 15:18:47.038
108, 43800.79, 9300.92, -187500.02, -187500.02, -187500.02, -187500.02, -187500.02, -187500.02, 0.012, -0.014, 1.034, 15:18:47.038
109, 44117.00, 9617.55, -187500.02, -187500.02, -187500.02, -187500.02, -187500.02, -187500.02, 0.000, 0.000, 0.000, 15:18:47.038
110, 44155.29, 9685.93, -187500.02, -187500.02, -187500.02, -187500.02, -187500.02, -187500.02, 0.000, 0.000, 0.000, 15:18:47.039
111, 44003.79, 9556.00, -187500.02, -187500.02, -187500.02, -187500.02, -187500.02, -187500.02, 0.000, 0.000, 0.000, 15:18:47.039
112, 43717.35, 9271.59, -187500.02, -187500.02, -187500.02, -187500.02, -187500.02, -187500.02, 0.000, 0.000, 0.000, 15:18:47.039
113, 43810.91, 9310.37, -187500.02, -187500.02, -187500.02, -187500.02, -187500.02, -187500.02, 0.000, 0.000, 0.000, 15:18:47.039
114, 44131.37, 9633.96, -187500.02, -187500.02, -187500.02, -187500.02, -187500.02, -187500.02, 0.000, 0.000, 0.000, 15:18:47.039
115, 44164.45, 9694.91, -187500.02, -187500.02, -187500.02, -187500.02, -187500.02, -187500.02, 0.000, 0.000, 0.000, 15:18:47.039
116, 44014.96, 9569.63, -187500.02, -187500.02, -187500.02, -187500.02, -187500.02, -187500.02, 0.000, 0.000, 0.000, 15:18:47.039
117, 43729.13, 9283.89, -187500.02, -187500.02, -187500.02, -187500.02, -187500.02, -187500.02, 0.000, 0.000, 0.000, 15:18:47.039
118, 43805.35, 9305.37, -187500.02, -187500.02, -187500.02, -187500.02, -187500.02, -187500.02, 0.010, -0.012, 1.034, 15:18:47.040
119, 44125.05, 9628.42, -187500.02, -187500.02, -187500.02, -187500.02, -187500.02, -187500.02, 0.000, 0.000, 0.000, 15:18:47.040
120, 44162.62, 9691.29, -187500.02, -187500.02, -187500.02, -187500.02, -187500.02, -187500.02, 0.000, 0.000, 0.000, 15:18:47.040
121, 44007.12, 9558.41, -187500.02, -187500.02, -187500.02, -187500.02, -187500.02, -187500.02, 0.000, 0.000, 0.000, 15:18:47.040
122, 43719.65, 9276.02, -187500.02, -187500.02, -187500.02, -187500.02, -187500.02, -187500.02, 0.000, 0.000, 0.000, 15:18:47.040
123, 43815.45, 9311.29, -187500.02, -187500.02, -187500.02, -187500.02, -187500.02, -187500.02, 0.000, 0.000, 0.000, 15:18:47.040
124, 44137.07, 9637.87, -187500.02, -187500.02, -187500.02, -187500.02, -187500.02, -187500.02, 0.000, 0.000, 0.000, 15:18:47.040
125, 44181.55, 9707.16, -187500.02, -187500.02, -187500.02, -187500.02, -187500.02, -187500.02, 0.000, 0.000, 0.000, 15:18:47.040
126, 44034.45, 9577.61, -187500.02, -187500.02, -187500.02, -187500.02, -187500.02, -187500.02, 0.000, 0.000, 0.000, 15:18:47.041
127, 43744.26, 9294.41, -187500.02, -187500.02, -187500.02, -187500.02, -187500.02, -187500.02, 0.000, 0.000, 0.000, 15:18:47.041
128, 43820.57, 9314.73, -187500.02, -187500.02, -187500.02, -187500.02, -187500.02, -187500.02, 0.006, -0.016, 1.032, 15:18:47.041
129, 44146.30, 9639.08, -187500.02, -187500.02, -187500.02, -187500.02, -187500.02, -187500.02, 0.000, 0.000, 0.000, 15:18:47.041
130, 44190.05, 9708.32, -187500.02, -187500.02, -187500.02, -187500.02, -187500.02, -187500.02, 0.000, 0.000, 0.000, 15:18:47.041
131, 44040.49, 9576.78, -187500.02, -187500.02, -187500.02, -187500.02, -187500.02, -187500.02, 0.000, 0.000, 0.000, 15:18:47.041
132, 43756.98, 9300.49, -187500.02, -187500.02, -187500.02, -187500.02, -187500.02, -187500.02, 0.000, 0.000, 0.000, 15:18:47.041
133, 43820.01, 9309.66, -187500.02, -187500.02, -187500.02, -187500.02, -187500.02, -187500.02, 0.000, 0.000, 0.000, 15:18:47.041
134, 44138.17, 9631.68, -187500.02, -187500.02, -187500.02, -187500.02, -187500.02, -187500.02, 0.000, 0.000, 0.000, 15:18:47.042
135, 44179.74, 9700.68, -187500.02, -187500.02, -187500.02, -187500.02, -187500.02, -187500.02, 0.000, 0.000, 0.000, 15:18:47.042
136, 44037.43, 9578.95, -187500.02, -187500.02, -187500.02, -187500.02, -187500.02, -187500.02, 0.000, 0.000, 0.000, 15:18:47.042
137, 43762.39, 9308.70, -187500.02, -187500.02, -187500.02, -187500.02, -187500.02, -187500.02, 0.000, 0.000, 0.000, 15:18:47.042
138, 43840.29, 9328.88, -187500.02, -187500.02, -187500.02, -187500.02, -187500.02, -187500.02, 0.006, -0.012, 1.034, 15:18:47.042
139, 44156.52, 9648.15, -187500.02, -187500.02, -187500.02, -187500.02, -187500.02, -187500.02, 0.000, 0.000, 0.000, 15:18:47.042
140, 44197.04, 9716.35, -187500.02, -187500.02, -187500.02, -187500.02, -187500.02, -187500.02, 0.000, 0.000, 0.000, 15:18:47.042
141, 44053.75, 9587.91, -187500.02, -187500.02, -187500.02, -187500.02, -187500.02, -187500.02, 0.000, 0.000, 0.000, 15:18:47.042
142, 43774.17, 9315.18, -187500.02, -187500.02, -187500.02, -187500.02, -187500.02, -187500.02, 0.000, 0.000, 0.000, 15:18:47.042
143, 43840.22, 9329.19, -187500.02, -187500.02, -187500.02, -187500.02, -187500.02, -187500.02, 0.000, 0.000, 0.000, 15:18:47.043
144, 44159.58, 9650.28, -187500.02, -187500.02, -187500.02, -187500.02, -187500.02, -187500.02, 0.000, 0.000, 0.000, 15:18:47.043
145, 44201.47, 9718.52, -187500.02, -187500.02, -187500.02, -187500.02, -187500.02, -187500.02, 0.000, 0.000, 0.000, 15:18:47.043
146, 44052.80, 9594.17, -187500.02, -187500.02, -187500.02, -187500.02, -187500.02, -187500.02, 0.000, 0.000, 0.000, 15:18:47.043
147, 43768.16, 9319.63, -187500.02, -187500.02, -187500.02, -187500.02, -187500.02, -187500.02, 0.000, 0.000, 0.000, 15:18:47.043
148, 43842.68, 9334.49, -187500.02, -187500.02, -187500.02, -187500.02, -187500.02, -187500.02, 0.008, -0.014, 1.032, 15:18:47.043
149, 44158.24, 9648.00, -187500.02, -187500.02, -187500.02, -187500.02, -187500.02, -187500.02, 0.000, 0.000, 0.000, 15:18:47.043
150, 44211.82, 9730.83, -187500.02, -187500.02, -187500.02, -187500.02, -187500.02, -187500.02, 0.000, 0.000, 0.000, 15:18:47.043
151, 44067.09, 9603.83, -187500.02, -187500.02, -187500.02, -187500.02, -187500.02, -187500.02, 0.000, 0.000, 0.000, 15:18:47.044
152, 43776.36, 9320.25, -187500.02, -187500.02, -187500.02, -187500.02, -187500.02, -187500.02, 0.000, 0.000, 0.000, 15:18:47.044
153, 43854.79, 9342.54, -187500.02, -187500.02, -187500.02, -187500.02, -187500.02, -187500.02, 0.000, 0.000, 0.000, 15:18:47.044
154, 44167.36, 9655.08, -187500.02, -187500.02, -187500.02, -187500.02, -187500.02, -187500.02, 0.000, 0.000, 0.000, 15:18:47.044
155, 44213.49, 9728.04, -187500.02, -187500.02, -187500.02, -187500.02, -187500.02, -187500.02, 0.000, 0.000, 0.000, 15:18:47.044
156, 44067.40, 9603.92, -187500.02, -187500.02, -187500.02, -187500.02, -187500.02, -187500.02, 0.000, 0.000, 0.000, 15:18:47.044
157, 43782.42, 9325.82, -187500.02, -187500.02, -187500.02, -187500.02, -187500.02, -187500.02, 0.000, 0.000, 0.000, 15:18:47.044
158, 43842.23, 9329.86, -187500.02, -187500.02, -187500.02, -187500.02, -187500.02, -187500.02, 0.006, -0.016, 1.028, 15:18:47.044
159, 44159.47, 9648.44, -187500.02, -187500.02, -187500.02, -187500.02, -187500.02, -187500.02, 0.000, 0.000, 0.000, 15:18:47.044
160, 44201.20, 9722.27, -187500.02, -187500.02, -187500.02, -187500.02, -187500.02, -187500.02, 0.000, 0.000, 0.000, 15:18:47.045
161, 44059.00, 9599.38, -187500.02, -187500.02, -187500.02, -187500.02, -187500.02, -187500.02, 0.000, 0.000, 0.000, 15:18:47.045
162, 43776.38, 9321.62, -187500.02, -187500.02, -187500.02, -187500.02, -187500.02, -187500.02, 0.000, 0.000, 0.000, 15:18:47.045
163, 43826.54, 9315.11, -187500.02, -187500.02, -187500.02, -187500.02, -187500.02, -187500.02, 0.000, 0.000, 0.000, 15:18:47.045
164, 44151.15, 9641.89, -187500.02, -187500.02, -187500.02, -187500.02, -187500.02, -187500.02, 0.000, 0.000, 0.000, 15:18:47.045
165, 44180.75, 9702.69, -187500.02, -187500.02, -187500.02, -187500.02, -187500.02, -187500.02, 0.000, 0.000, 0.000, 15:18:47.045
166, 44040.40, 9574.66, -187500.02, -187500.02, -187500.02, -187500.02, -187500.02, -187500.02, 0.000, 0.000, 0.000, 15:18:47.045
167, 43767.17, 9304.45, -187500.02, -187500.02, -187500.02, -187500.02, -187500.02, -187500.02, 0.008, -0.016, 1.024, 15:18:47.045
168, 43825.49, 9312.99, -187500.02, -187500.02, -187500.02, -187500.02, -187500.02, -187500.02, 0.000, 0.000, 0.000, 15:18:47.046
169, 44138.75, 9628.68, -187500.02, -187500.02, -187500.02, -187500.02, -187500.02, -187500.02, 0.000, 0.000, 0.000, 15:18:47.046
170, 44197.76, 9715.70, -187500.02, -187500.02, -187500.02, -187500.02, -187500.02, -187500.02, 0.000, 0.000, 0.000, 15:18:47.046
171, 44060.88, 9594.91, -187500.02, -187500.02, -187500.02, -187500.02, -187500.02, -187500.02, 0.000, 0.000, 0.000, 15:18:47.046
172, 43775.55, 9315.56, -187500.02, -187500.02, -187500.02, -187500.02, -187500.02, -187500.02, 0.000, 0.000, 0.000, 15:18:47.046
173, 43843.46, 9329.33, -187500.02, -187500.02, -187500.02, -187500.02, -187500.02, -187500.02, 0.000, 0.000, 0.000, 15:18:47.046
174, 44170.53, 9657.23, -187500.02, -187500.02, -187500.02, -187500.02, -187500.02, -187500.02, 0.000, 0.000, 0.000, 15:18:47.046
175, 44216.91, 9727.05, -187500.02, -187500.02, -187500.02, -187500.02, -187500.02, -187500.02, 0.000, 0.000, 0.000, 15:18:47.046
176, 44073.79, 9599.25, -187500.02, -187500.02, -187500.02, -187500.02, -187500.02, -187500.02, 0.000, 0.000, 0.000, 15:18:47.047
177, 43793.59, 9331.67, -187500.02, -187500.02, -187500.02, -187500.02, -187500.02, -187500.02, 0.008, -0.014, 1.024, 15:18:47.047
178, 43857.05, 9343.90, -187500.02, -187500.02, -187500.02, -187500.02, -187500.02, -187500.02, 0.000, 0.000, 0.000, 15:18:47.047
179, 44179.16, 9665.09, -187500.02, -187500.02, -187500.02, -187500.02, -187500.02, -187500.02, 0.000, 0.000, 0.000, 15:18:47.047
180, 44227.57, 9739.93, -187500.02, -187500.02, -187500.02, -187500.02, -187500.02, -187500.02, 0.000, 0.000, 0.000, 15:18:47.047
181, 44080.63, 9615.79, -187500.02, -187500.02, -187500.02, -187500.02, -187500.02, -187500.02, 0.000, 0.000, 0.000, 15:18:47.047
182, 43789.86, 9335.12, -187500.02, -187500.02, -187500.02, -187500.02, -187500.02, -187500.02, 0.000, 0.000, 0.000, 15:18:47.047
183, 43839.10, 9326.44, -187500.02, -187500.02, -187500.02, -187500.02, -187500.02, -187500.02, 0.000, 0.000, 0.000, 15:18:47.048
184, 44164.34, 9645.78, -187500.02, -187500.02, -187500.02, -187500.02, -187500.02, -187500.02, 0.000, 0.000, 0.000, 15:18:47.048
185, 44218.14, 9726.99, -187500.02, -187500.02, -187500.02, -187500.02, -187500.02, -187500.02, 0.000, 0.000, 0.000, 15:18:47.048
186, 44076.70, 9609.04, -187500.02, -187500.02, -187500.02, -187500.02, -187500.02, -187500.02, 0.000, 0.000, 0.000, 15:18:47.048
187, 43788.05, 9334.16, -187500.02, -187500.02, -187500.02, -187500.02, -187500.02, -187500.02, 0.008, -0.014, 1.030, 15:18:47.048
188, 43849.65, 9337.58, -187500.02, -187500.02, -187500.02, -187500.02, -187500.02, -187500.02, 0.000, 0.000, 0.000, 15:18:47.048
189, 44178.27, 9659.60, -187500.02, -187500.02, -187500.02, -187500.02, -187500.02, -187500.02, 0.000, 0.000, 0.000, 15:18:47.048
190, 44229.77, 9734.61, -187500.02, -187500.02, -187500.02, -187500.02, -187500.02, -187500.02, 0.000, 0.000, 0.000, 15:18:47.049
191, 44085.60, 9613.22, -187500.02, -187500.02, -187500.02, -187500.02, -187500.02, -187500.02, 0.000, 0.000, 0.000, 15:18:47.049
192, 43809.21, 9344.57, -187500.02, -187500.02, -187500.02, -187500.02, -187500.02, -187500.02, 0.000, 0.000, 0.000, 15:18:47.049
193, 43873.99, 9350.36, -187500.02, -187500.02, -187500.02, -187500.02, -187500.02, -187500.02, 0.000, 0.000, 0.000, 15:18:47.049
194, 44196.41, 9668.92, -187500.02, -187500.02, -187500.02, -187500.02, -187500.02, -187500.02, 0.000, 0.000, 0.000, 15:18:47.049
195, 44243.06, 9748.53, -187500.02, -187500.02, -187500.02, -187500.02, -187500.02, -187500.02, 0.000, 0.000, 0.000, 15:18:47.049
196, 44101.46, 9624.30, -187500.02, -187500.02, -187500.02, -187500.02, -187500.02, -187500.02, 0.000, 0.000, 0.000, 15:18:47.049
197, 43821.96, 9353.47, -187500.02, -187500.02, -187500.02, -187500.02, -187500.02, -187500.02, 0.010, -0.012, 1.028, 15:18:47.049
198, 43877.50, 9357.31, -187500.02, -187500.02, -187500.02, -187500.02, -187500.02, -187500.02, 0.000, 0.000, 0.000, 15:18:47.050
199, 44197.76, 9674.37, -187500.02, -187500.02, -187500.02, -187500.02, -187500.02, -187500.02, 0.000, 0.000, 0.000, 15:18:47.050
200, 44253.97, 9756.60, -187500.02, -187500.02, -187500.02, -187500.02, -187500.02, -187500.02, 0.000, 0.000, 0.000, 15:18:47.050
201, 44118.97, 9640.84, -187500.02, -187500.02, -187500.02, -187500.02, -187500.02, -187500.02, 0.000, 0.000, 0.000, 15:18:47.050
202, 43831.68, 9363.23, -187500.02, -187500.02, -187500.02, -187500.02, -187500.02, -187500.02, 0.000, 0.000, 0.000, 15:18:47.050
203, 43881.73, 9357.45, -187500.02, -187500.02, -187500.02, -187500.02, -187500.02, -187500.02, 0.000, 0.000, 0.000, 15:18:47.050
204, 44207.37, 9684.72, -187500.02, -187500.02, -187500.02, -187500.02, -187500.02, -187500.02, 0.000, 0.000, 0.000, 15:18:47.050
205, 44258.31, 9766.55, -187500.02, -187500.02, -187500.02, -187500.02, -187500.02, -187500.02, 0.000, 0.000, 0.000, 15:18:47.050
206, 44114.96, 9641.83, -187500.02, -187500.02, -187500.02, -187500.02, -187500.02, -187500.02, 0.000, 0.000, 0.000, 15:18:47.051
207, 43829.27, 9364.24, -187500.02, -187500.02, -187500.02, -187500.02, -187500.02, -187500.02, 0.006, -0.018, 1.028, 15:18:47.051
208, 43888.16, 9363.62, -187500.02, -187500.02, -187500.02, -187500.02, -187500.02, -187500.02, 0.000, 0.000, 0.000, 15:18:47.051
209, 44212.60, 9685.59, -187500.02, -187500.02, -187500.02, -187500.02, -187500.02, -187500.02, 0.000, 0.000, 0.000, 15:18:47.051
210, 44259.00, 9759.73, -187500.02, -187500.02, -187500.02, -187500.02, -187500.02, -187500.02, 0.000, 0.000, 0.000, 15:18:47.051
211, 44129.52, 9649.76, -187500.02, -187500.02, -187500.02, -187500.02, -187500.02, -187500.02, 0.000, 0.000, 0.000, 15:18:47.051
212, 43837.45, 9368.42, -187500.02, -187500.02, -187500.02, -187500.02, -187500.02, -187500.02, 0.000, 0.000, 0.000, 15:18:47.051
213, 43880.43, 9354.43, -187500.02, -187500.02, -187500.02, -187500.02, -187500.02, -187500.02, 0.000, 0.000, 0.000, 15:18:47.051
214, 44204.24, 9673.14, -187500.02, -187500.02, -187500.02, -187500.02, -187500.02, -187500.02, 0.000, 0.000, 0.000, 15:18:47.051
215, 44262.75, 9758.23, -187500.02, -187500.02, -187500.02, -187500.02, -187500.02, -187500.02, 0.000, 0.000, 0.000, 15:18:47.052
216, 44131.82, 9651.84, -187500.02, -187500.02, -187500.02, -187500.02, -187500.02, -187500.02, 0.000, 0.000, 0.000, 15:18:47.052
217, 43853.34, 9382.26, -187500.02, -187500.02, -187500.02, -187500.02, -187500.02, -187500.02, 0.006, -0.014, 1.020, 15:18:47.052
218, 43891.94, 9366.27, -187500.02, -187500.02, -187500.02, -187500.02, -187500.02, -187500.02, 0.000, 0.000, 0.000, 15:18:47.052
219, 44213.85, 9686.89, -187500.02, -187500.02, -187500.02, -187500.02, -187500.02, -187500.02, 0.000, 0.000, 0.000, 15:18:47.052
220, 44276.82, 9775.76, -187500.02, -187500.02, -187500.02, -187500.02, -187500.02, -187500.02, 0.000, 0.000, 0.000, 15:18:47.052
221, 44137.83, 9654.14, -187500.02, -187500.02, -187500.02, -187500.02, -187500.02, -187500.02, 0.000, 0.000, 0.000, 15:18:47.052
222, 43857.25, 9385.83, -187500.02, -187500.02, -187500.02, -187500.02, -187500.02, -187500.02, 0.000, 0.000, 0.000, 15:18:47.052
223, 43885.44, 9363.62, -187500.02, -187500.02, -187500.02, -187500.02, -187500.02, -187500.02, 0.000, 0.000, 0.000, 15:18:47.053
224, 44202.43, 9679.27, -187500.02, -187500.02, -187500.02, -187500.02, -187500.02, -187500.02, 0.000, 0.000, 0.000, 15:18:47.519
225, 44266.98, 9769.03, -187500.02, -187500.02, -187500.02, -187500.02, -187500.02, -187500.02, 0.000, 0.000, 0.000, 15:18:47.519
226, 44133.83, 9652.60, -187500.02, -187500.02, -187500.02, -187500.02, -187500.02, -187500.02, 0.000, 0.000, 0.000, 15:18:47.519
227, 43854.66, 9383.66, -187500.02, -187500.02, -187500.02, -187500.02, -187500.02, -187500.02, 0.006, -0.012, 1.022, 15:18:47.519
228, 43897.21, 9376.29, -187500.02, -187500.02, -187500.02, -187500.02, -187500.02, -187500.02, 0.000, 0.000, 0.000, 15:18:47.519
229, 44215.01, 9694.20, -187500.02, -187500.02, -187500.02, -187500.02, -187500.02, -187500.02, 0.000, 0.000, 0.000, 15:18:47.520
230, 44273.35, 9773.79, -187500.02, -187500.02, -187500.02, -187500.02, -187500.02, -187500.02, 0.000, 0.000, 0.000, 15:18:47.520
231, 44131.42, 9647.21, -187500.02, -187500.02, -187500.02, -187500.02, -187500.02, -187500.02, 0.000, 0.000, 0.000, 15:18:47.520
232, 43845.92, 9371.73, -187500.02, -187500.02, -187500.02, -187500.02, -187500.02, -187500.02, 0.000, 0.000, 0.000, 15:18:47.520
233, 43890.09, 9365.56, -187500.02, -187500.02, -187500.02, -187500.02, -187500.02, -187500.02, 0.000, 0.000, 0.000, 15:18:47.520
234, 44214.86, 9687.89, -187500.02, -187500.02, -187500.02, -187500.02, -187500.02, -187500.02, 0.000, 0.000, 0.000, 15:18:47.520
235, 44266.27, 9768.07, -187500.02, -187500.02, -187500.02, -187500.02, -187500.02, -187500.02, 0.000, 0.000, 0.000, 15:18:47.520
236, 44137.61, 9651.95, -187500.02, -187500.02, -187500.02, -187500.02, -187500.02, -187500.02, 0.000, 0.000, 0.000, 15:18:47.520
237, 43847.93, 9373.43, -187500.02, -187500.02, -187500.02, -187500.02, -187500.02, -187500.02, 0.008, -0.012, 1.018, 15:18:47.521
238, 43884.88, 9360.73, -187500.02, -187500.02, -187500.02, -187500.02, -187500.02, -187500.02, 0.000, 0.000, 0.000, 15:18:47.521
239, 44209.94, 9681.72, -187500.02, -187500.02, -187500.02, -187500.02, -187500.02, -187500.02, 0.000, 0.000, 0.000, 15:18:47.521
240, 44267.81, 9767.26, -187500.02, -187500.02, -187500.02, -187500.02, -187500.02, -187500.02, 0.000, 0.000, 0.000, 15:18:47.521
241, 44128.89, 9650.61, -187500.02, -187500.02, -187500.02, -187500.02, -187500.02, -187500.02, 0.000, 0.000, 0.000, 15:18:47.521
242, 43841.31, 9375.55, -187500.02, -187500.02, -187500.02, -187500.02, -187500.02, -187500.02, 0.000, 0.000, 0.000, 15:18:47.521
243, 43888.48, 9363.32, -187500.02, -187500.02, -187500.02, -187500.02, -187500.02, -187500.02, 0.000, 0.000, 0.000, 15:18:47.521
244, 44208.46, 9679.20, -187500.02, -187500.02, -187500.02, -187500.02, -187500.02, -187500.02, 0.000, 0.000, 0.000, 15:18:47.521
245, 44268.77, 9764.38, -187500.02, -187500.02, -187500.02, -187500.02, -187500.02, -187500.02, 0.000, 0.000, 0.000, 15:18:47.522
246, 44132.36, 9646.01, -187500.02, -187500.02, -187500.02, -187500.02, -187500.02, -187500.02, 0.000, 0.000, 0.000, 15:18:47.522
247, 43842.90, 9368.15, -187500.02, -187500.02, -187500.02, -187500.02, -187500.02, -187500.02, 0.006, -0.012, 1.026, 15:18:47.522
248, 43879.45, 9350.27, -187500.02, -187500.02, -187500.02, -187500.02, -187500.02, -187500.02, 0.000, 0.000, 0.000, 15:18:47.522
249, 44205.36, 9670.17, -187500.02, -187500.02, -187500.02, -187500.02, -187500.02, -187500.02, 0.000, 0.000, 0.000, 15:18:47.522
250, 44278.07, 9768.29, -187500.02, -187500.02, -187500.02, -187500.02, -187500.02, -187500.02, 0.000, 0.000, 0.000, 15:18:47.522
251, 44144.89, 9656.98, -187500.02, -187500.02, -187500.02, -187500.02, -187500.02, -187500.02, 0.000, 0.000, 0.000, 15:18:47.522
252, 43852.78, 9381.16, -187500.02, -187500.02, -187500.02, -187500.02, -187500.02, -187500.02, 0.000, 0.000, 0.000, 15:18:47.522
253, 43875.55, 9353.04, -187500.02, -187500.02, -187500.02, -187500.02, -187500.02, -187500.02, 0.000, 0.000, 0.000, 15:18:47.523
254, 44201.89, 9671.69, -187500.02, -187500.02, -187500.02, -187500.02, -187500.02, -187500.02, 0.000, 0.000, 0.000, 15:18:47.523
255, 44265.08, 9763.82, -187500.02, -187500.02, -187500.02, -187500.02, -187500.02, -187500.02, 0.000, 0.000, 0.000, 15:18:47.523
0, 44124.87, 9643.84, -187500.02, -187500.02, -187500.02, -187500.02, -187500.02, -187500.02, 0.000, 0.000, 0.000, 15:18:47.523
1, 43853.27, 9380.76, -187500.02, -187500.02, -187500.02, -187500.02, -187500.02, -187500.02, 0.008, -0.018, 1.030, 15:18:47.523
2, 43882.48, 9357.69, -187500.02, -187500.02, -187500.02, -187500.02, -187500.02, -187500.02, 0.000, 0.000, 0.000, 15:18:47.523
3, 44201.11, 9676.23, -187500.02, -187500.02, -187500.02, -187500.02, -187500.02, -187500.02, 0.000, 0.000, 0.000, 15:18:47.523
4, 44264.32, 9764.07, -187500.02, -187500.02, -187500.02, -187500.02, -187500.02, -187500.02, 0.000, 0.000, 0.000, 15:18:47.523
5, 44126.25, 9642.72, -187500.02, -187500.02, -187500.02, -187500.02, -187500.02, -187500.02, 0.000, 0.000, 0.000, 15:18:47.524
6, 43843.57, 9373.99, -187500.02, -187500.02, -187500.02, -187500.02, -187500.02, -187500.02, 0.000, 0.000, 0.000, 15:18:47.524
7, 43871.49, 9349.40, -187500.02, -187500.02, -187500.02, -187500.02, -187500.02, -187500.02, 0.000, 0.000, 0.000, 15:18:47.524
8, 44191.66, 9662.75, -187500.02, -187500.02, -187500.02, -187500.02, -187500.02, -187500.02, 0.000, 0.000, 0.000, 15:18:47.524
9, 44263.40, 9766.39, -187500.02, -187500.02, -187500.02, -187500.02, -187500.02, -187500.02, 0.000, 0.000, 0.000, 15:18:47.524
10, 44134.73, 9655.57, -187500.02, -187500.02, -187500.02, -187500.02, -187500.02, -187500.02, 0.000, 0.000, 0.000, 15:18:47.524
11, 43858.08, 9388.92, -187500.02, -187500.02, -187500.02, -187500.02, -187500.02, -187500.02, 0.006, -0.018, 1.028, 15:18:47.524
12, 43873.39, 9351.30, -187500.02, -187500.02, -187500.02, -187500.02, -187500.02, -187500.02, 0.000, 0.000, 0.000, 15:18:47.524
13, 44195.39, 9664.09, -187500.02, -187500.02, -187500.02, -187500.02, -187500.02, -187500.02, 0.000, 0.000, 0.000, 15:18:47.524
14, 44275.32, 9774.15, -187500.02, -187500.02, -187500.02, -187500.02, -187500.02, -187500.02, 0.000, 0.000, 0.000, 15:18:47.525
15, 44144.61, 9659.24, -187500.02, -187500.02, -187500.02, -187500.02, -187500.02, -187500.02, 0.000, 0.000, 0.000, 15:18:47.525
16, 43866.71, 9384.00, -187500.02, -187500.02, -187500.02, -187500.02, -187500.02, -187500.02, 0.000, 0.000, 0.000, 15:18:47.525
17, 43884.32, 9349.49, -187500.02, -187500.02, -187500.02, -187500.02, -187500.02, -187500.02, 0.000, 0.000, 0.000, 15:18:47.525
18, 44208.60, 9673.41, -187500.02, -187500.02, -187500.02, -187500.02, -187500.02, -187500.02, 0.000, 0.000, 0.000, 15:18:47.525
19, 44276.01, 9767.94, -187500.02, -187500.02, -187500.02, -187500.02, -187500.02, -187500.02, 0.000, 0.000, 0.000, 15:18:47.525
20, 44139.91, 9654.75, -187500.02, -187500.02, -187500.02, -187500.02, -187500.02, -187500.02, 0.000, 0.000, 0.000, 15:18:47.525
21, 43856.60, 9389.16, -187500.02, -187500.02, -187500.02, -187500.02, -187500.02, -187500.02, 0.006, -0.018, 1.022, 15:18:47.525
22, 43889.50, 9366.05, -187500.02, -187500.02, -187500.02, -187500.02, -187500.02, -187500.02, 0.000, 0.000, 0.000, 15:18:47.526
23, 44217.70, 9683.42, -187500.02, -187500.02, -187500.02, -187500.02, -187500.02, -187500.02, 0.000, 0.000, 0.000, 15:18:47.526
24, 44282.22, 9775.13, -187500.02, -187500.02, -187500.02, -187500.02, -187500.02, -187500.02, 0.000, 0.000, 0.000, 15:18:47.526
25, 44139.80, 9654.32, -187500.02, -187500.02, -187500.02, -187500.02, -187500.02, -187500.02, 0.000, 0.000, 0.000, 15:18:47.526
26, 43857.05, 9384.47, -187500.02, -187500.02, -187500.02, -187500.02, -187500.02, -187500.02, 0.000, 0.000, 0.000, 15:18:47.526
27, 43876.85, 9348.82, -187500.02, -187500.02, -187500.02, -187500.02, -187500.02, -187500.02, 0.000, 0.000, 0.000, 15:18:47.526
28, 44198.02, 9663.26, -187500.02, -187500.02, -187500.02, -187500.02, -187500.02, -187500.02, 0.000, 0.000, 0.000, 15:18:47.526
29, 44270.29, 9764.47, -187500.02, -187500.02, -187500.02, -187500.02, -187500.02, -187500.02, 0.000, 0.000, 0.000, 15:18:47.526
30, 44135.51, 9651.19, -187500.02, -187500.02, -187500.02, -187500.02, -187500.02, -187500.02, 0.000, 0.000, 0.000, 15:18:47.527
31, 43851.64, 9379.13, -187500.02, -187500.02, -187500.02, -187500.02, -187500.02, -187500.02, 0.008, -0.014, 1.030, 15:18:47.527
32, 43875.98, 9349.76, -187500.02, -187500.02, -187500.02, -187500.02, -187500.02, -187500.02, 0.000, 0.000, 0.000, 15:18:47.527
33, 44206.00, 9672.52, -187500.02, -187500.02, -187500.02, -187500.02, -187500.02, -187500.02, 0.000, 0.000, 0.000, 15:18:47.527
34, 44274.56, 9772.41, -187500.02, -187500.02, -187500.02, -187500.02, -187500.02, -187500.02, 0.000, 0.000, 0.000, 15:18:47.527
35, 44136.85, 9655.46, -187500.02, -187500.02, -187500.02, -187500.02, -187500.02, -187500.02, 0.000, 0.000, 0.000, 15:18:47.527
36, 43852.40, 9384.80, -187500.02, -187500.02, -187500.02, -187500.02, -187500.02, -187500.02, 0.000, 0.000, 0.000, 15:18:47.527
37, 43870.48, 9350.41, -187500.02, -187500.02, -187500.02, -187500.02, -187500.02, -187500.02, 0.000, 0.000, 0.000, 15:18:47.527
38, 44198.63, 9674.73, -187500.02, -187500.02, -187500.02, -187500.02, -187500.02, -187500.02, 0.000, 0.000, 0.000, 15:18:47.528
39, 44287.01, 9789.15, -187500.02, -187500.02, -187500.02, -187500.02, -187500.02, -187500.02, 0.000, 0.000, 0.000, 15:18:47.528
40, 44153.37, 9675.56, -187500.02, -187500.02, -187500.02, -187500.02, -187500.02, -187500.02, 0.004, -0.008, 1.030, 15:18:47.528
41, 43880.12, 9413.59, -187500.02, -187500.02, -187500.02, -187500.02, -187500.02, -187500.02, 0.000, 0.000, 0.000, 15:18:47.528
42, 43886.06, 9366.36, -187500.02, -187500.02, -187500.02, -187500.02, -187500.02, -187500.02, 0.000, 0.000, 0.000, 15:18:47.528
43, 44214.30, 9685.57, -187500.02, -187500.02, -187500.02, -187500.02, -187500.02, -187500.02, 0.000, 0.000, 0.000, 15:18:47.528
44, 44285.62, 9784.95, -187500.02, -187500.02, -187500.02, -187500.02, -187500.02, -187500.02, 0.000, 0.000, 0.000, 15:18:47.528
45, 44162.75, 9677.39, -187500.02, -187500.02, -187500.02, -187500.02, -187500.02, -187500.02, 0.000, 0.000, 0.000, 15:18:47.528
46, 43884.39, 9407.65, -187500.02, -187500.02, -187500.02, -187500.02, -187500.02, -187500.02, 0.000, 0.000, 0.000, 15:18:47.528
47, 43898.33, 9364.73, -187500.02, -187500.02, -187500.02, -187500.02, -187500.02, -187500.02, 0.000, 0.000, 0.000, 15:18:47.529
48, 44226.90, 9687.36, -187500.02, -187500.02, -187500.02, -187500.02, -187500.02, -187500.02, 0.000, 0.000, 0.000, 15:18:47.529
49, 44284.91, 9776.85, -187500.02, -187500.02, -187500.02, -187500.02, -187500.02, -187500.02, 0.000, 0.000, 0.000, 15:18:47.529
50, 44154.04, 9663.58, -187500.02, -187500.02, -187500.02, -187500.02, -187500.02, -187500.02, 0.008, -0.012, 1.032, 15:18:47.529
51, 43879.87, 9405.19, -187500.02, -187500.02, -187500.02, -187500.02, -187500.02, -187500.02, 0.000, 0.000, 0.000, 15:18:47.529
52, 43879.00, 9355.41, -187500.02, -187500.02, -187500.02, -187500.02, -187500.02, -187500.02, 0.000, 0.000, 0.000, 15:18:47.529
53, 44204.21, 9672.99, -187500.02, -187500.02, -187500.02, -187500.02, -187500.02, -187500.02, 0.000, 0.000, 0.000, 15:18:47.529
54, 44278.65, 9775.96, -187500.02, -187500.02, -187500.02, -187500.02, -187500.02, -187500.02, 0.000, 0.000, 0.000, 15:18:47.529
55, 44148.79, 9663.02, -187500.02, -187500.02, -187500.02, -187500.02, -187500.02, -187500.02, 0.000, 0.000, 0.000, 15:18:47.530
56, 43859.73, 9389.27, -187500.02, -187500.02, -187500.02, -187500.02, -187500.02, -187500.02, 0.000, 0.000, 0.000, 15:18:47.530
57, 43863.69, 9335.97, -187500.02, -187500.02, -187500.02, -187500.02, -187500.02, -187500.02, 0.000, 0.000, 0.000, 15:18:47.530
58, 44201.31, 9661.79, -187500.02, -187500.02, -187500.02, -187500.02, -187500.02, -187500.02, 0.000, 0.000, 0.000, 15:18:47.530
59, 44284.26, 9775.47, -187500.02, -187500.02, -187500.02, -187500.02, -187500.02, -187500.02, 0.000, 0.000, 0.000, 15:18:47.530
60, 44149.07, 9658.55, -187500.02, -187500.02, -187500.02, -187500.02, -187500.02, -187500.02, 0.008, -0.008, 1.024, 15:18:47.530
61, 43873.81, 9397.92, -187500.02, -187500.02, -187500.02, -187500.02, -187500.02, -187500.02, 0.000, 0.000, 0.000, 15:18:47.531
62, 43891.11, 9361.33, -187500.02, -187500.02, -187500.02, -187500.02, -187500.02, -187500.02, 0.000, 0.000, 0.000, 15:18:47.531
63, 44213.63, 9676.43, -187500.02, -187500.02, -187500.02, -187500.02, -187500.02, -187500.02, 0.000, 0.000, 0.000, 15:18:47.531
64, 44285.24, 9780.07, -187500.02, -187500.02, -187500.02, -187500.02, -187500.02, -187500.02, 0.000, 0.000, 0.000, 15:18:47.531
65, 44161.86, 9671.31, -187500.02, -187500.02, -187500.02, -187500.02, -187500.02, -187500.02, 0.000, 0.000, 0.000, 15:18:47.531
66, 43881.41, 9406.02, -187500.02, -187500.02, -187500.02, -187500.02, -187500.02, -187500.02, 0.000, 0.000, 0.000, 15:18:47.531
67, 43892.43, 9365.96, -187500.02, -187500.02, -187500.02, -187500.02, -187500.02, -187500.02, 0.000, 0.000, 0.000, 15:18:47.531
68, 44212.51, 9672.47, -187500.02, -187500.02, -187500.02, -187500.02, -187500.02, -187500.02, 0.000, 0.000, 0.000, 15:18:47.532
69, 44280.21, 9768.79, -187500.02, -187500.02, -187500.02, -187500.02, -187500.02, -187500.02, 0.000, 0.000, 0.000, 15:18:47.532
70, 44161.32, 9670.10, -187500.02, -187500.02, -187500.02, -187500.02, -187500.02, -187500.02, 0.008, -0.008, 1.024, 15:18:47.532
71, 43889.48, 9412.83, -187500.02, -187500.02, -187500.02, -187500.02, -187500.02, -187500.02, 0.000, 0.000, 0.000, 15:18:47.532
72, 43891.71, 9358.32, -187500.02, -187500.02, -187500.02, -187500.02, -187500.02, -187500.02, 0.000, 0.000, 0.000, 15:18:47.532
73, 44217.74, 9675.09, -187500.02, -187500.02, -187500.02, -187500.02, -187500.02, -187500.02, 0.000, 0.000, 0.000, 15:18:47.532
74, 44289.02, 9777.03, -187500.02, -187500.02, -187500.02, -187500.02, -187500.02, -187500.02, 0.000, 0.000, 0.000, 15:18:47.532
75, 44164.14, 9673.19, -187500.02, -187500.02, -187500.02, -187500.02, -187500.02, -187500.02, 0.000, 0.000, 0.000, 15:18:47.532
76, 43884.25, 9407.11, -187500.02, -187500.02, -187500.02, -187500.02, -187500.02, -187500.02, 0.000, 0.000, 0.000, 15:18:47.533
77, 43891.88, 9357.98, -187500.02, -187500.02, -187500.02, -187500.02, -187500.02, -187500.02, 0.000, 0.000, 0.000, 15:18:47.533
78, 44213.74, 9670.24, -187500.02, -187500.02, -187500.02, -187500.02, -187500.02, -187500.02, 0.000, 0.000, 0.000, 15:18:47.533
79, 44291.01, 9775.94, -187500.02, -187500.02, -187500.02, -187500.02, -187500.02, -187500.02, 0.000, 0.000, 0.000, 15:18:47.533
80, 44158.91, 9666.37, -187500.02, -187500.02, -187500.02, -187500.02, -187500.02, -187500.02, 0.004, -0.008, 1.020, 15:18:47.533
81, 43880.68, 9403.80, -187500.02, -187500.02, -187500.02, -187500.02, -187500.02, -187500.02, 0.000, 0.000, 0.000, 15:18:47.533
82, 43872.43, 9342.43, -187500.02, -187500.02, -187500.02, -187500.02, -187500.02, -187500.02, 0.000, 0.000, 0.000, 15:18:47.533
83, 44203.59, 9657.56, -187500.02, -187500.02, -187500.02, -187500.02, -187500.02, -187500.02, 0.000, 0.000, 0.000, 15:18:47.533
84, 44281.96, 9767.96, -187500.02, -187500.02, -187500.02, -187500.02, -187500.02, -187500.02, 0.000, 0.000, 0.000, 15:18:47.534
85, 44151.02, 9657.99, -187500.02, -187500.02, -187500.02, -187500.02, -187500.02, -187500.02, 0.000, 0.000, 0.000, 15:18:47.534
86, 43873.05, 9394.75, -187500.02, -187500.02, -187500.02, -187500.02, -187500.02, -187500.02, 0.000, 0.000, 0.000, 15:18:47.534
87, 43875.55, 9343.74, -187500.02, -187500.02, -187500.02, -187500.02, -187500.02, -187500.02, 0.000, 0.000, 0.000, 15:18:47.534
88, 44209.43, 9670.68, -187500.02, -187500.02, -187500.02, -187500.02, -187500.02, -187500.02, 0.000, 0.000, 0.000, 15:18:47.534
89, 44297.69, 9790.47, -187500.02, -187500.02, -187500.02, -187500.02, -187500.02, -187500.02, 0.000, 0.000, 0.000, 15:18:48.000
90, 44171.58, 9682.35, -187500.02, -187500.02, -187500.02, -187500.02, -187500.02, -187500.02, 0.004, -0.006, 1.030, 15:18:48.000
91, 43886.49, 9411.11, -187500.02, -187500.02, -187500.02, -187500.02, -187500.02, -187500.02, 0.000, 0.000, 0.000, 15:18:48.001
92, 43885.23, 9357.76, -187500.02, -187500.02, -187500.02, -187500.02, -187500.02, -187500.02, 0.000, 0.000, 0.000, 15:18:48.001
93, 44209.52, 9669.83, -187500.02, -187500.02, -187500.02, -187500.02, -187500.02, -187500.02, 0.000, 0.000, 0.000, 15:18:48.001
94, 44292.08, 9778.33, -187500.02, -187500.02, -187500.02, -187500.02, -187500.02, -187500.02, 0.000, 0.000, 0.000, 15:18:48.001
95, 44163.34, 9668.85, -187500.02, -187500.02, -187500.02, -187500.02, -187500.02, -187500.02, 0.000, 0.000, 0.000, 15:18:48.001
96, 43883.94, 9407.25, -187500.02, -187500.02, -187500.02, -187500.02, -187500.02, -187500.02, 0.000, 0.000, 0.000, 15:18:48.001
97, 43878.89, 9354.43, -187500.02, -187500.02, -187500.02, -187500.02, -187500.02, -187500.02, 0.000, 0.000, 0.000, 15:18:48.001
98, 44218.41, 9680.63, -187500.02, -187500.02, -187500.02, -187500.02, -187500.02, -187500.02, 0.000, 0.000, 0.000, 15:18:48.002
99, 44304.29, 9794.29, -187500.02, -187500.02, -187500.02, -187500.02, -187500.02, -187500.02, 0.000, 0.000, 0.000, 15:18:48.002
100, 44174.71, 9685.84, -187500.02, -187500.02, -187500.02, -187500.02, -187500.02, -187500.02, 0.006, -0.014, 1.024, 15:18:48.002
101, 43890.18, 9416.54, -187500.02, -187500.02, -187500.02, -187500.02, -187500.02, -187500.02, 0.000, 0.000, 0.000, 15:18:48.002
102, 43883.54, 9356.53, -187500.02, -187500.02, -187500.02, -187500.02, -187500.02, -187500.02, 0.000, 0.000, 0.000, 15:18:48.002
103, 44206.99, 9668.09, -187500.02, -187500.02, -187500.02, -187500.02, -187500.02, -187500.02, 0.000, 0.000, 0.000, 15:18:48.002
104, 44291.19, 9777.95, -187500.02, -187500.02, -187500.02, -187500.02, -187500.02, -187500.02, 0.000, 0.000, 0.000, 15:18:48.002
105, 44174.02, 9674.44, -187500.02, -187500.02, -187500.02, -187500.02, -187500.02, -187500.02, 0.000, 0.000, 0.000, 15:18:48.002
106, 43895.79, 9412.79, -187500.02, -187500.02, -187500.02, -187500.02, -187500.02, -187500.02, 0.000, 0.000, 0.000, 15:18:48.002
107, 43887.13, 9353.67, -187500.02, -187500.02, -187500.02, -187500.02, -187500.02, -187500.02, 0.000, 0.000, 0.000, 15:18:48.003
108, 44217.63, 9671.35, -187500.02, -187500.02, -187500.02, -187500.02, -187500.02, -187500.02, 0.000, 0.000, 0.000, 15:18:48.003
109, 44304.82, 9792.32, -187500.02, -187500.02, -187500.02, -187500.02, -187500.02, -187500.02, 0.000, 0.000, 0.000, 15:18:48.003
110, 44173.15, 9681.55, -187500.02, -187500.02, -187500.02, -187500.02, -187500.02, -187500.02, 0.012, -0.010, 1.022, 15:18:48.003
111, 43888.90, 9412.90, -187500.02, -187500.02, -187500.02, -187500.02, -187500.02, -187500.02, 0.000, 0.000, 0.000, 15:18:48.003
112, 43879.96, 9351.46, -187500.02, -187500.02, -187500.02, -187500.02, -187500.02, -187500.02, 0.000, 0.000, 0.000, 15:18:48.003
113, 44208.11, 9666.08, -187500.02, -187500.02, -187500.02, -187500.02, -187500.02, -187500.02, 0.000, 0.000, 0.000, 15:18:48.003
114, 44296.64, 9784.95, -187500.02, -187500.02, -187500.02, -187500.02, -187500.02, -187500.02, 0.000, 0.000, 0.000, 15:18:48.003
115, 44169.79, 9677.34, -187500.02, -187500.02, -187500.02, -187500.02, -187500.02, -187500.02, 0.000, 0.000, 0.000, 15:18:48.003
116, 43883.02, 9407.54, -187500.02, -187500.02, -187500.02, -187500.02, -187500.02, -187500.02, 0.000, 0.000, 0.000, 15:18:48.004
117, 43870.80, 9343.07, -187500.02, -187500.02, -187500.02, -187500.02, -187500.02, -187500.02, 0.000, 0.000, 0.000, 15:18:48.004
118, 44207.91, 9662.10, -187500.02, -187500.02, -187500.02, -187500.02, -187500.02, -187500.02, 0.000, 0.000, 0.000, 15:18:48.004
119, 44305.49, 9786.89, -187500.02, -187500.02, -187500.02, -187500.02, -187500.02, -187500.02, 0.000, 0.000, 0.000, 15:18:48.004
120, 44179.81, 9682.35, -187500.02, -187500.02, -187500.02, -187500.02, -187500.02, -187500.02, 0.012, -0.014, 1.026, 15:18:48.004
121, 43894.04, 9409.95, -187500.02, -187500.02, -187500.02, -187500.02, -187500.02, -187500.02, 0.000, 0.000, 0.000, 15:18:48.004
122, 43876.29, 9339.30, -187500.02, -187500.02, -187500.02, -187500.02, -187500.02, -187500.02, 0.000, 0.000, 0.000, 15:18:48.004
123, 44212.29, 9661.23, -187500.02, -187500.02, -187500.02, -187500.02, -187500.02, -187500.02, 0.000, 0.000, 0.000, 15:18:48.005
124, 44309.11, 9791.02, -187500.02, -187500.02, -187500.02, -187500.02, -187500.02, -187500.02, 0.000, 0.000, 0.000, 15:18:48.005
125, 44190.80, 9686.40, -187500.02, -187500.02, -187500.02, -187500.02, -187500.02, -187500.02, 0.000, 0.000, 0.000, 15:18:48.005
126, 43903.65, 9419.27, -187500.02, -187500.02, -187500.02, -187500.02, -187500.02, -187500.02, 0.000, 0.000, 0.000, 15:18:48.005
127, 43879.60, 9347.14, -187500.02, -187500.02, -187500.02, -187500.02, -187500.02, -187500.02, 0.000, 0.000, 0.000, 15:18:48.005
128, 44211.26, 9665.09, -187500.02, -187500.02, -187500.02, -187500.02, -187500.02, -187500.02, 0.000, 0.000, 0.000, 15:18:48.005
129, 44299.17, 9779.54, -187500.02, -187500.02, -187500.02, -187500.02, -187500.02, -187500.02, 0.000, 0.000, 0.000, 15:18:48.005
130, 44185.04, 9685.19, -187500.02, -187500.02, -187500.02, -187500.02, -187500.02, -187500.02, 0.006, -0.016, 1.026, 15:18:48.005
131, 43910.25, 9431.27, -187500.02, -187500.02, -187500.02, -187500.02, -187500.02, -187500.02, 0.000, 0.000, 0.000, 15:18:48.005
132, 43888.12, 9355.25, -187500.02, -187500.02, -187500.02, -187500.02, -187500.02, -187500.02, 0.000, 0.000, 0.000, 15:18:48.006
133, 44208.89, 9662.73, -187500.02, -187500.02, -187500.02, -187500.02, -187500.02, -187500.02, 0.000, 0.000, 0.000, 15:18:48.006
134, 44302.41, 9783.54, -187500.02, -187500.02, -187500.02, -187500.02, -187500.02, -187500.02, 0.000, 0.000, 0.000, 15:18:48.006
135, 44182.89, 9678.95, -187500.02, -187500.02, -187500.02, -187500.02, -187500.02, -187500.02, 0.000, 0.000, 0.000, 15:18:48.006
136, 43897.68, 9413.73, -187500.02, -187500.02, -187500.02, -187500.02, -187500.02, -187500.02, 0.000, 0.000, 0.000, 15:18:48.006
137, 43883.47, 9350.09, -187500.02, -187500.02, -187500.02, -187500.02, -187500.02, -187500.02, 0.000, 0.000, 0.000, 15:18:48.006
138, 44208.48, 9661.27, -187500.02, -187500.02, -187500.02, -187500.02, -187500.02, -187500.02, 0.000, 0.000, 0.000, 15:18:48.006
139, 44307.53, 9788.63, -187500.02, -187500.02, -187500.02, -187500.02, -187500.02, -187500.02, 0.000, 0.000, 0.000, 15:18:48.006
140, 44193.73, 9692.81, -187500.02, -187500.02, -187500.02, -187500.02, -187500.02, -187500.02, 0.008, -0.018, 1.022, 15:18:48.007
141, 43906.11, 9428.17, -187500.02, -187500.02, -187500.02, -187500.02, -187500.02, -187500.02, 0.000, 0.000, 0.000, 15:18:48.007
142, 43886.78, 9357.69, -187500.02, -187500.02, -187500.02, -187500.02, -187500.02, -187500.02, 0.000, 0.000, 0.000, 15:18:48.007
143, 44214.41, 9664.65, -187500.02, -187500.02, -187500.02, -187500.02, -187500.02, -187500.02, 0.000, 0.000, 0.000, 15:18:48.007
144, 44307.39, 9787.49, -187500.02, -187500.02, -187500.02, -187500.02, -187500.02, -187500.02, 0.000, 0.000, 0.000, 15:18:48.007
145, 44188.35, 9689.46, -187500.02, -187500.02, -187500.02, -187500.02, -187500.02, -187500.02, 0.000, 0.000, 0.000, 15:18:48.007
146, 43906.13, 9426.09, -187500.02, -187500.02, -187500.02, -187500.02, -187500.02, -187500.02, 0.000, 0.000, 0.000, 15:18:48.007
147, 43880.56, 9352.71, -187500.02, -187500.02, -187500.02, -187500.02, -187500.02, -187500.02, 0.000, 0.000, 0.000, 15:18:48.007
148, 44203.43, 9664.56, -187500.02, -187500.02, -187500.02, -187500.02, -187500.02, -187500.02, 0.000, 0.000, 0.000, 15:18:48.007
149, 44299.61, 9788.81, -187500.02, -187500.02, -187500.02, -187500.02, -187500.02, -187500.02, 0.000, 0.000, 0.000, 15:18:48.008
150, 44191.14, 9696.48, -187500.02, -187500.02, -187500.02, -187500.02, -187500.02, -187500.02, 0.008, -0.014, 1.022, 15:18:48.008
151, 43910.13, 9436.37, -187500.02, -187500.02, -187500.02, -187500.02, -187500.02, -187500.02, 0.000, 0.000, 0.000, 15:18:48.008
152, 43883.31, 9358.07, -187500.02, -187500.02, -187500.02, -187500.02, -187500.02, -187500.02, 0.000, 0.000, 0.000, 15:18:48.008
153, 44208.46, 9666.50, -187500.02, -187500.02, -187500.02, -187500.02, -187500.02, -187500.02, 0.000, 0.000, 0.000, 15:18:48.008
154, 44308.00, 9799.14, -187500.02, -187500.02, -187500.02, -187500.02, -187500.02, -187500.02, 0.000, 0.000, 0.000, 15:18:48.008
155, 44181.44, 9693.88, -187500.02, -187500.02, -187500.02, -187500.02, -187500.02, -187500.02, 0.000, 0.000, 0.000, 15:18:48.008
156, 43908.91, 9436.59, -187500.02, -187500.02, -187500.02, -187500.02, -187500.02, -187500.02, 0.000, 0.000, 0.000, 15:18:48.008
157, 43880.99, 9359.55, -187500.02, -187500.02, -187500.02, -187500.02, -187500.02, -187500.02, 0.000, 0.000, 0.000, 15:18:48.009
158, 44201.45, 9664.65, -187500.02, -187500.02, -187500.02, -187500.02, -187500.02, -187500.02, 0.000, 0.000, 0.000, 15:18:48.009
159, 44303.46, 9792.46, -187500.02, -187500.02, -187500.02, -187500.02, -187500.02, -187500.02, 0.000, 0.000, 0.000, 15:18:48.009
160, 44192.01, 9693.35, -187500.02, -187500.02, -187500.02, -187500.02, -187500.02, -187500.02, 0.004, -0.014, 1.022, 15:18:48.009
161, 43911.99, 9431.45, -187500.02, -187500.02, -187500.02, -187500.02, -187500.02, -187500.02, 0.000, 0.000, 0.000, 15:18:48.009
162, 43883.67, 9354.18, -187500.02, -187500.02, -187500.02, -187500.02, -187500.02, -187500.02, 0.000, 0.000, 0.000, 15:18:48.009
163, 44209.58, 9662.86, -187500.02, -187500.02, -187500.02, -187500.02, -187500.02, -187500.02, 0.000, 0.000, 0.000, 15:18:48.009
164, 44300.82, 9784.77, -187500.02, -187500.02, -187500.02, -187500.02, -187500.02, -187500.02, 0.000, 0.000, 0.000, 15:18:48.009
165, 44186.29, 9686.60, -187500.02, -187500.02, -187500.02, -187500.02, -187500.02, -187500.02, 0.000, 0.000, 0.000, 15:18:48.009
166, 43916.88, 9436.08, -187500.02, -187500.02, -187500.02, -187500.02, -187500.02, -187500.02, 0.000, 0.000, 0.000, 15:18:48.010
167, 43874.04, 9344.62, -187500.02, -187500.02, -187500.02, -187500.02, -187500.02, -187500.02, 0.000, 0.000, 0.000, 15:18:48.010
168, 44208.82, 9658.72, -187500.02, -187500.02, -187500.02, -187500.02, -187500.02, -187500.02, 0.000, 0.000, 0.000, 15:18:48.010
169, 44307.04, 9787.58, -187500.02, -187500.02, -187500.02, -187500.02, -187500.02, -187500.02, 0.006, -0.012, 1.030, 15:18:48.010
170, 44193.38, 9693.82, -187500.02, -187500.02, -187500.02, -187500.02, -187500.02, -187500.02, 0.000, 0.000, 0.000, 15:18:48.010
171, 43912.97, 9431.50, -187500.02, -187500.02, -187500.02, -187500.02, -187500.02, -187500.02, 0.000, 0.000, 0.000, 15:18:48.010
172, 43879.07, 9348.95, -187500.02, -187500.02, -187500.02, -187500.02, -187500.02, -187500.02, 0.000, 0.000, 0.000, 15:18:48.010
173, 44205.82, 9665.39, -187500.02, -187500.02, -187500.02, -187500.02, -187500.02, -187500.02, 0.000, 0.000, 0.000, 15:18:48.011
174, 44308.84, 9795.50, -187500.02, -187500.02, -187500.02, -187500.02, -187500.02, -187500.02, 0.000, 0.000, 0.000, 15:18:48.011
175, 44193.09, 9696.37, -187500.02, -187500.02, -187500.02, -187500.02, -187500.02, -187500.02, 0.000, 0.000, 0.000, 15:18:48.011
176, 43918.70, 9440.95, -187500.02, -187500.02, -187500.02, -187500.02, -187500.02, -187500.02, 0.000, 0.000, 0.000, 15:18:48.011
177, 43881.12, 9349.11, -187500.02, -187500.02, -187500.02, -187500.02, -187500.02, -187500.02, 0.000, 0.000, 0.000, 15:18:48.011
178, 44213.02, 9664.92, -187500.02, -187500.02, -187500.02, -187500.02, -187500.02, -187500.02, 0.000, 0.000, 0.000, 15:18:48.011
179, 44316.40, 9793.75, -187500.02, -187500.02, -187500.02, -187500.02, -187500.02, -187500.02, 0.006, -0.016, 1.032, 15:18:48.011
180, 44218.63, 9712.75, -187500.02, -187500.02, -187500.02, -187500.02, -187500.02, -187500.02, 0.000, 0.000, 0.000, 15:18:48.011
181, 43935.91, 9453.27, -187500.02, -187500.02, -187500.02, -187500.02, -187500.02, -187500.02, 0.000, 0.000, 0.000, 15:18:48.012
182, 43899.47, 9368.67, -187500.02, -187500.02, -187500.02, -187500.02, -187500.02, -187500.02, 0.000, 0.000, 0.000, 15:18:48.012
183, 44229.79, 9683.38, -187500.02, -187500.02, -187500.02, -187500.02, -187500.02, -187500.02, 0.000, 0.000, 0.000, 15:18:48.012
184, 44335.13, 9816.71, -187500.02, -187500.02, -187500.02, -187500.02, -187500.02, -187500.02, 0.000, 0.000, 0.000, 15:18:48.012
185, 44224.58, 9721.80, -187500.02, -187500.02, -187500.02, -187500.02, -187500.02, -187500.02, 0.000, 0.000, 0.000, 15:18:48.012
186, 43936.80, 9454.47, -187500.02, -187500.02, -187500.02, -187500.02, -187500.02, -187500.02, 0.000, 0.000, 0.000, 15:18:48.012
187, 43898.40, 9366.68, -187500.02, -187500.02, -187500.02, -187500.02, -187500.02, -187500.02, 0.000, 0.000, 0.000, 15:18:48.012
188, 44228.80, 9682.31, -187500.02, -187500.02, -187500.02, -187500.02, -187500.02, -187500.02, 0.000, 0.000, 0.000, 15:18:48.012
189, 44318.21, 9802.45, -187500.02, -187500.02, -187500.02, -187500.02, -187500.02, -187500.02, 0.008, -0.020, 1.030, 15:18:48.013
190, 44208.51, 9708.57, -187500.02, -187500.02, -187500.02, -187500.02, -187500.02, -187500.02, 0.000, 0.000, 0.000, 15:18:48.013
191, 43925.16, 9440.10, -187500.02, -187500.02, -187500.02, -187500.02, -187500.02, -187500.02, 0.000, 0.000, 0.000, 15:18:48.013
192, 43879.22, 9344.50, -187500.02, -187500.02, -187500.02, -187500.02, -187500.02, -187500.02, 0.000, 0.000, 0.000, 15:18:48.013
193, 44210.65, 9661.34, -187500.02, -187500.02, -187500.02, -187500.02, -187500.02, -187500.02, 0.000, 0.000, 0.000, 15:18:48.013
194, 44309.38, 9791.29, -187500.02, -187500.02, -187500.02, -187500.02, -187500.02, -187500.02, 0.000, 0.000, 0.000, 15:18:48.013
195, 44200.93, 9697.66, -187500.02, -187500.02, -187500.02, -187500.02, -187500.02, -187500.02, 0.000, 0.000, 0.000, 15:18:48.013
196, 43912.97, 9429.84, -187500.02, -187500.02, -187500.02, -187500.02, -187500.02, -187500.02, 0.000, 0.000, 0.000, 15:18:48.014
197, 43864.29, 9335.07, -187500.02, -187500.02, -187500.02, -187500.02, -187500.02, -187500.02, 0.000, 0.000, 0.000, 15:18:48.014
198, 44190.70, 9646.61, -187500.02, -187500.02, -187500.02, -187500.02, -187500.02, -187500.02, 0.000, 0.000, 0.000, 15:18:48.014
199, 44300.24, 9785.48, -187500.02, -187500.02, -187500.02, -187500.02, -187500.02, -187500.02, 0.008, -0.012, 1.026, 15:18:48.014
200, 44190.31, 9693.01, -187500.02, -187500.02, -187500.02, -187500.02, -187500.02, -187500.02, 0.000, 0.000, 0.000, 15:18:48.014
201, 43913.89, 9442.63, -187500.02, -187500.02, -187500.02, -187500.02, -187500.02, -187500.02, 0.000, 0.000, 0.000, 15:18:48.014
202, 43872.07, 9356.60, -187500.02, -187500.02, -187500.02, -187500.02, -187500.02, -187500.02, 0.000, 0.000, 0.000, 15:18:48.014
203, 44199.28, 9662.21, -187500.02, -187500.02, -187500.02, -187500.02, -187500.02, -187500.02, 0.000, 0.000, 0.000, 15:18:48.015
204, 44306.50, 9792.57, -187500.02, -187500.02, -187500.02, -187500.02, -187500.02, -187500.02, 0.000, 0.000, 0.000, 15:18:48.015
205, 44202.45, 9708.59, -187500.02, -187500.02, -187500.02, -187500.02, -187500.02, -187500.02, 0.000, 0.000, 0.000, 15:18:48.015
206, 43931.88, 9455.97, -187500.02, -187500.02, -187500.02, -187500.02, -187500.02, -187500.02, 0.000, 0.000, 0.000, 15:18:48.015
207, 43881.95, 9359.30, -187500.02, -187500.02, -187500.02, -187500.02, -187500.02, -187500.02, 0.000, 0.000, 0.000, 15:18:48.015
208, 44207.79, 9669.10, -187500.02, -187500.02, -187500.02, -187500.02, -187500.02, -187500.02, 0.000, 0.000, 0.000, 15:18:48.015
209, 44318.23, 9806.96, -187500.02, -187500.02, -187500.02, -187500.02, -187500.02, -187500.02, 0.010, -0.016, 1.024, 15:18:48.480
210, 44209.04, 9717.24, -187500.02, -187500.02, -187500.02, -187500.02, -187500.02, -187500.02, 0.000, 0.000, 0.000, 15:18:48.480
211, 43933.94, 9463.35, -187500.02, -187500.02, -187500.02, -187500.02, -187500.02, -187500.02, 0.000, 0.000, 0.000, 15:18:48.480
212, 43893.44, 9372.64, -187500.02, -187500.02, -187500.02, -187500.02, -187500.02, -187500.02, 0.000, 0.000, 0.000, 15:18:48.480
213, 44224.71, 9686.11, -187500.02, -187500.02, -187500.02, -187500.02, -187500.02, -187500.02, 0.000, 0.000, 0.000, 15:18:48.480
214, 44339.11, 9828.49, -187500.02, -187500.02, -187500.02, -187500.02, -187500.02, -187500.02, 0.000, 0.000, 0.000, 15:18:48.481
215, 44214.36, 9725.45, -187500.02, -187500.02, -187500.02, -187500.02, -187500.02, -187500.02, 0.000, 0.000, 0.000, 15:18:48.481
216, 43929.40, 9462.61, -187500.02, -187500.02, -187500.02, -187500.02, -187500.02, -187500.02, 0.000, 0.000, 0.000, 15:18:48.481
217, 43886.22, 9367.48, -187500.02, -187500.02, -187500.02, -187500.02, -187500.02, -187500.02, 0.000, 0.000, 0.000, 15:18:48.481
218, 44208.04, 9672.09, -187500.02, -187500.02, -187500.02, -187500.02, -187500.02, -187500.02, 0.000, 0.000, 0.000, 15:18:48.481
219, 44314.61, 9808.37, -187500.02, -187500.02, -187500.02, -187500.02, -187500.02, -187500.02, 0.012, -0.014, 1.028, 15:18:48.482
220, 44211.64, 9723.59, -187500.02, -187500.02, -187500.02, -187500.02, -187500.02, -187500.02, 0.000, 0.000, 0.000, 15:18:48.482
221, 43926.61, 9458.90, -187500.02, -187500.02, -187500.02, -187500.02, -187500.02, -187500.02, 0.000, 0.000, 0.000, 15:18:48.482
222, 43877.66, 9358.29, -187500.02, -187500.02, -187500.02, -187500.02, -187500.02, -187500.02, 0.000, 0.000, 0.000, 15:18:48.482
223, 44208.42, 9670.19, -187500.02, -187500.02, -187500.02, -187500.02, -187500.02, -187500.02, 0.000, 0.000, 0.000, 15:18:48.482
224, 44321.68, 9813.56, -187500.02, -187500.02, -187500.02, -187500.02, -187500.02, -187500.02, 0.000, 0.000, 0.000, 15:18:48.483
225, 44201.49, 9713.82, -187500.02, -187500.02, -187500.02, -187500.02, -187500.02, -187500.02, 0.000, 0.000, 0.000, 15:18:48.483
226, 43918.98, 9455.70, -187500.02, -187500.02, -187500.02, -187500.02, -187500.02, -187500.02, 0.000, 0.000, 0.000, 15:18:48.483
227, 43862.52, 9352.98, -187500.02, -187500.02, -187500.02, -187500.02, -187500.02, -187500.02, 0.000, 0.000, 0.000, 15:18:48.483
228, 44196.17, 9665.65, -187500.02, -187500.02, -187500.02, -187500.02, -187500.02, -187500.02, 0.000, 0.000, 0.000, 15:18:48.483
229, 44318.01, 9814.14, -187500.02, -187500.02, -187500.02, -187500.02, -187500.02, -187500.02, 0.006, -0.012, 1.028, 15:18:48.483
230, 44205.18, 9722.94, -187500.02, -187500.02, -187500.02, -187500.02, -187500.02, -187500.02, 0.000, 0.000, 0.000, 15:18:48.483
231, 43929.74, 9473.16, -187500.02, -187500.02, -187500.02, -187500.02, -187500.02, -187500.02, 0.000, 0.000, 0.000, 15:18:48.484
232, 43883.91, 9375.51, -187500.02, -187500.02, -187500.02, -187500.02, -187500.02, -187500.02, 0.000, 0.000, 0.000, 15:18:48.484
233, 44220.11, 9689.37, -187500.02, -187500.02, -187500.02, -187500.02, -187500.02, -187500.02, 0.000, 0.000, 0.000, 15:18:48.484
234, 44329.63, 9832.15, -187500.02, -187500.02, -187500.02, -187500.02, -187500.02, -187500.02, 0.000, 0.000, 0.000, 15:18:48.484
235, 44225.83, 9742.70, -187500.02, -187500.02, -187500.02, -187500.02, -187500.02, -187500.02, 0.000, 0.000, 0.000, 15:18:48.484
236, 43947.04, 9485.39, -187500.02, -187500.02, -187500.02, -187500.02, -187500.02, -187500.02, 0.000, 0.000, 0.000, 15:18:48.484
237, 43882.64, 9372.51, -187500.02, -187500.02, -187500.02, -187500.02, -187500.02, -187500.02, 0.000, 0.000, 0.000, 15:18:48.484
238, 44205.63, 9677.52, -187500.02, -187500.02, -187500.02, -187500.02, -187500.02, -187500.02, 0.000, 0.000, 0.000, 15:18:48.484
239, 44315.59, 9818.29, -187500.02, -187500.02, -187500.02, -187500.02, -187500.02, -187500.02, 0.006, -0.016, 1.022, 15:18:48.485
240, 44217.02, 9736.24, -187500.02, -187500.02, -187500.02, -187500.02, -187500.02, -187500.02, 0.000, 0.000, 0.000, 15:18:48.485
241, 43949.54, 9486.77, -187500.02, -187500.02, -187500.02, -187500.02, -187500.02, -187500.02, 0.000, 0.000, 0.000, 15:18:48.485
242, 43888.41, 9374.41, -187500.02, -187500.02, -187500.02, -187500.02, -187500.02, -187500.02, 0.000, 0.000, 0.000, 15:18:48.485
243, 44211.61, 9670.28, -187500.02, -187500.02, -187500.02, -187500.02, -187500.02, -187500.02, 0.000, 0.000, 0.000, 15:18:48.485
244, 44320.31, 9808.12, -187500.02, -187500.02, -187500.02, -187500.02, -187500.02, -187500.02, 0.000, 0.000, 0.000, 15:18:48.485
245, 44198.41, 9710.85, -187500.02, -187500.02, -187500.02, -187500.02, -187500.02, -187500.02, 0.000, 0.000, 0.000, 15:18:48.485
246, 43929.51, 9464.02, -187500.02, -187500.02, -187500.02, -187500.02, -187500.02, -187500.02, 0.000, 0.000, 0.000, 15:18:48.485
247, 43878.84, 9362.16, -187500.02, -187500.02, -187500.02, -187500.02, -187500.02, -187500.02, 0.000, 0.000, 0.000, 15:18:48.486
248, 44211.66, 9677.03, -187500.02, -187500.02, -187500.02, -187500.02, -187500.02, -187500.02, 0.000, 0.000, 0.000, 15:18:48.486
249, 44322.75, 9823.05, -187500.02, -187500.02, -187500.02, -187500.02, -187500.02, -187500.02, 0.012, -0.016, 1.020, 15:18:48.486
250, 44222.50, 9735.77, -187500.02, -187500.02, -187500.02, -187500.02, -187500.02, -187500.02, 0.000, 0.000, 0.000, 15:18:48.486
251, 43947.93, 9482.01, -187500.02, -187500.02, -187500.02, -187500.02, -187500.02, -187500.02, 0.000, 0.000, 0.000, 15:18:48.486
252, 43879.07, 9369.65, -187500.02, -187500.02, -187500.02, -187500.02, -187500.02, -187500.02, 0.000, 0.000, 0.000, 15:18:48.486
253, 44213.07, 9683.16, -187500.02, -187500.02, -187500.02, -187500.02, -187500.02, -187500.02, 0.000, 0.000, 0.000, 15:18:48.486
254, 44337.77, 9836.18, -187500.02, -187500.02, -187500.02, -187500.02, -187500.02, -187500.02, 0.000, 0.000, 0.000, 15:18:48.486
255, 44234.79, 9750.34, -187500.02, -187500.02, -187500.02, -187500.02, -187500.02, -187500.02, 0.000, 0.000, 0.000, 15:18:48.487
0, 43955.73, 9488.45, -187500.02, -187500.02, -187500.02, -187500.02, -187500.02, -187500.02, 0.000, 0.000, 0.000, 15:18:48.487
1, 43892.70, 9376.51, -187500.02, -187500.02, -187500.02, -187500.02, -187500.02, -187500.02, 0.000, 0.000, 0.000, 15:18:48.487
2, 44212.06, 9677.28, -187500.02, -187500.02, -187500.02, -187500.02, -187500.02, -187500.02, 0.000, 0.000, 0.000, 15:18:48.487
3, 44331.15, 9823.50, -187500.02, -187500.02, -187500.02, -187500.02, -187500.02, -187500.02, 0.008, -0.012, 1.018, 15:18:48.487
4, 44229.07, 9742.19, -187500.02, -187500.02, -187500.02, -187500.02, -187500.02, -187500.02, 0.000, 0.000, 0.000, 15:18:48.487
5, 43964.45, 9498.46, -187500.02, -187500.02, -187500.02, -187500.02, -187500.02, -187500.02, 0.000, 0.000, 0.000, 15:18:48.487
6, 43916.44, 9394.80, -187500.02, -187500.02, -187500.02, -187500.02, -187500.02, -187500.02, 0.000, 0.000, 0.000, 15:18:48.487
7, 44233.72, 9690.38, -187500.02, -187500.02, -187500.02, -187500.02, -187500.02, -187500.02, 0.000, 0.000, 0.000, 15:18:48.488
8, 44343.18, 9831.19, -187500.02, -187500.02, -187500.02, -187500.02, -187500.02, -187500.02, 0.000, 0.000, 0.000, 15:18:48.488
9, 44235.57, 9741.74, -187500.02, -187500.02, -187500.02, -187500.02, -187500.02, -187500.02, 0.000, 0.000, 0.000, 15:18:48.488
10, 43955.78, 9483.42, -187500.02, -187500.02, -187500.02, -187500.02, -187500.02, -187500.02, 0.000, 0.000, 0.000, 15:18:48.488
11, 43886.78, 9366.30, -187500.02, -187500.02, -187500.02, -187500.02, -187500.02, -187500.02, 0.000, 0.000, 0.000, 15:18:48.488
12, 44206.90, 9667.62, -187500.02, -187500.02, -187500.02, -187500.02, -187500.02, -187500.02, 0.000, 0.000, 0.000, 15:18:48.488
13, 44329.07, 9821.76, -187500.02, -187500.02, -187500.02, -187500.02, -187500.02, -187500.02, 0.006, -0.014, 1.020, 15:18:48.488
14, 44224.87, 9731.12, -187500.02, -187500.02, -187500.02, -187500.02, -187500.02, -187500.02, 0.000, 0.000, 0.000, 15:18:48.488
15, 43937.98, 9466.48, -187500.02, -187500.02, -187500.02, -187500.02, -187500.02, -187500.02, 0.000, 0.000, 0.000, 15:18:48.489
16, 43872.54, 9360.40, -187500.02, -187500.02, -187500.02, -187500.02, -187500.02, -187500.02, 0.000, 0.000, 0.000, 15:18:48.489
17, 44199.66, 9662.73, -187500.02, -187500.02, -187500.02, -187500.02, -187500.02, -187500.02, 0.000, 0.000, 0.000, 15:18:48.489
18, 44320.29, 9809.08, -187500.02, -187500.02, -187500.02, -187500.02, -187500.02, -187500.02, 0.000, 0.000, 0.000, 15:18:48.489
19, 44212.42, 9720.97, -187500.02, -187500.02, -187500.02, -187500.02, -187500.02, -187500.02, 0.000, 0.000, 0.000, 15:18:48.489
20, 43939.55, 9472.18, -187500.02, -187500.02, -187500.02, -187500.02, -187500.02, -187500.02, 0.000, 0.000, 0.000, 15:18:48.489
21, 43869.59, 9358.92, -187500.02, -187500.02, -187500.02, -187500.02, -187500.02, -187500.02, 0.000, 0.000, 0.000, 15:18:48.489
22, 44193.18, 9653.23, -187500.02, -187500.02, -187500.02, -187500.02, -187500.02, -187500.02, 0.000, 0.000, 0.000, 15:18:48.489
23, 44321.45, 9809.13, -187500.02, -187500.02, -187500.02, -187500.02, -187500.02, -187500.02, 0.006, -0.012, 1.016, 15:18:48.489
24, 44223.51, 9731.28, -187500.02, -187500.02, -187500.02, -187500.02, -187500.02, -187500.02, 0.000, 0.000, 0.000, 15:18:48.490
25, 43960.18, 9488.25, -187500.02, -187500.02, -187500.02, -187500.02, -187500.02, -187500.02, 0.000, 0.000, 0.000, 15:18:48.490
26, 43884.61, 9367.10, -187500.02, -187500.02, -187500.02, -187500.02, -187500.02, -187500.02, 0.000, 0.000, 0.000, 15:18:48.490
27, 44205.02, 9667.58, -187500.02, -187500.02, -187500.02, -187500.02, -187500.02, -187500.02, 0.000, 0.000, 0.000, 15:18:48.490
28, 44334.66, 9829.87, -187500.02, -187500.02, -187500.02, -187500.02, -187500.02, -187500.02, 0.000, 0.000, 0.000, 15:18:48.490
29, 44231.57, 9745.11, -187500.02, -187500.02, -187500.02, -187500.02, -187500.02, -187500.02, 0.000, 0.000, 0.000, 15:18:48.490
30, 43953.50, 9483.89, -187500.02, -187500.02, -187500.02, -187500.02, -187500.02, -187500.02, 0.000, 0.000, 0.000, 15:18:48.490
31, 43900.30, 9384.27, -187500.02, -187500.02, -187500.02, -187500.02, -187500.02, -187500.02, 0.000, 0.000, 0.000, 15:18:48.490
32, 44225.09, 9687.04, -187500.02, -187500.02, -187500.02, -187500.02, -187500.02, -187500.02, 0.000, 0.000, 0.000, 15:18:48.491
33, 44344.36, 9835.28, -187500.02, -187500.02, -187500.02, -187500.02, -187500.02, -187500.02, 0.008, -0.008, 1.028, 15:18:48.491
34, 44246.35, 9752.36, -187500.02, -187500.02, -187500.02, -187500.02, -187500.02, -187500.02, 0.000, 0.000, 0.000, 15:18:48.491
35, 43969.30, 9501.19, -187500.02, -187500.02, -187500.02, -187500.02, -187500.02, -187500.02, 0.000, 0.000, 0.000, 15:18:48.491
36, 43890.15, 9377.43, -187500.02, -187500.02, -187500.02, -187500.02, -187500.02, -187500.02, 0.000, 0.000, 0.000, 15:18:48.491
37, 44201.64, 9666.82, -187500.02, -187500.02, -187500.02, -187500.02, -187500.02, -187500.02, 0.000, 0.000, 0.000, 15:18:48.491
38, 44324.16, 9816.30, -187500.02, -187500.02, -187500.02, -187500.02, -187500.02, -187500.02, 0.000, 0.000, 0.000, 15:18:48.491
39, 44230.26, 9738.86, -187500.02, -187500.02, -187500.02, -187500.02, -187500.02, -187500.02, 0.000, 0.000, 0.000, 15:18:48.491
40, 43956.34, 9489.72, -187500.02, -187500.02, -187500.02, -187500.02, -187500.02, -187500.02, 0.000, 0.000, 0.000, 15:18:48.491
41, 43881.01, 9370.88, -187500.02, -187500.02, -187500.02, -187500.02, -187500.02, -187500.02, 0.000, 0.000, 0.000, 15:18:48.492
42, 44193.69, 9660.92, -187500.02, -187500.02, -187500.02, -187500.02, -187500.02, -187500.02, 0.012, -0.014, 1.026, 15:18:48.492
43, 44315.17, 9810.92, -187500.02, -187500.02, -187500.02, -187500.02, -187500.02, -187500.02, 0.000, 0.000, 0.000, 15:18:48.492
44, 44213.94, 9727.12, -187500.02, -187500.02, -187500.02, -187500.02, -187500.02, -187500.02, 0.000, 0.000, 0.000, 15:18:48.492
45, 43941.94, 9472.67, -187500.02, -187500.02, -187500.02, -187500.02, -187500.02, -187500.02, 0.000, 0.000, 0.000, 15:18:48.492
46, 43869.36, 9352.13, -187500.02, -187500.02, -187500.02, -187500.02, -187500.02, -187500.02, 0.000, 0.000, 0.000, 15:18:48.492
47, 44196.73, 9656.98, -187500.02, -187500.02, -187500.02, -187500.02, -187500.02, -187500.02, 0.000, 0.000, 0.000, 15:18:48.492
48, 44318.23, 9809.35, -187500.02, -187500.02, -187500.02, -187500.02, -187500.02, -187500.02, 0.000, 0.000, 0.000, 15:18:48.492
49, 44228.65, 9736.98, -187500.02, -187500.02, -187500.02, -187500.02, -187500.02, -187500.02, 0.000, 0.000, 0.000, 15:18:48.493
50, 43960.76, 9493.30, -187500.02, -187500.02, -187500.02, -187500.02, -187500.02, -187500.02, 0.000, 0.000, 0.000, 15:18:48.493
51, 43877.34, 9365.74, -187500.02, -187500.02, -187500.02, -187500.02, -187500.02, -187500.02, 0.000, 0.000, 0.000, 15:18:48.493
52, 44198.92, 9666.41, -187500.02, -187500.02, -187500.02, -187500.02, -187500.02, -187500.02, 0.012, -0.016, 1.026, 15:18:48.493
53, 44332.92, 9830.70, -187500.02, -187500.02, -187500.02, -187500.02, -187500.02, -187500.02, 0.000, 0.000, 0.000, 15:18:48.493
54, 44236.74, 9751.24, -187500.02, -187500.02, -187500.02, -187500.02, -187500.02, -187500.02, 0.000, 0.000, 0.000, 15:18:48.493
55, 43974.22, 9508.52, -187500.02, -187500.02, -187500.02, -187500.02, -187500.02, -187500.02, 0.000, 0.000, 0.000, 15:18:48.493
56, 43893.59, 9383.58, -187500.02, -187500.02, -187500.02, -187500.02, -187500.02, -187500.02, 0.000, 0.000, 0.000, 15:18:48.493
57, 44211.37, 9676.56, -187500.02, -187500.02, -187500.02, -187500.02, -187500.02, -187500.02, 0.000, 0.000, 0.000, 15:18:48.494
58, 44338.13, 9828.80, -187500.02, -187500.02, -187500.02, -187500.02, -187500.02, -187500.02, 0.000, 0.000, 0.000, 15:18:48.494
59, 44239.82, 9740.96, -187500.02, -187500.02, -187500.02, -187500.02, -187500.02, -187500.02, 0.000, 0.000, 0.000, 15:18:48.494
60, 43979.76, 9506.60, -187500.02, -187500.02, -187500.02, -187500.02, -187500.02, -187500.02, 0.000, 0.000, 0.000, 15:18:48.494
61, 43902.51, 9383.93, -187500.02, -187500.02, -187500.02, -187500.02, -187500.02, -187500.02, 0.000, 0.000, 0.000, 15:18:48.494
62, 44226.30, 9685.97, -187500.02, -187500.02, -187500.02, -187500.02, -187500.02, -187500.02, 0.008, -0.014, 1.026, 15:18:48.494
63, 44354.64, 9841.16, -187500.02, -187500.02, -187500.02, -187500.02, -187500.02, -187500.02, 0.000, 0.000, 0.000, 15:18:48.494
64, 44252.83, 9754.12, -187500.02, -187500.02, -187500.02, -187500.02, -187500.02, -187500.02, 0.000, 0.000, 0.000, 15:18:48.495
65, 43986.96, 9510.73, -187500.02, -187500.02, -187500.02, -187500.02, -187500.02, -187500.02, 0.000, 0.000, 0.000, 15:18:48.495
66, 43905.95, 9382.68, -187500.02, -187500.02, -187500.02, -187500.02, -187500.02, -187500.02, 0.000, 0.000, 0.000, 15:18:48.495
67, 44218.86, 9669.95, -187500.02, -187500.02, -187500.02, -187500.02, -187500.02, -187500.02, 0.000, 0.000, 0.000, 15:18:48.495
68, 44349.52, 9827.01, -187500.02, -187500.02, -187500.02, -187500.02, -187500.02, -187500.02, 0.000, 0.000, 0.000, 15:18:48.495
69, 44245.25, 9745.92, -187500.02, -187500.02, -187500.02, -187500.02, -187500.02, -187500.02, 0.000, 0.000, 0.000, 15:18:48.495
70, 43977.59, 9502.51, -187500.02, -187500.02, -187500.02, -187500.02, -187500.02, -187500.02, 0.000, 0.000, 0.000, 15:18:48.495
71, 43892.03, 9371.17, -187500.02, -187500.02, -187500.02, -187500.02, -187500.02, -187500.02, 0.000, 0.000, 0.000, 15:18:48.495
72, 44195.97, 9650.46, -187500.02, -187500.02, -187500.02, -187500.02, -187500.02, -187500.02, 0.006, -0.012, 1.024, 15:18:48.495
73, 44345.43, 9826.03, -187500.02, -187500.02, -187500.02, -187500.02, -187500.02, -187500.02, 0.000, 0.000, 0.000, 15:18:48.961
74, 44248.79, 9746.21, -187500.02, -187500.02, -187500.02, -187500.02, -187500.02, -187500.02, 0.000, 0.000, 0.000, 15:18:48.961
75, 43973.70, 9495.49, -187500.02, -187500.02, -187500.02, -187500.02, -187500.02, -187500.02, 0.000, 0.000, 0.000, 15:18:48.961
76, 43883.74, 9360.33, -187500.02, -187500.02, -187500.02, -187500.02, -187500.02, -187500.02, 0.000, 0.000, 0.000, 15:18:48.961
77, 44205.45, 9658.77, -187500.02, -187500.02, -187500.02, -187500.02, -187500.02, -187500.02, 0.000, 0.000, 0.000, 15:18:48.961
78, 44338.19, 9823.46, -187500.02, -187500.02, -187500.02, -187500.02, -187500.02, -187500.02, 0.000, 0.000, 0.000, 15:18:48.961
79, 44252.96, 9754.50, -187500.02, -187500.02, -187500.02, -187500.02, -187500.02, -187500.02, 0.000, 0.000, 0.000, 15:18:48.961
80, 43985.01, 9509.79, -187500.02, -187500.02, -187500.02, -187500.02, -187500.02, -187500.02, 0.000, 0.000, 0.000, 15:18:48.962
81, 43890.60, 9371.77, -187500.02, -187500.02, -187500.02, -187500.02, -187500.02, -187500.02, 0.000, 0.000, 0.000, 15:18:48.962
82, 44212.73, 9665.52, -187500.02, -187500.02, -187500.02, -187500.02, -187500.02, -187500.02, 0.004, -0.012, 1.024, 15:18:48.962
83, 44358.78, 9845.85, -187500.02, -187500.02, -187500.02, -187500.02, -187500.02, -187500.02, 0.000, 0.000, 0.000, 15:18:48.962
84, 44257.79, 9765.43, -187500.02, -187500.02, -187500.02, -187500.02, -187500.02, -187500.02, 0.000, 0.000, 0.000, 15:18:48.962
85, 43988.54, 9515.61, -187500.02, -187500.02, -187500.02, -187500.02, -187500.02, -187500.02, 0.000, 0.000, 0.000, 15:18:48.962
86, 43909.15, 9384.96, -187500.02, -187500.02, -187500.02, -187500.02, -187500.02, -187500.02, 0.000, 0.000, 0.000, 15:18:48.962
87, 44224.85, 9676.76, -187500.02, -187500.02, -187500.02, -187500.02, -187500.02, -187500.02, 0.000, 0.000, 0.000, 15:18:48.962
88, 44361.59, 9843.57, -187500.02, -187500.02, -187500.02, -187500.02, -187500.02, -187500.02, 0.000, 0.000, 0.000, 15:18:48.962
89, 44264.66, 9765.03, -187500.02, -187500.02, -187500.02, -187500.02, -187500.02, -187500.02, 0.000, 0.000, 0.000, 15:18:48.963
90, 43993.17, 9517.69, -187500.02, -187500.02, -187500.02, -187500.02, -187500.02, -187500.02, 0.000, 0.000, 0.000, 15:18:48.963
91, 43904.28, 9386.41, -187500.02, -187500.02, -187500.02, -187500.02, -187500.02, -187500.02, 0.000, 0.000, 0.000, 15:18:48.963
92, 44228.49, 9684.07, -187500.02, -187500.02, -187500.02, -187500.02, -187500.02, -187500.02, 0.004, -0.010, 1.020, 15:18:48.963
93, 44364.84, 9848.58, -187500.02, -187500.02, -187500.02, -187500.02, -187500.02, -187500.02, 0.000, 0.000, 0.000, 15:18:48.963
94, 44265.30, 9766.06, -187500.02, -187500.02, -187500.02, -187500.02, -187500.02, -187500.02, 0.000, 0.000, 0.000, 15:18:48.963
95, 43982.29, 9509.28, -187500.02, -187500.02, -187500.02, -187500.02, -187500.02, -187500.02, 0.000, 0.000, 0.000, 15:18:48.963
96, 43897.21, 9378.17, -187500.02, -187500.02, -187500.02, -187500.02, -187500.02, -187500.02, 0.000, 0.000, 0.000, 15:18:48.963
97, 44214.30, 9670.50, -187500.02, -187500.02, -187500.02, -187500.02, -187500.02, -187500.02, 0.000, 0.000, 0.000, 15:18:48.964
98, 44355.76, 9838.86, -187500.02, -187500.02, -187500.02, -187500.02, -187500.02, -187500.02, 0.000, 0.000, 0.000, 15:18:48.964
99, 44260.95, 9763.15, -187500.02, -187500.02, -187500.02, -187500.02, -187500.02, -187500.02, 0.000, 0.000, 0.000, 15:18:48.964
100, 43991.09, 9519.09, -187500.02, -187500.02, -187500.02, -187500.02, -187500.02, -187500.02, 0.000, 0.000, 0.000, 15:18:48.964
101, 43897.19, 9380.49, -187500.02, -187500.02, -187500.02, -187500.02, -187500.02, -187500.02, 0.000, 0.000, 0.000, 15:18:48.964
102, 44213.07, 9666.77, -187500.02, -187500.02, -187500.02, -187500.02, -187500.02, -187500.02, 0.006, -0.010, 1.024, 15:18:48.964
103, 44353.66, 9835.13, -187500.02, -187500.02, -187500.02, -187500.02, -187500.02, -187500.02, 0.000, 0.000, 0.000, 15:18:48.965
104, 44269.89, 9774.15, -187500.02, -187500.02, -187500.02, -187500.02, -187500.02, -187500.02, 0.000, 0.000, 0.000, 15:18:48.965
105, 43997.17, 9524.73, -187500.02, -187500.02, -187500.02, -187500.02, -187500.02, -187500.02, 0.000, 0.000, 0.000, 15:18:48.965
106, 43903.00, 9383.55, -187500.02, -187500.02, -187500.02, -187500.02, -187500.02, -187500.02, 0.000, 0.000, 0.000, 15:18:48.965
107, 44221.23, 9674.57, -187500.02, -187500.02, -187500.02, -187500.02, -187500.02, -187500.02, 0.000, 0.000, 0.000, 15:18:48.965
108, 44365.06, 9843.26, -187500.02, -187500.02, -187500.02, -187500.02, -187500.02, -187500.02, 0.000, 0.000, 0.000, 15:18:48.965
109, 44278.54, 9774.84, -187500.02, -187500.02, -187500.02, -187500.02, -187500.02, -187500.02, 0.000, 0.000, 0.000, 15:18:48.965
110, 44017.40, 9536.66, -187500.02, -187500.02, -187500.02, -187500.02, -187500.02, -187500.02, 0.000, 0.000, 0.000, 15:18:48.965
111, 43917.22, 9391.40, -187500.02, -187500.02, -187500.02, -187500.02, -187500.02, -187500.02, 0.000, 0.000, 0.000, 15:18:48.966
112, 44229.09, 9677.95, -187500.02, -187500.02, -187500.02, -187500.02, -187500.02, -187500.02, 0.004, -0.012, 1.024, 15:18:48.966
113, 44368.64, 9850.68, -187500.02, -187500.02, -187500.02, -187500.02, -187500.02, -187500.02, 0.000, 0.000, 0.000, 15:18:48.966
114, 44275.32, 9775.58, -187500.02, -187500.02, -187500.02, -187500.02, -187500.02, -187500.02, 0.000, 0.000, 0.000, 15:18:48.966
115, 44016.30, 9539.14, -187500.02, -187500.02, -187500.02, -187500.02, -187500.02, -187500.02, 0.000, 0.000, 0.000, 15:18:48.966
116, 43914.38, 9394.04, -187500.02, -187500.02, -187500.02, -187500.02, -187500.02, -187500.02, 0.000, 0.000, 0.000, 15:18:48.966
117, 44231.87, 9683.13, -187500.02, -187500.02, -187500.02, -187500.02, -187500.02, -187500.02, 0.000, 0.000, 0.000, 15:18:48.966
118, 44371.54, 9850.06, -187500.02, -187500.02, -187500.02, -187500.02, -187500.02, -187500.02, 0.000, 0.000, 0.000, 15:18:48.967
119, 44271.70, 9770.77, -187500.02, -187500.02, -187500.02, -187500.02, -187500.02, -187500.02, 0.000, 0.000, 0.000, 15:18:48.967
120, 44010.79, 9531.25, -187500.02, -187500.02, -187500.02, -187500.02, -187500.02, -187500.02, 0.000, 0.000, 0.000, 15:18:48.967
121, 43917.22, 9396.32, -187500.02, -187500.02, -187500.02, -187500.02, -187500.02, -187500.02, 0.000, 0.000, 0.000, 15:18:48.967
122, 44233.88, 9687.60, -187500.02, -187500.02, -187500.02, -187500.02, -187500.02, -187500.02, 0.008, -0.016, 1.024, 15:18:48.967
123, 44365.77, 9851.60, -187500.02, -187500.02, -187500.02, -187500.02, -187500.02, -187500.02, 0.000, 0.000, 0.000, 15:18:48.967
124, 44279.45, 9783.85, -187500.02, -187500.02, -187500.02, -187500.02, -187500.02, -187500.02, 0.000, 0.000, 0.000, 15:18:48.967
125, 44014.79, 9540.82, -187500.02, -187500.02, -187500.02, -187500.02, -187500.02, -187500.02, 0.000, 0.000, 0.000, 15:18:48.967
126, 43900.84, 9384.16, -187500.02, -187500.02, -187500.02, -187500.02, -187500.02, -187500.02, 0.000, 0.000, 0.000, 15:18:48.968
127, 44227.30, 9678.04, -187500.02, -187500.02, -187500.02, -187500.02, -187500.02, -187500.02, 0.000, 0.000, 0.000, 15:18:48.968
128, 44367.83, 9851.55, -187500.02, -187500.02, -187500.02, -187500.02, -187500.02, -187500.02, 0.000, 0.000, 0.000, 15:18:48.968
129, 44275.34, 9778.22, -187500.02, -187500.02, -187500.02, -187500.02, -187500.02, -187500.02, 0.000, 0.000, 0.000, 15:18:48.968
130, 44006.85, 9534.18, -187500.02, -187500.02, -187500.02, -187500.02, -187500.02, -187500.02, 0.000, 0.000, 0.000, 15:18:48.968
131, 43911.39, 9392.96, -187500.02, -187500.02, -187500.02, -187500.02, -187500.02, -187500.02, 0.000, 0.000, 0.000, 15:18:48.968
132, 44226.86, 9682.84, -187500.02, -187500.02, -187500.02, -187500.02, -187500.02, -187500.02, 0.002, -0.014, 1.032, 15:18:48.968
133, 44373.78, 9861.61, -187500.02, -187500.02, -187500.02, -187500.02, -187500.02, -187500.02, 0.000, 0.000, 0.000, 15:18:48.968
134, 44284.75, 9786.15, -187500.02, -187500.02, -187500.02, -187500.02, -187500.02, -187500.02, 0.000, 0.000, 0.000, 15:18:48.969
135, 44015.01, 9540.31, -187500.02, -187500.02, -187500.02, -187500.02, -187500.02, -187500.02, 0.000, 0.000, 0.000, 15:18:48.969
136, 43915.12, 9399.67, -187500.02, -187500.02, -187500.02, -187500.02, -187500.02, -187500.02, 0.000, 0.000, 0.000, 15:18:48.969
137, 44227.93, 9682.64, -187500.02, -187500.02, -187500.02, -187500.02, -187500.02, -187500.02, 0.000, 0.000, 0.000, 15:18:48.969
138, 44363.85, 9846.86, -187500.02, -187500.02, -187500.02, -187500.02, -187500.02, -187500.02, 0.000, 0.000, 0.000, 15:18:48.969
139, 44274.58, 9774.60, -187500.02, -187500.02, -187500.02, -187500.02, -187500.02, -187500.02, 0.000, 0.000, 0.000, 15:18:48.969
140, 44010.34, 9530.98, -187500.02, -187500.02, -187500.02, -187500.02, -187500.02, -187500.02, 0.000, 0.000, 0.000, 15:18:48.969
141, 43906.87, 9387.35, -187500.02, -187500.02, -187500.02, -187500.02, -187500.02, -187500.02, 0.000, 0.000, 0.000, 15:18:48.969
142, 44226.86, 9682.04, -187500.02, -187500.02, -187500.02, -187500.02, -187500.02, -187500.02, 0.008, -0.012, 1.028, 15:18:48.969
143, 44378.54, 9862.84, -187500.02, -187500.02, -187500.02, -187500.02, -187500.02, -187500.02, 0.000, 0.000, 0.000, 15:18:48.970
144, 44283.52, 9784.27, -187500.02, -187500.02, -187500.02, -187500.02, -187500.02, -187500.02, 0.000, 0.000, 0.000, 15:18:48.970
145, 44013.13, 9538.41, -187500.02, -187500.02, -187500.02, -187500.02, -187500.02, -187500.02, 0.000, 0.000, 0.000, 15:18:48.970
146, 43901.69, 9386.75, -187500.02, -187500.02, -187500.02, -187500.02, -187500.02, -187500.02, 0.000, 0.000, 0.000, 15:18:48.970
147, 44224.13, 9676.76, -187500.02, -187500.02, -187500.02, -187500.02, -187500.02, -187500.02, 0.000, 0.000, 0.000, 15:18:48.970
148, 44373.20, 9856.31, -187500.02, -187500.02, -187500.02, -187500.02, -187500.02, -187500.02, 0.000, 0.000, 0.000, 15:18:48.970
149, 44271.94, 9774.04, -187500.02, -187500.02, -187500.02, -187500.02, -187500.02, -187500.02, 0.000, 0.000, 0.000, 15:18:48.970
150, 44014.03, 9536.84, -187500.02, -187500.02, -187500.02, -187500.02, -187500.02, -187500.02, 0.000, 0.000, 0.000, 15:18:48.970
151, 43898.33, 9376.18, -187500.02, -187500.02, -187500.02, -187500.02, -187500.02, -187500.02, 0.000, 0.000, 0.000, 15:18:48.971
152, 44212.75, 9665.07, -187500.02, -187500.02, -187500.02, -187500.02, -187500.02, -187500.02, 0.008, -0.014, 1.028, 15:18:48.971
153, 44354.04, 9838.41, -187500.02, -187500.02, -187500.02, -187500.02, -187500.02, -187500.02, 0.000, 0.000, 0.000, 15:18:48.971
154, 44278.25, 9778.44, -187500.02, -187500.02, -187500.02, -187500.02, -187500.02, -187500.02, 0.000, 0.000, 0.000, 15:18:48.971
155, 44024.31, 9547.57, -187500.02, -187500.02, -187500.02, -187500.02, -187500.02, -187500.02, 0.000, 0.000, 0.000, 15:18:48.971
