%OpenBCI Raw EEG Data
%
%Sample Rate = 250.0 Hz
%First Column = SampleIndex
%Last Column = Timestamp 
%Other Columns = EEG data in microvolts followed by Accel Data (in G) interleaved with Aux Data
0, 12130.05, -1491.51, -187500.02, -187500.02, -187500.02, -187500.02, -187500.02, -187500.02, 0.008, 0.194, 0.996, 17:59:39.365
1, 9320.30, -4270.35, -187500.02, -187500.02, -187500.02, -187500.02, -187500.02, -187500.02, 0.000, 0.000, 0.000, 17:59:39.366
2, 8182.59, -5412.16, -187500.02, -187500.02, -187500.02, -187500.02, -187500.02, -187500.02, 0.000, 0.000, 0.000, 17:59:39.366
3, 11919.98, -1728.06, -187500.02, -187500.02, -187500.02, -187500.02, -187500.02, -187500.02, 0.000, 0.000, 0.000, 17:59:39.366
4, 13112.81, -533.13, -187500.02, -187500.02, -187500.02, -187500.02, -187500.02, -187500.02, 0.000, 0.000, 0.000, 17:59:39.366
5, 12114.96, -1515.69, -187500.02, -187500.02, -187500.02, -187500.02, -187500.02, -187500.02, 0.000, 0.000, 0.000, 17:59:39.366
6, 9318.98, -4276.58, -187500.02, -187500.02, -187500.02, -187500.02, -187500.02, -187500.02, 0.000, 0.000, 0.000, 17:59:39.367
7, 8179.06, -5416.36, -187500.02, -187500.02, -187500.02, -187500.02, -187500.02, -187500.02, 0.008, 0.204, 0.996, 17:59:39.367
8, 11901.95, -1745.27, -187500.02, -187500.02, -187500.02, -187500.02, -187500.02, -187500.02, 0.000, 0.000, 0.000, 17:59:39.367
9, 13109.81, -537.54, -187500.02, -187500.02, -187500.02, -187500.02, -187500.02, -187500.02, 0.000, 0.000, 0.000, 17:59:39.367
10, 12140.73, -1487.20, -187500.02, -187500.02, -187500.02, -187500.02, -187500.02, -187500.02, 0.000, 0.000, 0.000, 17:59:39.367
11, 9340.06, -4250.61, -187500.02, -187500.02, -187500.02, -187500.02, -187500.02, -187500.02, 0.000, 0.000, 0.000, 17:59:39.367
12, 8173.79, -5418.24, -187500.02, -187500.02, -187500.02, -187500.02, -187500.02, -187500.02, 0.000, 0.000, 0.000, 17:59:39.368
13, 11901.10, -1751.75, -187500.02, -187500.02, -187500.02, -187500.02, -187500.02, -187500.02, 0.000, 0.000, 0.000, 17:59:39.368
14, 13113.50, -532.98, -187500.02, -187500.02, -187500.02, -187500.02, -187500.02, -187500.02, 0.000, 0.000, 0.000, 17:59:39.368
15, 12131.19, -1492.25, -187500.02, -187500.02, -187500.02, -187500.02, -187500.02, -187500.02, 0.000, 0.000, 0.000, 17:59:39.368
16, 9343.01, -4250.90, -187500.02, -187500.02, -187500.02, -187500.02, -187500.02, -187500.02, 0.010, 0.204, 0.994, 17:59:39.368
17, 8162.81, -5433.75, -187500.02, -187500.02, -187500.02, -187500.02, -187500.02, -187500.02, 0.000, 0.000, 0.000, 17:59:39.368
18, 11879.13, -1777.88, -187500.02, -187500.02, -187500.02, -187500.02, -187500.02, -187500.02, 0.000, 0.000, 0.000, 17:59:39.369
19, 13114.80, -535.10, -187500.02, -187500.02, -187500.02, -187500.02, -187500.02, -187500.02, 0.000, 0.000, 0.000, 17:59:39.369
20, 12148.71, -1476.09, -187500.02, -187500.02, -187500.02, -187500.02, -187500.02, -187500.02, 0.000, 0.000, 0.000, 17:59:39.369
21, 9359.32, -4230.04, -187500.02, -187500.02, -187500.02, -187500.02, -187500.02, -187500.02, 0.000, 0.000, 0.000, 17:59:39.369
22, 8159.01, -5430.00, -187500.02, -187500.02, -187500.02, -187500.02, -187500.02, -187500.02, 0.000, 0.000, 0.000, 17:59:39.369
23, 11871.03, -1779.80, -187500.02, -187500.02, -187500.02, -187500.02, -187500.02, -187500.02, 0.000, 0.000, 0.000, 17:59:39.370
24, 13103.67, -541.23, -187500.02, -187500.02, -187500.02, -187500.02, -187500.02, -187500.02, 0.000, 0.000, 0.000, 17:59:39.370
25, 12134.90, -1487.20, -187500.02, -187500.02, -187500.02, -187500.02, -187500.02, -187500.02, 0.000, 0.000, 0.000, 17:59:39.370
26, 9352.62, -4233.33, -187500.02, -187500.02, -187500.02, -187500.02, -187500.02, -187500.02, 0.014, 0.204, 0.996, 17:59:39.370
27, 8142.76, -5447.66, -187500.02, -187500.02, -187500.02, -187500.02, -187500.02, -187500.02, 0.000, 0.000, 0.000, 17:59:39.370
28, 11864.01, -1785.59, -187500.02, -187500.02, -187500.02, -187500.02, -187500.02, -187500.02, 0.000, 0.000, 0.000, 17:59:39.370
29, 13114.68, -524.80, -187500.02, -187500.02, -187500.02, -187500.02, -187500.02, -187500.02, 0.000, 0.000, 0.000, 17:59:39.371
30, 12158.21, -1461.18, -187500.02, -187500.02, -187500.02, -187500.02, -187500.02, -187500.02, 0.000, 0.000, 0.000, 17:59:39.371
31, 9376.15, -4207.40, -187500.02, -187500.02, -187500.02, -187500.02, -187500.02, -187500.02, 0.000, 0.000, 0.000, 17:59:39.371
32, 8145.85, -5443.12, -187500.02, -187500.02, -187500.02, -187500.02, -187500.02, -187500.02, 0.000, 0.000, 0.000, 17:59:39.371
33, 11849.40, -1797.77, -187500.02, -187500.02, -187500.02, -187500.02, -187500.02, -187500.02, 0.000, 0.000, 0.000, 17:59:39.371
34, 13126.20, -511.09, -187500.02, -187500.02, -187500.02, -187500.02, -187500.02, -187500.02, 0.000, 0.000, 0.000, 17:59:39.371
35, 12165.18, -1449.87, -187500.02, -187500.02, -187500.02, -187500.02, -187500.02, -187500.02, 0.000, 0.000, 0.000, 17:59:39.372
36, 9380.04, -4199.20, -187500.02, -187500.02, -187500.02, -187500.02, -187500.02, -187500.02, 0.014, 0.202, 0.988, 17:59:39.372
37, 8132.79, -5450.56, -187500.02, -187500.02, -187500.02, -187500.02, -187500.02, -187500.02, 0.000, 0.000, 0.000, 17:59:39.372
38, 11840.63, -1797.62, -187500.02, -187500.02, -187500.02, -187500.02, -187500.02, -187500.02, 0.000, 0.000, 0.000, 17:59:39.372
39, 13108.60, -527.12, -187500.02, -187500.02, -187500.02, -187500.02, -187500.02, -187500.02, 0.000, 0.000, 0.000, 17:59:39.372
40, 12147.30, -1465.74, -187500.02, -187500.02, -187500.02, -187500.02, -187500.02, -187500.02, 0.000, 0.000, 0.000, 17:59:39.373
41, 9381.18, -4195.53, -187500.02, -187500.02, -187500.02, -187500.02, -187500.02, -187500.02, 0.000, 0.000, 0.000, 17:59:39.373
42, 8124.17, -5453.92, -187500.02, -187500.02, -187500.02, -187500.02, -187500.02, -187500.02, 0.000, 0.000, 0.000, 17:59:39.373
43, 11836.57, -1805.06, -187500.02, -187500.02, -187500.02, -187500.02, -187500.02, -187500.02, 0.000, 0.000, 0.000, 17:59:39.373
44, 13125.48, -513.24, -187500.02, -187500.02, -187500.02, -187500.02, -187500.02, -187500.02, 0.000, 0.000, 0.000, 17:59:39.373
45, 12167.24, -1445.62, -187500.02, -187500.02, -187500.02, -187500.02, -187500.02, -187500.02, 0.000, 0.000, 0.000, 17:59:39.373
46, 9409.61, -4169.32, -187500.02, -187500.02, -187500.02, -187500.02, -187500.02, -187500.02, 0.004, 0.224, 1.002, 17:59:39.374
47, 8113.41, -5474.19, -187500.02, -187500.02, -187500.02, -187500.02, -187500.02, -187500.02, 0.000, 0.000, 0.000, 17:59:39.374
48, 11823.65, -1822.25, -187500.02, -187500.02, -187500.02, -187500.02, -187500.02, -187500.02, 0.000, 0.000, 0.000, 17:59:39.374
49, 13138.53, -500.61, -187500.02, -187500.02, -187500.02, -187500.02, -187500.02, -187500.02, 0.000, 0.000, 0.000, 17:59:39.374
50, 12186.44, -1430.40, -187500.02, -187500.02, -187500.02, -187500.02, -187500.02, -187500.02, 0.000, 0.000, 0.000, 17:59:39.374
51, 9423.70, -4158.03, -187500.02, -187500.02, -187500.02, -187500.02, -187500.02, -187500.02, 0.000, 0.000, 0.000, 17:59:39.374
52, 8112.83, -5473.56, -187500.02, -187500.02, -187500.02, -187500.02, -187500.02, -187500.02, 0.000, 0.000, 0.000, 17:59:39.375
53, 11815.80, -1829.09, -187500.02, -187500.02, -187500.02, -187500.02, -187500.02, -187500.02, 0.000, 0.000, 0.000, 17:59:39.375
54, 13133.35, -501.15, -187500.02, -187500.02, -187500.02, -187500.02, -187500.02, -187500.02, 0.000, 0.000, 0.000, 17:59:39.375
55, 12175.73, -1437.35, -187500.02, -187500.02, -187500.02, -187500.02, -187500.02, -187500.02, 0.000, 0.000, 0.000, 17:59:39.376
56, 9418.33, -4164.73, -187500.02, -187500.02, -187500.02, -187500.02, -187500.02, -187500.02, 0.008, 0.214, 1.000, 17:59:39.376
57, 8108.94, -5477.94, -187500.02, -187500.02, -187500.02, -187500.02, -187500.02, -187500.02, 0.000, 0.000, 0.000, 17:59:39.376
58, 11790.63, -1849.54, -187500.02, -187500.02, -187500.02, -187500.02, -187500.02, -187500.02, 0.000, 0.000, 0.000, 17:59:39.376
59, 13117.25, -515.97, -187500.02, -187500.02, -187500.02, -187500.02, -187500.02, -187500.02, 0.000, 0.000, 0.000, 17:59:39.376
60, 12167.33, -1443.39, -187500.02, -187500.02, -187500.02, -187500.02, -187500.02, -187500.02, 0.000, 0.000, 0.000, 17:59:39.377
61, 9408.81, -4169.63, -187500.02, -187500.02, -187500.02, -187500.02, -187500.02, -187500.02, 0.000, 0.000, 0.000, 17:59:39.377
62, 8065.40, -5515.76, -187500.02, -187500.02, -187500.02, -187500.02, -187500.02, -187500.02, 0.000, 0.000, 0.000, 17:59:39.377
63, 11761.55, -1875.33, -187500.02, -187500.02, -187500.02, -187500.02, -187500.02, -187500.02, 0.000, 0.000, 0.000, 17:59:39.378
64, 13109.52, -521.94, -187500.02, -187500.02, -187500.02, -187500.02, -187500.02, -187500.02, 0.000, 0.000, 0.000, 17:59:39.378
65, 12173.79, -1436.43, -187500.02, -187500.02, -187500.02, -187500.02, -187500.02, -187500.02, 0.000, 0.000, 0.000, 17:59:39.378
66, 9439.79, -4140.03, -187500.02, -187500.02, -187500.02, -187500.02, -187500.02, -187500.02, 0.006, 0.210, 0.998, 17:59:39.378
67, 8077.32, -5501.97, -187500.02, -187500.02, -187500.02, -187500.02, -187500.02, -187500.02, 0.000, 0.000, 0.000, 17:59:39.378
68, 11765.53, -1868.23, -187500.02, -187500.02, -187500.02, -187500.02, -187500.02, -187500.02, 0.000, 0.000, 0.000, 17:59:39.379
69, 13130.82, -498.42, -187500.02, -187500.02, -187500.02, -187500.02, -187500.02, -187500.02, 0.000, 0.000, 0.000, 17:59:39.379
70, 12195.31, -1414.06, -187500.02, -187500.02, -187500.02, -187500.02, -187500.02, -187500.02, 0.000, 0.000, 0.000, 17:59:39.379
71, 9458.30, -4121.35, -187500.02, -187500.02, -187500.02, -187500.02, -187500.02, -187500.02, 0.000, 0.000, 0.000, 17:59:39.379
72, 8086.70, -5492.81, -187500.02, -187500.02, -187500.02, -187500.02, -187500.02, -187500.02, 0.000, 0.000, 0.000, 17:59:39.379
73, 11766.67, -1870.19, -187500.02, -187500.02, -187500.02, -187500.02, -187500.02, -187500.02, 0.000, 0.000, 0.000, 17:59:39.379
74, 13131.16, -500.08, -187500.02, -187500.02, -187500.02, -187500.02, -187500.02, -187500.02, 0.000, 0.000, 0.000, 17:59:39.380
75, 12194.13, -1416.56, -187500.02, -187500.02, -187500.02, -187500.02, -187500.02, -187500.02, 0.000, 0.000, 0.000, 17:59:39.380
76, 9454.27, -4122.53, -187500.02, -187500.02, -187500.02, -187500.02, -187500.02, -187500.02, 0.008, 0.204, 0.994, 17:59:39.380
77, 8064.08, -5510.24, -187500.02, -187500.02, -187500.02, -187500.02, -187500.02, -187500.02, 0.000, 0.000, 0.000, 17:59:39.380
78, 11748.19, -1886.38, -187500.02, -187500.02, -187500.02, -187500.02, -187500.02, -187500.02, 0.000, 0.000, 0.000, 17:59:39.380
79, 13131.63, -499.09, -187500.02, -187500.02, -187500.02, -187500.02, -187500.02, -187500.02, 0.000, 0.000, 0.000, 17:59:39.380
80, 12187.15, -1420.72, -187500.02, -187500.02, -187500.02, -187500.02, -187500.02, -187500.02, 0.000, 0.000, 0.000, 17:59:39.381
81, 9464.76, -4115.60, -187500.02, -187500.02, -187500.02, -187500.02, -187500.02, -187500.02, 0.000, 0.000, 0.000, 17:59:39.381
82, 8068.93, -5513.28, -187500.02, -187500.02, -187500.02, -187500.02, -187500.02, -187500.02, 0.000, 0.000, 0.000, 17:59:39.381
83, 11747.88, -1887.54, -187500.02, -187500.02, -187500.02, -187500.02, -187500.02, -187500.02, 0.000, 0.000, 0.000, 17:59:39.381
84, 13133.66, -494.96, -187500.02, -187500.02, -187500.02, -187500.02, -187500.02, -187500.02, 0.000, 0.000, 0.000, 17:59:39.381
85, 12210.62, -1399.60, -187500.02, -187500.02, -187500.02, -187500.02, -187500.02, -187500.02, 0.000, 0.000, 0.000, 17:59:39.381
86, 9481.07, -4092.63, -187500.02, -187500.02, -187500.02, -187500.02, -187500.02, -187500.02, 0.012, 0.196, 0.994, 17:59:39.381
87, 8044.77, -5526.80, -187500.02, -187500.02, -187500.02, -187500.02, -187500.02, -187500.02, 0.000, 0.000, 0.000, 17:59:39.381
88, 11727.69, -1900.05, -187500.02, -187500.02, -187500.02, -187500.02, -187500.02, -187500.02, 0.000, 0.000, 0.000, 17:59:39.381
89, 13149.53, -476.07, -187500.02, -187500.02, -187500.02, -187500.02, -187500.02, -187500.02, 0.000, 0.000, 0.000, 17:59:39.382
90, 12225.69, -1381.61, -187500.02, -187500.02, -187500.02, -187500.02, -187500.02, -187500.02, 0.000, 0.000, 0.000, 17:59:39.382
91, 9500.65, -4079.17, -187500.02, -187500.02, -187500.02, -187500.02, -187500.02, -187500.02, 0.000, 0.000, 0.000, 17:59:39.382
92, 8046.99, -5529.13, -187500.02, -187500.02, -187500.02, -187500.02, -187500.02, -187500.02, 0.000, 0.000, 0.000, 17:59:39.382
93, 11720.32, -1911.14, -187500.02, -187500.02, -187500.02, -187500.02, -187500.02, -187500.02, 0.000, 0.000, 0.000, 17:59:39.382
94, 13144.08, -483.11, -187500.02, -187500.02, -187500.02, -187500.02, -187500.02, -187500.02, 0.000, 0.000, 0.000, 17:59:39.382
95, 12208.14, -1393.79, -187500.02, -187500.02, -187500.02, -187500.02, -187500.02, -187500.02, 0.000, 0.000, 0.000, 17:59:39.382
96, 9488.27, -4081.47, -187500.02, -187500.02, -187500.02, -187500.02, -187500.02, -187500.02, 0.010, 0.200, 1.002, 17:59:39.382
97, 8019.94, -5549.54, -187500.02, -187500.02, -187500.02, -187500.02, -187500.02, -187500.02, 0.000, 0.000, 0.000, 17:59:39.382
98, 11698.23, -1929.65, -187500.02, -187500.02, -187500.02, -187500.02, -187500.02, -187500.02, 0.000, 0.000, 0.000, 17:59:39.383
99, 13139.76, -486.15, -187500.02, -187500.02, -187500.02, -187500.02, -187500.02, -187500.02, 0.000, 0.000, 0.000, 17:59:39.383
100, 12217.24, -1385.52, -187500.02, -187500.02, -187500.02, -187500.02, -187500.02, -187500.02, 0.000, 0.000, 0.000, 17:59:39.383
101, 9497.90, -4072.35, -187500.02, -187500.02, -187500.02, -187500.02, -187500.02, -187500.02, 0.000, 0.000, 0.000, 17:59:39.383
102, 8008.58, -5563.95, -187500.02, -187500.02, -187500.02, -187500.02, -187500.02, -187500.02, 0.000, 0.000, 0.000, 17:59:39.383
103, 11694.39, -1934.59, -187500.02, -187500.02, -187500.02, -187500.02, -187500.02, -187500.02, 0.000, 0.000, 0.000, 17:59:39.383
104, 13160.33, -464.56, -187500.02, -187500.02, -187500.02, -187500.02, -187500.02, -187500.02, 0.000, 0.000, 0.000, 17:59:39.383
105, 12236.42, -1366.07, -187500.02, -187500.02, -187500.02, -187500.02, -187500.02, -187500.02, 0.000, 0.000, 0.000, 17:59:39.383
106, 9514.18, -4059.48, -187500.02, -187500.02, -187500.02, -187500.02, -187500.02, -187500.02, 0.008, 0.198, 1.004, 17:59:39.384
107, 8010.82, -5560.13, -187500.02, -187500.02, -187500.02, -187500.02, -187500.02, -187500.02, 0.000, 0.000, 0.000, 17:59:39.384
108, 11686.12, -1940.44, -187500.02, -187500.02, -187500.02, -187500.02, -187500.02, -187500.02, 0.000, 0.000, 0.000, 17:59:39.384
109, 13160.62, -465.52, -187500.02, -187500.02, -187500.02, -187500.02, -187500.02, -187500.02, 0.000, 0.000, 0.000, 17:59:39.384
110, 12237.87, -1366.81, -187500.02, -187500.02, -187500.02, -187500.02, -187500.02, -187500.02, 0.000, 0.000, 0.000, 17:59:39.384
111, 9507.40, -4061.07, -187500.02, -187500.02, -187500.02, -187500.02, -187500.02, -187500.02, 0.000, 0.000, 0.000, 17:59:39.384
112, 7993.90, -5573.30, -187500.02, -187500.02, -187500.02, -187500.02, -187500.02, -187500.02, 0.000, 0.000, 0.000, 17:59:39.384
113, 11678.83, -1947.22, -187500.02, -187500.02, -187500.02, -187500.02, -187500.02, -187500.02, 0.000, 0.000, 0.000, 17:59:39.384
114, 13160.80, -464.78, -187500.02, -187500.02, -187500.02, -187500.02, -187500.02, -187500.02, 0.000, 0.000, 0.000, 17:59:39.384
115, 12234.76, -1368.82, -187500.02, -187500.02, -187500.02, -187500.02, -187500.02, -187500.02, 0.000, 0.000, 0.000, 17:59:39.385
116, 9508.43, -4060.26, -187500.02, -187500.02, -187500.02, -187500.02, -187500.02, -187500.02, 0.008, 0.202, 1.000, 17:59:39.385
117, 7980.89, -5586.84, -187500.02, -187500.02, -187500.02, -187500.02, -187500.02, -187500.02, 0.000, 0.000, 0.000, 17:59:39.385
118, 11662.78, -1963.13, -187500.02, -187500.02, -187500.02, -187500.02, -187500.02, -187500.02, 0.000, 0.000, 0.000, 17:59:39.385
119, 13155.41, -465.07, -187500.02, -187500.02, -187500.02, -187500.02, -187500.02, -187500.02, 0.000, 0.000, 0.000, 17:59:39.385
120, 12237.45, -1360.44, -187500.02, -187500.02, -187500.02, -187500.02, -187500.02, -187500.02, 0.000, 0.000, 0.000, 17:59:39.846
121, 9533.62, -4032.23, -187500.02, -187500.02, -187500.02, -187500.02, -187500.02, -187500.02, 0.000, 0.000, 0.000, 17:59:39.846
122, 7983.73, -5578.30, -187500.02, -187500.02, -187500.02, -187500.02, -187500.02, -187500.02, 0.000, 0.000, 0.000, 17:59:39.846
123, 11666.76, -1956.87, -187500.02, -187500.02, -187500.02, -187500.02, -187500.02, -187500.02, 0.000, 0.000, 0.000, 17:59:39.846
124, 13176.71, -443.86, -187500.02, -187500.02, -187500.02, -187500.02, -187500.02, -187500.02, 0.000, 0.000, 0.000, 17:59:39.846
125, 12256.56, -1338.65, -187500.02, -187500.02, -187500.02, -187500.02, -187500.02, -187500.02, 0.000, 0.000, 0.000, 17:59:39.847
126, 9544.40, -4017.55, -187500.02, -187500.02, -187500.02, -187500.02, -187500.02, -187500.02, 0.010, 0.194, 0.990, 17:59:39.847
127, 7972.82, -5587.60, -187500.02, -187500.02, -187500.02, -187500.02, -187500.02, -187500.02, 0.000, 0.000, 0.000, 17:59:39.847
128, 11655.05, -1963.22, -187500.02, -187500.02, -187500.02, -187500.02, -187500.02, -187500.02, 0.000, 0.000, 0.000, 17:59:39.847
129, 13175.91, -440.08, -187500.02, -187500.02, -187500.02, -187500.02, -187500.02, -187500.02, 0.000, 0.000, 0.000, 17:59:39.847
130, 12258.55, -1339.34, -187500.02, -187500.02, -187500.02, -187500.02, -187500.02, -187500.02, 0.000, 0.000, 0.000, 17:59:39.847
131, 9560.87, -4004.49, -187500.02, -187500.02, -187500.02, -187500.02, -187500.02, -187500.02, 0.000, 0.000, 0.000, 17:59:39.847
132, 7973.27, -5592.09, -187500.02, -187500.02, -187500.02, -187500.02, -187500.02, -187500.02, 0.000, 0.000, 0.000, 17:59:39.847
133, 11642.62, -1975.07, -187500.02, -187500.02, -187500.02, -187500.02, -187500.02, -187500.02, 0.000, 0.000, 0.000, 17:59:39.848
134, 13172.87, -443.17, -187500.02, -187500.02, -187500.02, -187500.02, -187500.02, -187500.02, 0.000, 0.000, 0.000, 17:59:39.848
135, 12255.53, -1338.04, -187500.02, -187500.02, -187500.02, -187500.02, -187500.02, -187500.02, 0.000, 0.000, 0.000, 17:59:39.848
136, 9557.36, -4002.77, -187500.02, -187500.02, -187500.02, -187500.02, -187500.02, -187500.02, 0.014, 0.192, 0.994, 17:59:39.848
137, 7961.36, -5596.43, -187500.02, -187500.02, -187500.02, -187500.02, -187500.02, -187500.02, 0.000, 0.000, 0.000, 17:59:39.848
138, 11619.84, -1998.38, -187500.02, -187500.02, -187500.02, -187500.02, -187500.02, -187500.02, 0.000, 0.000, 0.000, 17:59:39.848
139, 13176.38, -440.08, -187500.02, -187500.02, -187500.02, -187500.02, -187500.02, -187500.02, 0.000, 0.000, 0.000, 17:59:39.848
140, 12278.06, -1315.74, -187500.02, -187500.02, -187500.02, -187500.02, -187500.02, -187500.02, 0.000, 0.000, 0.000, 17:59:39.849
141, 9590.24, -3970.43, -187500.02, -187500.02, -187500.02, -187500.02, -187500.02, -187500.02, 0.000, 0.000, 0.000, 17:59:39.849
142, 7956.42, -5600.99, -187500.02, -187500.02, -187500.02, -187500.02, -187500.02, -187500.02, 0.000, 0.000, 0.000, 17:59:39.849
143, 11618.39, -2000.53, -187500.02, -187500.02, -187500.02, -187500.02, -187500.02, -187500.02, 0.000, 0.000, 0.000, 17:59:39.849
144, 13178.50, -437.36, -187500.02, -187500.02, -187500.02, -187500.02, -187500.02, -187500.02, 0.000, 0.000, 0.000, 17:59:39.849
145, 12271.40, -1320.36, -187500.02, -187500.02, -187500.02, -187500.02, -187500.02, -187500.02, 0.000, 0.000, 0.000, 17:59:39.849
146, 9596.36, -3963.84, -187500.02, -187500.02, -187500.02, -187500.02, -187500.02, -187500.02, 0.012, 0.190, 0.998, 17:59:39.850
147, 7954.05, -5601.37, -187500.02, -187500.02, -187500.02, -187500.02, -187500.02, -187500.02, 0.000, 0.000, 0.000, 17:59:39.850
148, 11596.55, -2017.45, -187500.02, -187500.02, -187500.02, -187500.02, -187500.02, -187500.02, 0.000, 0.000, 0.000, 17:59:39.850
149, 13171.50, -443.44, -187500.02, -187500.02, -187500.02, -187500.02, -187500.02, -187500.02, 0.000, 0.000, 0.000, 17:59:39.850
150, 12273.03, -1319.33, -187500.02, -187500.02, -187500.02, -187500.02, -187500.02, -187500.02, 0.000, 0.000, 0.000, 17:59:39.850
151, 9599.98, -3959.21, -187500.02, -187500.02, -187500.02, -187500.02, -187500.02, -187500.02, 0.000, 0.000, 0.000, 17:59:39.850
152, 7948.70, -5607.31, -187500.02, -187500.02, -187500.02, -187500.02, -187500.02, -187500.02, 0.000, 0.000, 0.000, 17:59:39.850
153, 11590.74, -2023.53, -187500.02, -187500.02, -187500.02, -187500.02, -187500.02, -187500.02, 0.000, 0.000, 0.000, 17:59:39.850
154, 13178.01, -436.44, -187500.02, -187500.02, -187500.02, -187500.02, -187500.02, -187500.02, 0.000, 0.000, 0.000, 17:59:39.850
155, 12278.71, -1310.42, -187500.02, -187500.02, -187500.02, -187500.02, -187500.02, -187500.02, 0.010, 0.190, 0.992, 17:59:39.851
156, 9611.74, -3944.99, -187500.02, -187500.02, -187500.02, -187500.02, -187500.02, -187500.02, 0.000, 0.000, 0.000, 17:59:39.851
157, 7951.88, -5599.89, -187500.02, -187500.02, -187500.02, -187500.02, -187500.02, -187500.02, 0.000, 0.000, 0.000, 17:59:39.851
158, 11576.21, -2031.75, -187500.02, -187500.02, -187500.02, -187500.02, -187500.02, -187500.02, 0.000, 0.000, 0.000, 17:59:39.851
159, 13169.58, -438.05, -187500.02, -187500.02, -187500.02, -187500.02, -187500.02, -187500.02, 0.000, 0.000, 0.000, 17:59:39.851
160, 12279.31, -1308.38, -187500.02, -187500.02, -187500.02, -187500.02, -187500.02, -187500.02, 0.000, 0.000, 0.000, 17:59:39.852
161, 9617.87, -3937.86, -187500.02, -187500.02, -187500.02, -187500.02, -187500.02, -187500.02, 0.000, 0.000, 0.000, 17:59:39.852
162, 7940.14, -5613.57, -187500.02, -187500.02, -187500.02, -187500.02, -187500.02, -187500.02, 0.000, 0.000, 0.000, 17:59:39.852
163, 11572.46, -2036.87, -187500.02, -187500.02, -187500.02, -187500.02, -187500.02, -187500.02, 0.000, 0.000, 0.000, 17:59:39.852
164, 13169.58, -436.53, -187500.02, -187500.02, -187500.02, -187500.02, -187500.02, -187500.02, 0.000, 0.000, 0.000, 17:59:39.852
165, 12266.84, -1320.59, -187500.02, -187500.02, -187500.02, -187500.02, -187500.02, -187500.02, 0.014, 0.194, 0.996, 17:59:39.852
166, 9625.71, -3928.48, -187500.02, -187500.02, -187500.02, -187500.02, -187500.02, -187500.02, 0.000, 0.000, 0.000, 17:59:39.853
167, 7930.98, -5616.39, -187500.02, -187500.02, -187500.02, -187500.02, -187500.02, -187500.02, 0.000, 0.000, 0.000, 17:59:39.853
168, 11547.38, -2064.68, -187500.02, -187500.02, -187500.02, -187500.02, -187500.02, -187500.02, 0.000, 0.000, 0.000, 17:59:39.853
169, 13171.12, -440.55, -187500.02, -187500.02, -187500.02, -187500.02, -187500.02, -187500.02, 0.000, 0.000, 0.000, 17:59:39.853
170, 12275.24, -1316.61, -187500.02, -187500.02, -187500.02, -187500.02, -187500.02, -187500.02, 0.000, 0.000, 0.000, 17:59:39.853
171, 9635.55, -3921.66, -187500.02, -187500.02, -187500.02, -187500.02, -187500.02, -187500.02, 0.000, 0.000, 0.000, 17:59:39.854
172, 7926.33, -5625.40, -187500.02, -187500.02, -187500.02, -187500.02, -187500.02, -187500.02, 0.000, 0.000, 0.000, 17:59:39.854
173, 11534.37, -2075.78, -187500.02, -187500.02, -187500.02, -187500.02, -187500.02, -187500.02, 0.000, 0.000, 0.000, 17:59:39.854
174, 13169.67, -440.44, -187500.02, -187500.02, -187500.02, -187500.02, -187500.02, -187500.02, 0.000, 0.000, 0.000, 17:59:39.854
175, 12290.13, -1299.78, -187500.02, -187500.02, -187500.02, -187500.02, -187500.02, -187500.02, 0.012, 0.196, 0.990, 17:59:39.854
176, 9658.75, -3898.52, -187500.02, -187500.02, -187500.02, -187500.02, -187500.02, -187500.02, 0.000, 0.000, 0.000, 17:59:39.854
177, 7927.74, -5620.68, -187500.02, -187500.02, -187500.02, -187500.02, -187500.02, -187500.02, 0.000, 0.000, 0.000, 17:59:39.854
178, 11537.90, -2065.06, -187500.02, -187500.02, -187500.02, -187500.02, -187500.02, -187500.02, 0.000, 0.000, 0.000, 17:59:39.855
179, 13177.98, -425.85, -187500.02, -187500.02, -187500.02, -187500.02, -187500.02, -187500.02, 0.000, 0.000, 0.000, 17:59:39.855
180, 12282.57, -1301.07, -187500.02, -187500.02, -187500.02, -187500.02, -187500.02, -187500.02, 0.000, 0.000, 0.000, 17:59:39.855
181, 9660.27, -3893.54, -187500.02, -187500.02, -187500.02, -187500.02, -187500.02, -187500.02, 0.000, 0.000, 0.000, 17:59:39.855
182, 7920.61, -5634.56, -187500.02, -187500.02, -187500.02, -187500.02, -187500.02, -187500.02, 0.000, 0.000, 0.000, 17:59:39.855
183, 11517.81, -2095.63, -187500.02, -187500.02, -187500.02, -187500.02, -187500.02, -187500.02, 0.000, 0.000, 0.000, 17:59:39.855
184, 13178.50, -430.25, -187500.02, -187500.02, -187500.02, -187500.02, -187500.02, -187500.02, 0.000, 0.000, 0.000, 17:59:39.855
185, 12296.66, -1292.87, -187500.02, -187500.02, -187500.02, -187500.02, -187500.02, -187500.02, 0.008, 0.192, 0.994, 17:59:39.855
186, 9671.22, -3885.87, -187500.02, -187500.02, -187500.02, -187500.02, -187500.02, -187500.02, 0.000, 0.000, 0.000, 17:59:39.856
187, 7915.07, -5634.47, -187500.02, -187500.02, -187500.02, -187500.02, -187500.02, -187500.02, 0.000, 0.000, 0.000, 17:59:39.856
188, 11512.18, -2098.74, -187500.02, -187500.02, -187500.02, -187500.02, -187500.02, -187500.02, 0.000, 0.000, 0.000, 17:59:39.856
189, 13172.58, -435.57, -187500.02, -187500.02, -187500.02, -187500.02, -187500.02, -187500.02, 0.000, 0.000, 0.000, 17:59:39.856
190, 12300.90, -1288.33, -187500.02, -187500.02, -187500.02, -187500.02, -187500.02, -187500.02, 0.000, 0.000, 0.000, 17:59:39.856
191, 9681.95, -3878.79, -187500.02, -187500.02, -187500.02, -187500.02, -187500.02, -187500.02, 0.000, 0.000, 0.000, 17:59:39.856
192, 7913.12, -5639.34, -187500.02, -187500.02, -187500.02, -187500.02, -187500.02, -187500.02, 0.000, 0.000, 0.000, 17:59:39.856
193, 11500.40, -2111.10, -187500.02, -187500.02, -187500.02, -187500.02, -187500.02, -187500.02, 0.000, 0.000, 0.000, 17:59:39.856
194, 13188.53, -421.42, -187500.02, -187500.02, -187500.02, -187500.02, -187500.02, -187500.02, 0.000, 0.000, 0.000, 17:59:39.856
195, 12325.69, -1263.12, -187500.02, -187500.02, -187500.02, -187500.02, -187500.02, -187500.02, 0.010, 0.192, 1.000, 17:59:39.857
196, 9711.70, -3843.25, -187500.02, -187500.02, -187500.02, -187500.02, -187500.02, -187500.02, 0.000, 0.000, 0.000, 17:59:39.857
197, 7918.53, -5628.35, -187500.02, -187500.02, -187500.02, -187500.02, -187500.02, -187500.02, 0.000, 0.000, 0.000, 17:59:39.857
198, 11494.25, -2109.58, -187500.02, -187500.02, -187500.02, -187500.02, -187500.02, -187500.02, 0.000, 0.000, 0.000, 17:59:39.857
199, 13182.05, -420.17, -187500.02, -187500.02, -187500.02, -187500.02, -187500.02, -187500.02, 0.000, 0.000, 0.000, 17:59:39.857
200, 12309.84, -1277.40, -187500.02, -187500.02, -187500.02, -187500.02, -187500.02, -187500.02, 0.000, 0.000, 0.000, 17:59:39.857
201, 9705.55, -3851.90, -187500.02, -187500.02, -187500.02, -187500.02, -187500.02, -187500.02, 0.000, 0.000, 0.000, 17:59:39.858
202, 7906.28, -5648.22, -187500.02, -187500.02, -187500.02, -187500.02, -187500.02, -187500.02, 0.000, 0.000, 0.000, 17:59:39.858
203, 11477.20, -2137.56, -187500.02, -187500.02, -187500.02, -187500.02, -187500.02, -187500.02, 0.000, 0.000, 0.000, 17:59:39.858
204, 13190.55, -421.98, -187500.02, -187500.02, -187500.02, -187500.02, -187500.02, -187500.02, 0.000, 0.000, 0.000, 17:59:39.858
205, 12312.26, -1274.63, -187500.02, -187500.02, -187500.02, -187500.02, -187500.02, -187500.02, 0.014, 0.192, 1.004, 17:59:39.858
206, 9704.10, -3851.67, -187500.02, -187500.02, -187500.02, -187500.02, -187500.02, -187500.02, 0.000, 0.000, 0.000, 17:59:39.858
207, 7902.95, -5645.76, -187500.02, -187500.02, -187500.02, -187500.02, -187500.02, -187500.02, 0.000, 0.000, 0.000, 17:59:39.858
208, 11469.89, -2137.94, -187500.02, -187500.02, -187500.02, -187500.02, -187500.02, -187500.02, 0.000, 0.000, 0.000, 17:59:39.858
209, 13183.08, -428.73, -187500.02, -187500.02, -187500.02, -187500.02, -187500.02, -187500.02, 0.000, 0.000, 0.000, 17:59:39.858
210, 12305.37, -1283.28, -187500.02, -187500.02, -187500.02, -187500.02, -187500.02, -187500.02, 0.000, 0.000, 0.000, 17:59:39.859
211, 9717.40, -3840.30, -187500.02, -187500.02, -187500.02, -187500.02, -187500.02, -187500.02, 0.000, 0.000, 0.000, 17:59:39.859
212, 7901.88, -5651.46, -187500.02, -187500.02, -187500.02, -187500.02, -187500.02, -187500.02, 0.000, 0.000, 0.000, 17:59:39.859
213, 11463.14, -2150.51, -187500.02, -187500.02, -187500.02, -187500.02, -187500.02, -187500.02, 0.000, 0.000, 0.000, 17:59:39.859
214, 13197.94, -415.70, -187500.02, -187500.02, -187500.02, -187500.02, -187500.02, -187500.02, 0.000, 0.000, 0.000, 17:59:39.859
215, 12326.67, -1264.68, -187500.02, -187500.02, -187500.02, -187500.02, -187500.02, -187500.02, 0.014, 0.194, 1.004, 17:59:39.860
216, 9734.81, -3825.14, -187500.02, -187500.02, -187500.02, -187500.02, -187500.02, -187500.02, 0.000, 0.000, 0.000, 17:59:39.860
217, 7903.04, -5650.54, -187500.02, -187500.02, -187500.02, -187500.02, -187500.02, -187500.02, 0.000, 0.000, 0.000, 17:59:39.860
218, 11447.49, -2163.74, -187500.02, -187500.02, -187500.02, -187500.02, -187500.02, -187500.02, 0.000, 0.000, 0.000, 17:59:39.860
219, 13180.06, -434.34, -187500.02, -187500.02, -187500.02, -187500.02, -187500.02, -187500.02, 0.000, 0.000, 0.000, 17:59:39.860
220, 12323.21, -1268.22, -187500.02, -187500.02, -187500.02, -187500.02, -187500.02, -187500.02, 0.000, 0.000, 0.000, 17:59:39.860
221, 9749.83, -3803.80, -187500.02, -187500.02, -187500.02, -187500.02, -187500.02, -187500.02, 0.000, 0.000, 0.000, 17:59:39.861
222, 7896.69, -5655.48, -187500.02, -187500.02, -187500.02, -187500.02, -187500.02, -187500.02, 0.000, 0.000, 0.000, 17:59:39.861
223, 11432.27, -2180.75, -187500.02, -187500.02, -187500.02, -187500.02, -187500.02, -187500.02, 0.000, 0.000, 0.000, 17:59:39.861
224, 13192.78, -418.40, -187500.02, -187500.02, -187500.02, -187500.02, -187500.02, -187500.02, 0.000, 0.000, 0.000, 17:59:39.861
225, 12334.21, -1258.56, -187500.02, -187500.02, -187500.02, -187500.02, -187500.02, -187500.02, 0.008, 0.194, 1.000, 17:59:39.861
226, 9757.99, -3805.45, -187500.02, -187500.02, -187500.02, -187500.02, -187500.02, -187500.02, 0.000, 0.000, 0.000, 17:59:39.862
227, 7889.56, -5661.90, -187500.02, -187500.02, -187500.02, -187500.02, -187500.02, -187500.02, 0.000, 0.000, 0.000, 17:59:39.862
228, 11426.86, -2186.83, -187500.02, -187500.02, -187500.02, -187500.02, -187500.02, -187500.02, 0.000, 0.000, 0.000, 17:59:39.862
229, 13181.18, -435.32, -187500.02, -187500.02, -187500.02, -187500.02, -187500.02, -187500.02, 0.000, 0.000, 0.000, 17:59:39.862
230, 12320.66, -1270.27, -187500.02, -187500.02, -187500.02, -187500.02, -187500.02, -187500.02, 0.000, 0.000, 0.000, 17:59:39.862
231, 9760.51, -3796.64, -187500.02, -187500.02, -187500.02, -187500.02, -187500.02, -187500.02, 0.000, 0.000, 0.000, 17:59:39.862
232, 7878.19, -5670.48, -187500.02, -187500.02, -187500.02, -187500.02, -187500.02, -187500.02, 0.000, 0.000, 0.000, 17:59:39.863
233, 11407.46, -2204.22, -187500.02, -187500.02, -187500.02, -187500.02, -187500.02, -187500.02, 0.000, 0.000, 0.000, 17:59:39.863
234, 13192.98, -419.81, -187500.02, -187500.02, -187500.02, -187500.02, -187500.02, -187500.02, 0.000, 0.000, 0.000, 17:59:39.863
235, 12355.69, -1230.42, -187500.02, -187500.02, -187500.02, -187500.02, -187500.02, -187500.02, 0.004, 0.192, 1.000, 17:59:39.863
236, 9800.10, -3763.34, -187500.02, -187500.02, -187500.02, -187500.02, -187500.02, -187500.02, 0.000, 0.000, 0.000, 17:59:39.863
237, 7892.69, -5663.13, -187500.02, -187500.02, -187500.02, -187500.02, -187500.02, -187500.02, 0.000, 0.000, 0.000, 17:59:39.863
238, 11411.21, -2204.31, -187500.02, -187500.02, -187500.02, -187500.02, -187500.02, -187500.02, 0.000, 0.000, 0.000, 17:59:39.864
239, 13196.92, -417.40, -187500.02, -187500.02, -187500.02, -187500.02, -187500.02, -187500.02, 0.000, 0.000, 0.000, 17:59:39.864
240, 12349.27, -1246.38, -187500.02, -187500.02, -187500.02, -187500.02, -187500.02, -187500.02, 0.000, 0.000, 0.000, 17:59:40.103
241, 9800.70, -3761.49, -187500.02, -187500.02, -187500.02, -187500.02, -187500.02, -187500.02, 0.000, 0.000, 0.000, 17:59:40.103
242, 7887.35, -5660.80, -187500.02, -187500.02, -187500.02, -187500.02, -187500.02, -187500.02, 0.000, 0.000, 0.000, 17:59:40.104
243, 11390.67, -2215.97, -187500.02, -187500.02, -187500.02, -187500.02, -187500.02, -187500.02, 0.000, 0.000, 0.000, 17:59:40.104
244, 13190.23, -417.73, -187500.02, -187500.02, -187500.02, -187500.02, -187500.02, -187500.02, 0.000, 0.000, 0.000, 17:59:40.104
245, 12340.64, -1246.29, -187500.02, -187500.02, -187500.02, -187500.02, -187500.02, -187500.02, 0.012, 0.186, 0.996, 17:59:40.104
246, 9808.35, -3750.31, -187500.02, -187500.02, -187500.02, -187500.02, -187500.02, -187500.02, 0.000, 0.000, 0.000, 17:59:40.104
247, 7870.56, -5673.39, -187500.02, -187500.02, -187500.02, -187500.02, -187500.02, -187500.02, 0.000, 0.000, 0.000, 17:59:40.105
248, 11370.35, -2229.97, -187500.02, -187500.02, -187500.02, -187500.02, -187500.02, -187500.02, 0.000, 0.000, 0.000, 17:59:40.105
249, 13182.05, -422.20, -187500.02, -187500.02, -187500.02, -187500.02, -187500.02, -187500.02, 0.000, 0.000, 0.000, 17:59:40.105
250, 12338.41, -1242.80, -187500.02, -187500.02, -187500.02, -187500.02, -187500.02, -187500.02, 0.000, 0.000, 0.000, 17:59:40.105
251, 9809.40, -3738.42, -187500.02, -187500.02, -187500.02, -187500.02, -187500.02, -187500.02, 0.000, 0.000, 0.000, 17:59:40.105
252, 7868.40, -5674.35, -187500.02, -187500.02, -187500.02, -187500.02, -187500.02, -187500.02, 0.000, 0.000, 0.000, 17:59:40.106
253, 11357.55, -2239.11, -187500.02, -187500.02, -187500.02, -187500.02, -187500.02, -187500.02, 0.000, 0.000, 0.000, 17:59:40.106
254, 13201.19, -394.44, -187500.02, -187500.02, -187500.02, -187500.02, -187500.02, -187500.02, 0.000, 0.000, 0.000, 17:59:40.106
255, 12366.55, -1216.16, -187500.02, -187500.02, -187500.02, -187500.02, -187500.02, -187500.02, 0.012, 0.190, 0.996, 17:59:40.106
0, 9827.82, -3723.96, -187500.02, -187500.02, -187500.02, -187500.02, -187500.02, -187500.02, 0.000, 0.000, 0.000, 17:59:40.106
1, 7862.94, -5678.55, -187500.02, -187500.02, -187500.02, -187500.02, -187500.02, -187500.02, 0.000, 0.000, 0.000, 17:59:40.107
2, 11349.52, -2251.02, -187500.02, -187500.02, -187500.02, -187500.02, -187500.02, -187500.02, 0.000, 0.000, 0.000, 17:59:40.107
3, 13187.60, -412.52, -187500.02, -187500.02, -187500.02, -187500.02, -187500.02, -187500.02, 0.000, 0.000, 0.000, 17:59:40.107
4, 12345.47, -1232.83, -187500.02, -187500.02, -187500.02, -187500.02, -187500.02, -187500.02, 0.000, 0.000, 0.000, 17:59:40.107
5, 9819.86, -3723.26, -187500.02, -187500.02, -187500.02, -187500.02, -187500.02, -187500.02, 0.000, 0.000, 0.000, 17:59:40.107
6, 7843.88, -5688.94, -187500.02, -187500.02, -187500.02, -187500.02, -187500.02, -187500.02, 0.000, 0.000, 0.000, 17:59:40.107
7, 11329.79, -2262.53, -187500.02, -187500.02, -187500.02, -187500.02, -187500.02, -187500.02, 0.000, 0.000, 0.000, 17:59:40.108
8, 13190.97, -402.71, -187500.02, -187500.02, -187500.02, -187500.02, -187500.02, -187500.02, 0.000, 0.000, 0.000, 17:59:40.108
9, 12352.56, -1218.10, -187500.02, -187500.02, -187500.02, -187500.02, -187500.02, -187500.02, 0.010, 0.192, 0.996, 17:59:40.108
10, 9831.46, -3708.98, -187500.02, -187500.02, -187500.02, -187500.02, -187500.02, -187500.02, 0.000, 0.000, 0.000, 17:59:40.108
11, 7851.52, -5682.35, -187500.02, -187500.02, -187500.02, -187500.02, -187500.02, -187500.02, 0.000, 0.000, 0.000, 17:59:40.108
12, 11316.71, -2273.13, -187500.02, -187500.02, -187500.02, -187500.02, -187500.02, -187500.02, 0.000, 0.000, 0.000, 17:59:40.109
13, 13192.65, -398.40, -187500.02, -187500.02, -187500.02, -187500.02, -187500.02, -187500.02, 0.000, 0.000, 0.000, 17:59:40.109
14, 12368.67, -1202.72, -187500.02, -187500.02, -187500.02, -187500.02, -187500.02, -187500.02, 0.000, 0.000, 0.000, 17:59:40.109
15, 9850.95, -3685.80, -187500.02, -187500.02, -187500.02, -187500.02, -187500.02, -187500.02, 0.000, 0.000, 0.000, 17:59:40.109
16, 7844.41, -5678.44, -187500.02, -187500.02, -187500.02, -187500.02, -187500.02, -187500.02, 0.000, 0.000, 0.000, 17:59:40.109
17, 11304.48, -2279.12, -187500.02, -187500.02, -187500.02, -187500.02, -187500.02, -187500.02, 0.000, 0.000, 0.000, 17:59:40.109
18, 13182.95, -402.91, -187500.02, -187500.02, -187500.02, -187500.02, -187500.02, -187500.02, 0.000, 0.000, 0.000, 17:59:40.110
19, 12354.73, -1204.60, -187500.02, -187500.02, -187500.02, -187500.02, -187500.02, -187500.02, 0.008, 0.194, 1.000, 17:59:40.110
20, 9849.65, -3678.49, -187500.02, -187500.02, -187500.02, -187500.02, -187500.02, -187500.02, 0.000, 0.000, 0.000, 17:59:40.110
21, 7828.92, -5689.46, -187500.02, -187500.02, -187500.02, -187500.02, -187500.02, -187500.02, 0.000, 0.000, 0.000, 17:59:40.110
22, 11287.92, -2294.72, -187500.02, -187500.02, -187500.02, -187500.02, -187500.02, -187500.02, 0.000, 0.000, 0.000, 17:59:40.110
23, 13183.46, -402.98, -187500.02, -187500.02, -187500.02, -187500.02, -187500.02, -187500.02, 0.000, 0.000, 0.000, 17:59:40.110
24, 12357.74, -1203.35, -187500.02, -187500.02, -187500.02, -187500.02, -187500.02, -187500.02, 0.000, 0.000, 0.000, 17:59:40.111
25, 9857.57, -3672.19, -187500.02, -187500.02, -187500.02, -187500.02, -187500.02, -187500.02, 0.000, 0.000, 0.000, 17:59:40.111
26, 7825.75, -5689.79, -187500.02, -187500.02, -187500.02, -187500.02, -187500.02, -187500.02, 0.000, 0.000, 0.000, 17:59:40.111
27, 11268.94, -2308.13, -187500.02, -187500.02, -187500.02, -187500.02, -187500.02, -187500.02, 0.000, 0.000, 0.000, 17:59:40.111
28, 13180.22, -403.38, -187500.02, -187500.02, -187500.02, -187500.02, -187500.02, -187500.02, 0.010, 0.194, 0.992, 17:59:40.111
29, 12358.14, -1204.22, -187500.02, -187500.02, -187500.02, -187500.02, -187500.02, -187500.02, 0.000, 0.000, 0.000, 17:59:40.112
30, 9865.72, -3662.47, -187500.02, -187500.02, -187500.02, -187500.02, -187500.02, -187500.02, 0.000, 0.000, 0.000, 17:59:40.112
31, 7830.13, -5691.47, -187500.02, -187500.02, -187500.02, -187500.02, -187500.02, -187500.02, 0.000, 0.000, 0.000, 17:59:40.112
32, 11255.47, -2326.55, -187500.02, -187500.02, -187500.02, -187500.02, -187500.02, -187500.02, 0.000, 0.000, 0.000, 17:59:40.112
33, 13173.18, -411.96, -187500.02, -187500.02, -187500.02, -187500.02, -187500.02, -187500.02, 0.000, 0.000, 0.000, 17:59:40.112
34, 12371.56, -1185.09, -187500.02, -187500.02, -187500.02, -187500.02, -187500.02, -187500.02, 0.000, 0.000, 0.000, 17:59:40.112
35, 9885.35, -3642.08, -187500.02, -187500.02, -187500.02, -187500.02, -187500.02, -187500.02, 0.000, 0.000, 0.000, 17:59:40.113
36, 7826.31, -5693.75, -187500.02, -187500.02, -187500.02, -187500.02, -187500.02, -187500.02, 0.000, 0.000, 0.000, 17:59:40.113
37, 11247.46, -2331.49, -187500.02, -187500.02, -187500.02, -187500.02, -187500.02, -187500.02, 0.000, 0.000, 0.000, 17:59:40.113
38, 13178.43, -404.88, -187500.02, -187500.02, -187500.02, -187500.02, -187500.02, -187500.02, 0.010, 0.202, 0.988, 17:59:40.113
39, 12361.10, -1197.94, -187500.02, -187500.02, -187500.02, -187500.02, -187500.02, -187500.02, 0.000, 0.000, 0.000, 17:59:40.113
40, 9887.25, -3640.03, -187500.02, -187500.02, -187500.02, -187500.02, -187500.02, -187500.02, 0.000, 0.000, 0.000, 17:59:40.113
41, 7812.34, -5701.30, -187500.02, -187500.02, -187500.02, -187500.02, -187500.02, -187500.02, 0.000, 0.000, 0.000, 17:59:40.114
42, 11227.33, -2347.65, -187500.02, -187500.02, -187500.02, -187500.02, -187500.02, -187500.02, 0.000, 0.000, 0.000, 17:59:40.114
43, 13170.45, -406.27, -187500.02, -187500.02, -187500.02, -187500.02, -187500.02, -187500.02, 0.000, 0.000, 0.000, 17:59:40.114
44, 12370.28, -1185.40, -187500.02, -187500.02, -187500.02, -187500.02, -187500.02, -187500.02, 0.000, 0.000, 0.000, 17:59:40.114
45, 9905.42, -3617.65, -187500.02, -187500.02, -187500.02, -187500.02, -187500.02, -187500.02, 0.000, 0.000, 0.000, 17:59:40.114
46, 7808.87, -5701.86, -187500.02, -187500.02, -187500.02, -187500.02, -187500.02, -187500.02, 0.000, 0.000, 0.000, 17:59:40.582
47, 11210.09, -2361.17, -187500.02, -187500.02, -187500.02, -187500.02, -187500.02, -187500.02, 0.000, 0.000, 0.000, 17:59:40.582
48, 13159.72, -415.34, -187500.02, -187500.02, -187500.02, -187500.02, -187500.02, -187500.02, 0.008, 0.204, 0.996, 17:59:40.582
49, 12363.84, -1190.10, -187500.02, -187500.02, -187500.02, -187500.02, -187500.02, -187500.02, 0.000, 0.000, 0.000, 17:59:40.583
50, 9902.60, -3622.14, -187500.02, -187500.02, -187500.02, -187500.02, -187500.02, -187500.02, 0.000, 0.000, 0.000, 17:59:40.583
51, 7805.77, -5707.83, -187500.02, -187500.02, -187500.02, -187500.02, -187500.02, -187500.02, 0.000, 0.000, 0.000, 17:59:40.583
52, 11208.17, -2367.52, -187500.02, -187500.02, -187500.02, -187500.02, -187500.02, -187500.02, 0.000, 0.000, 0.000, 17:59:40.583
53, 13181.27, -398.98, -187500.02, -187500.02, -187500.02, -187500.02, -187500.02, -187500.02, 0.000, 0.000, 0.000, 17:59:40.583
54, 12384.27, -1170.74, -187500.02, -187500.02, -187500.02, -187500.02, -187500.02, -187500.02, 0.000, 0.000, 0.000, 17:59:40.583
55, 9927.68, -3596.78, -187500.02, -187500.02, -187500.02, -187500.02, -187500.02, -187500.02, 0.000, 0.000, 0.000, 17:59:40.584
56, 7813.36, -5702.94, -187500.02, -187500.02, -187500.02, -187500.02, -187500.02, -187500.02, 0.000, 0.000, 0.000, 17:59:40.584
57, 11185.39, -2388.37, -187500.02, -187500.02, -187500.02, -187500.02, -187500.02, -187500.02, 0.000, 0.000, 0.000, 17:59:40.584
58, 13168.98, -411.81, -187500.02, -187500.02, -187500.02, -187500.02, -187500.02, -187500.02, 0.006, 0.200, 1.002, 17:59:40.584
59, 12374.98, -1184.28, -187500.02, -187500.02, -187500.02, -187500.02, -187500.02, -187500.02, 0.000, 0.000, 0.000, 17:59:40.584
60, 9920.73, -3610.86, -187500.02, -187500.02, -187500.02, -187500.02, -187500.02, -187500.02, 0.000, 0.000, 0.000, 17:59:40.584
61, 7803.28, -5715.54, -187500.02, -187500.02, -187500.02, -187500.02, -187500.02, -187500.02, 0.000, 0.000, 0.000, 17:59:40.584
62, 11180.86, -2393.76, -187500.02, -187500.02, -187500.02, -187500.02, -187500.02, -187500.02, 0.000, 0.000, 0.000, 17:59:40.585
63, 13177.98, -404.97, -187500.02, -187500.02, -187500.02, -187500.02, -187500.02, -187500.02, 0.000, 0.000, 0.000, 17:59:40.585
64, 12382.55, -1179.70, -187500.02, -187500.02, -187500.02, -187500.02, -187500.02, -187500.02, 0.000, 0.000, 0.000, 17:59:40.585
65, 9943.87, -3585.60, -187500.02, -187500.02, -187500.02, -187500.02, -187500.02, -187500.02, 0.000, 0.000, 0.000, 17:59:40.585
66, 7795.08, -5719.72, -187500.02, -187500.02, -187500.02, -187500.02, -187500.02, -187500.02, 0.000, 0.000, 0.000, 17:59:40.585
67, 11161.37, -2418.12, -187500.02, -187500.02, -187500.02, -187500.02, -187500.02, -187500.02, 0.000, 0.000, 0.000, 17:59:40.585
68, 13168.53, -417.33, -187500.02, -187500.02, -187500.02, -187500.02, -187500.02, -187500.02, 0.008, 0.194, 0.998, 17:59:40.586
69, 12373.50, -1192.00, -187500.02, -187500.02, -187500.02, -187500.02, -187500.02, -187500.02, 0.000, 0.000, 0.000, 17:59:40.586
70, 9943.02, -3591.10, -187500.02, -187500.02, -187500.02, -187500.02, -187500.02, -187500.02, 0.000, 0.000, 0.000, 17:59:40.586
71, 7784.46, -5739.73, -187500.02, -187500.02, -187500.02, -187500.02, -187500.02, -187500.02, 0.000, 0.000, 0.000, 17:59:40.586
72, 11145.14, -2438.87, -187500.02, -187500.02, -187500.02, -187500.02, -187500.02, -187500.02, 0.000, 0.000, 0.000, 17:59:40.586
73, 13176.08, -413.08, -187500.02, -187500.02, -187500.02, -187500.02, -187500.02, -187500.02, 0.000, 0.000, 0.000, 17:59:40.586
74, 12390.20, -1176.13, -187500.02, -187500.02, -187500.02, -187500.02, -187500.02, -187500.02, 0.000, 0.000, 0.000, 17:59:40.586
75, 9954.26, -3581.00, -187500.02, -187500.02, -187500.02, -187500.02, -187500.02, -187500.02, 0.000, 0.000, 0.000, 17:59:40.587
76, 7789.56, -5739.03, -187500.02, -187500.02, -187500.02, -187500.02, -187500.02, -187500.02, 0.000, 0.000, 0.000, 17:59:40.587
77, 11129.78, -2457.13, -187500.02, -187500.02, -187500.02, -187500.02, -187500.02, -187500.02, 0.000, 0.000, 0.000, 17:59:40.587
78, 13163.01, -428.75, -187500.02, -187500.02, -187500.02, -187500.02, -187500.02, -187500.02, 0.008, 0.196, 1.004, 17:59:40.587
79, 12370.97, -1198.37, -187500.02, -187500.02, -187500.02, -187500.02, -187500.02, -187500.02, 0.000, 0.000, 0.000, 17:59:40.587
80, 9953.66, -3582.96, -187500.02, -187500.02, -187500.02, -187500.02, -187500.02, -187500.02, 0.000, 0.000, 0.000, 17:59:40.587
81, 7780.06, -5751.44, -187500.02, -187500.02, -187500.02, -187500.02, -187500.02, -187500.02, 0.000, 0.000, 0.000, 17:59:40.588
82, 11115.90, -2473.87, -187500.02, -187500.02, -187500.02, -187500.02, -187500.02, -187500.02, 0.000, 0.000, 0.000, 17:59:40.588
83, 13170.88, -427.23, -187500.02, -187500.02, -187500.02, -187500.02, -187500.02, -187500.02, 0.000, 0.000, 0.000, 17:59:40.588
84, 12390.55, -1188.15, -187500.02, -187500.02, -187500.02, -187500.02, -187500.02, -187500.02, 0.000, 0.000, 0.000, 17:59:40.588
85, 9972.86, -3575.41, -187500.02, -187500.02, -187500.02, -187500.02, -187500.02, -187500.02, 0.000, 0.000, 0.000, 17:59:40.588
86, 7783.28, -5752.60, -187500.02, -187500.02, -187500.02, -187500.02, -187500.02, -187500.02, 0.000, 0.000, 0.000, 17:59:40.588
87, 11108.75, -2488.06, -187500.02, -187500.02, -187500.02, -187500.02, -187500.02, -187500.02, 0.000, 0.000, 0.000, 17:59:40.589
88, 13171.30, -432.44, -187500.02, -187500.02, -187500.02, -187500.02, -187500.02, -187500.02, 0.012, 0.202, 0.996, 17:59:40.589
89, 12406.87, -1173.73, -187500.02, -187500.02, -187500.02, -187500.02, -187500.02, -187500.02, 0.000, 0.000, 0.000, 17:59:40.589
90, 9998.63, -3551.63, -187500.02, -187500.02, -187500.02, -187500.02, -187500.02, -187500.02, 0.000, 0.000, 0.000, 17:59:40.589
91, 7791.42, -5747.06, -187500.02, -187500.02, -187500.02, -187500.02, -187500.02, -187500.02, 0.000, 0.000, 0.000, 17:59:40.589
92, 11094.89, -2502.14, -187500.02, -187500.02, -187500.02, -187500.02, -187500.02, -187500.02, 0.000, 0.000, 0.000, 17:59:40.589
93, 13178.61, -426.34, -187500.02, -187500.02, -187500.02, -187500.02, -187500.02, -187500.02, 0.000, 0.000, 0.000, 17:59:40.590
94, 12397.26, -1183.70, -187500.02, -187500.02, -187500.02, -187500.02, -187500.02, -187500.02, 0.000, 0.000, 0.000, 17:59:40.590
95, 10000.97, -3553.12, -187500.02, -187500.02, -187500.02, -187500.02, -187500.02, -187500.02, 0.000, 0.000, 0.000, 17:59:40.590
96, 7779.97, -5760.85, -187500.02, -187500.02, -187500.02, -187500.02, -187500.02, -187500.02, 0.000, 0.000, 0.000, 17:59:40.590
97, 11074.08, -2525.90, -187500.02, -187500.02, -187500.02, -187500.02, -187500.02, -187500.02, 0.000, 0.000, 0.000, 17:59:40.590
98, 13159.99, -444.11, -187500.02, -187500.02, -187500.02, -187500.02, -187500.02, -187500.02, 0.008, 0.200, 0.996, 17:59:40.590
99, 12394.11, -1189.09, -187500.02, -187500.02, -187500.02, -187500.02, -187500.02, -187500.02, 0.000, 0.000, 0.000, 17:59:40.591
100, 10015.35, -3538.42, -187500.02, -187500.02, -187500.02, -187500.02, -187500.02, -187500.02, 0.000, 0.000, 0.000, 17:59:40.591
101, 7779.03, -5762.53, -187500.02, -187500.02, -187500.02, -187500.02, -187500.02, -187500.02, 0.000, 0.000, 0.000, 17:59:40.591
102, 11058.55, -2535.76, -187500.02, -187500.02, -187500.02, -187500.02, -187500.02, -187500.02, 0.000, 0.000, 0.000, 17:59:40.591
103, 13154.43, -449.47, -187500.02, -187500.02, -187500.02, -187500.02, -187500.02, -187500.02, 0.000, 0.000, 0.000, 17:59:40.591
104, 12392.05, -1187.30, -187500.02, -187500.02, -187500.02, -187500.02, -187500.02, -187500.02, 0.000, 0.000, 0.000, 17:59:40.591
105, 10010.85, -3540.99, -187500.02, -187500.02, -187500.02, -187500.02, -187500.02, -187500.02, 0.000, 0.000, 0.000, 17:59:40.592
106, 7773.22, -5765.65, -187500.02, -187500.02, -187500.02, -187500.02, -187500.02, -187500.02, 0.000, 0.000, 0.000, 17:59:40.592
107, 11057.32, -2544.50, -187500.02, -187500.02, -187500.02, -187500.02, -187500.02, -187500.02, 0.000, 0.000, 0.000, 17:59:40.592
108, 13169.40, -436.84, -187500.02, -187500.02, -187500.02, -187500.02, -187500.02, -187500.02, 0.008, 0.198, 1.000, 17:59:40.592
109, 12423.52, -1163.79, -187500.02, -187500.02, -187500.02, -187500.02, -187500.02, -187500.02, 0.000, 0.000, 0.000, 17:59:40.592
110, 10053.26, -3504.95, -187500.02, -187500.02, -187500.02, -187500.02, -187500.02, -187500.02, 0.000, 0.000, 0.000, 17:59:40.592
111, 7781.85, -5762.21, -187500.02, -187500.02, -187500.02, -187500.02, -187500.02, -187500.02, 0.000, 0.000, 0.000, 17:59:40.592
112, 11053.90, -2546.85, -187500.02, -187500.02, -187500.02, -187500.02, -187500.02, -187500.02, 0.000, 0.000, 0.000, 17:59:40.592
113, 13173.29, -436.17, -187500.02, -187500.02, -187500.02, -187500.02, -187500.02, -187500.02, 0.000, 0.000, 0.000, 17:59:40.592
114, 12412.12, -1174.45, -187500.02, -187500.02, -187500.02, -187500.02, -187500.02, -187500.02, 0.000, 0.000, 0.000, 17:59:40.593
115, 10045.63, -3515.50, -187500.02, -187500.02, -187500.02, -187500.02, -187500.02, -187500.02, 0.000, 0.000, 0.000, 17:59:40.593
116, 7757.87, -5786.98, -187500.02, -187500.02, -187500.02, -187500.02, -187500.02, -187500.02, 0.000, 0.000, 0.000, 17:59:40.593
117, 11020.75, -2580.89, -187500.02, -187500.02, -187500.02, -187500.02, -187500.02, -187500.02, 0.000, 0.000, 0.000, 17:59:40.593
118, 13169.31, -444.46, -187500.02, -187500.02, -187500.02, -187500.02, -187500.02, -187500.02, 0.010, 0.198, 0.996, 17:59:40.593
119, 12424.80, -1169.24, -187500.02, -187500.02, -187500.02, -187500.02, -187500.02, -187500.02, 0.000, 0.000, 0.000, 17:59:40.593
120, 10074.09, -3494.18, -187500.02, -187500.02, -187500.02, -187500.02, -187500.02, -187500.02, 0.000, 0.000, 0.000, 17:59:40.594
121, 7783.01, -5769.52, -187500.02, -187500.02, -187500.02, -187500.02, -187500.02, -187500.02, 0.000, 0.000, 0.000, 17:59:40.594
122, 11013.00, -2595.13, -187500.02, -187500.02, -187500.02, -187500.02, -187500.02, -187500.02, 0.000, 0.000, 0.000, 17:59:40.594
123, 13182.30, -441.72, -187500.02, -187500.02, -187500.02, -187500.02, -187500.02, -187500.02, 0.000, 0.000, 0.000, 17:59:40.594
124, 12431.50, -1171.50, -187500.02, -187500.02, -187500.02, -187500.02, -187500.02, -187500.02, 0.000, 0.000, 0.000, 17:59:40.594
125, 10072.39, -3494.43, -187500.02, -187500.02, -187500.02, -187500.02, -187500.02, -187500.02, 0.000, 0.000, 0.000, 17:59:40.595
126, 7767.19, -5783.16, -187500.02, -187500.02, -187500.02, -187500.02, -187500.02, -187500.02, 0.000, 0.000, 0.000, 17:59:40.595
127, 11006.69, -2604.36, -187500.02, -187500.02, -187500.02, -187500.02, -187500.02, -187500.02, 0.000, 0.000, 0.000, 17:59:40.595
128, 13184.02, -439.26, -187500.02, -187500.02, -187500.02, -187500.02, -187500.02, -187500.02, 0.010, 0.194, 0.996, 17:59:40.595
129, 12439.46, -1163.10, -187500.02, -187500.02, -187500.02, -187500.02, -187500.02, -187500.02, 0.000, 0.000, 0.000, 17:59:40.595
130, 10098.92, -3475.29, -187500.02, -187500.02, -187500.02, -187500.02, -187500.02, -187500.02, 0.000, 0.000, 0.000, 17:59:40.595
131, 7787.68, -5776.23, -187500.02, -187500.02, -187500.02, -187500.02, -187500.02, -187500.02, 0.000, 0.000, 0.000, 17:59:40.596
132, 11011.72, -2608.45, -187500.02, -187500.02, -187500.02, -187500.02, -187500.02, -187500.02, 0.000, 0.000, 0.000, 17:59:40.596
133, 13185.65, -444.96, -187500.02, -187500.02, -187500.02, -187500.02, -187500.02, -187500.02, 0.000, 0.000, 0.000, 17:59:40.596
134, 12434.19, -1174.34, -187500.02, -187500.02, -187500.02, -187500.02, -187500.02, -187500.02, 0.000, 0.000, 0.000, 17:59:40.596
135, 10104.35, -3475.70, -187500.02, -187500.02, -187500.02, -187500.02, -187500.02, -187500.02, 0.000, 0.000, 0.000, 17:59:40.596
136, 7785.67, -5780.47, -187500.02, -187500.02, -187500.02, -187500.02, -187500.02, -187500.02, 0.000, 0.000, 0.000, 17:59:40.597
137, 10980.00, -2642.89, -187500.02, -187500.02, -187500.02, -187500.02, -187500.02, -187500.02, 0.000, 0.000, 0.000, 17:59:40.597
138, 13172.40, -462.66, -187500.02, -187500.02, -187500.02, -187500.02, -187500.02, -187500.02, 0.012, 0.190, 0.994, 17:59:40.597
139, 12433.45, -1178.67, -187500.02, -187500.02, -187500.02, -187500.02, -187500.02, -187500.02, 0.000, 0.000, 0.000, 17:59:40.597
140, 10108.42, -3476.21, -187500.02, -187500.02, -187500.02, -187500.02, -187500.02, -187500.02, 0.000, 0.000, 0.000, 17:59:40.597
141, 7777.18, -5791.25, -187500.02, -187500.02, -187500.02, -187500.02, -187500.02, -187500.02, 0.000, 0.000, 0.000, 17:59:40.598
142, 10963.73, -2662.96, -187500.02, -187500.02, -187500.02, -187500.02, -187500.02, -187500.02, 0.000, 0.000, 0.000, 17:59:40.598
143, 13155.77, -481.03, -187500.02, -187500.02, -187500.02, -187500.02, -187500.02, -187500.02, 0.000, 0.000, 0.000, 17:59:40.598
144, 12426.99, -1183.88, -187500.02, -187500.02, -187500.02, -187500.02, -187500.02, -187500.02, 0.000, 0.000, 0.000, 17:59:40.598
145, 10118.95, -3468.86, -187500.02, -187500.02, -187500.02, -187500.02, -187500.02, -187500.02, 0.000, 0.000, 0.000, 17:59:40.598
146, 7765.13, -5807.90, -187500.02, -187500.02, -187500.02, -187500.02, -187500.02, -187500.02, 0.000, 0.000, 0.000, 17:59:40.598
147, 10960.76, -2667.05, -187500.02, -187500.02, -187500.02, -187500.02, -187500.02, -187500.02, 0.000, 0.000, 0.000, 17:59:40.599
148, 13192.69, -447.77, -187500.02, -187500.02, -187500.02, -187500.02, -187500.02, -187500.02, 0.014, 0.192, 0.990, 17:59:40.599
149, 12470.35, -1149.91, -187500.02, -187500.02, -187500.02, -187500.02, -187500.02, -187500.02, 0.000, 0.000, 0.000, 17:59:40.599
150, 10160.72, -3434.99, -187500.02, -187500.02, -187500.02, -187500.02, -187500.02, -187500.02, 0.000, 0.000, 0.000, 17:59:40.599
151, 7771.32, -5807.79, -187500.02, -187500.02, -187500.02, -187500.02, -187500.02, -187500.02, 0.000, 0.000, 0.000, 17:59:40.599
152, 10939.59, -2695.53, -187500.02, -187500.02, -187500.02, -187500.02, -187500.02, -187500.02, 0.000, 0.000, 0.000, 17:59:40.599
153, 13181.02, -463.44, -187500.02, -187500.02, -187500.02, -187500.02, -187500.02, -187500.02, 0.000, 0.000, 0.000, 17:59:40.600
154, 12462.06, -1166.47, -187500.02, -187500.02, -187500.02, -187500.02, -187500.02, -187500.02, 0.000, 0.000, 0.000, 17:59:40.600
155, 10146.48, -3449.75, -187500.02, -187500.02, -187500.02, -187500.02, -187500.02, -187500.02, 0.000, 0.000, 0.000, 17:59:40.600
156, 7768.15, -5810.31, -187500.02, -187500.02, -187500.02, -187500.02, -187500.02, -187500.02, 0.000, 0.000, 0.000, 17:59:40.600
157, 10938.45, -2698.75, -187500.02, -187500.02, -187500.02, -187500.02, -187500.02, -187500.02, 0.012, 0.192, 0.998, 17:59:40.600
158, 13180.80, -468.40, -187500.02, -187500.02, -187500.02, -187500.02, -187500.02, -187500.02, 0.000, 0.000, 0.000, 17:59:40.600
159, 12457.05, -1173.11, -187500.02, -187500.02, -187500.02, -187500.02, -187500.02, -187500.02, 0.000, 0.000, 0.000, 17:59:40.601
160, 10157.77, -3440.96, -187500.02, -187500.02, -187500.02, -187500.02, -187500.02, -187500.02, 0.000, 0.000, 0.000, 17:59:40.601
161, 7756.19, -5826.79, -187500.02, -187500.02, -187500.02, -187500.02, -187500.02, -187500.02, 0.000, 0.000, 0.000, 17:59:40.601
162, 10901.19, -2745.60, -187500.02, -187500.02, -187500.02, -187500.02, -187500.02, -187500.02, 0.000, 0.000, 0.000, 17:59:40.601
163, 13161.00, -495.85, -187500.02, -187500.02, -187500.02, -187500.02, -187500.02, -187500.02, 0.000, 0.000, 0.000, 17:59:40.601
164, 12430.94, -1193.54, -187500.02, -187500.02, -187500.02, -187500.02, -187500.02, -187500.02, 0.000, 0.000, 0.000, 17:59:40.602
165, 10142.98, -3458.04, -187500.02, -187500.02, -187500.02, -187500.02, -187500.02, -187500.02, 0.000, 0.000, 0.000, 17:59:40.602
166, 7716.51, -5871.40, -187500.02, -187500.02, -187500.02, -187500.02, -187500.02, -187500.02, 0.000, 0.000, 0.000, 17:59:41.062
167, 10846.38, -2800.32, -187500.02, -187500.02, -187500.02, -187500.02, -187500.02, -187500.02, 0.010, 0.196, 1.000, 17:59:41.062
168, 13117.10, -543.35, -187500.02, -187500.02, -187500.02, -187500.02, -187500.02, -187500.02, 0.000, 0.000, 0.000, 17:59:41.062
169, 12406.07, -1234.84, -187500.02, -187500.02, -187500.02, -187500.02, -187500.02, -187500.02, 0.000, 0.000, 0.000, 17:59:41.062
170, 10111.79, -3496.28, -187500.02, -187500.02, -187500.02, -187500.02, -187500.02, -187500.02, 0.000, 0.000, 0.000, 17:59:41.062
171, 7674.65, -5915.77, -187500.02, -187500.02, -187500.02, -187500.02, -187500.02, -187500.02, 0.000, 0.000, 0.000, 17:59:41.062
172, 10780.29, -2871.33, -187500.02, -187500.02, -187500.02, -187500.02, -187500.02, -187500.02, 0.000, 0.000, 0.000, 17:59:41.063
173, 13058.47, -608.55, -187500.02, -187500.02, -187500.02, -187500.02, -187500.02, -187500.02, 0.000, 0.000, 0.000, 17:59:41.063
174, 12349.92, -1292.00, -187500.02, -187500.02, -187500.02, -187500.02, -187500.02, -187500.02, 0.000, 0.000, 0.000, 17:59:41.063
175, 10085.78, -3529.81, -187500.02, -187500.02, -187500.02, -187500.02, -187500.02, -187500.02, 0.000, 0.000, 0.000, 17:59:41.063
176, 7656.68, -5939.35, -187500.02, -187500.02, -187500.02, -187500.02, -187500.02, -187500.02, 0.000, 0.000, 0.000, 17:59:41.063
177, 10774.39, -2878.50, -187500.02, -187500.02, -187500.02, -187500.02, -187500.02, -187500.02, 0.008, 0.194, 1.004, 17:59:41.064
178, 13084.78, -580.03, -187500.02, -187500.02, -187500.02, -187500.02, -187500.02, -187500.02, 0.000, 0.000, 0.000, 17:59:41.064
179, 12387.25, -1254.96, -187500.02, -187500.02, -187500.02, -187500.02, -187500.02, -187500.02, 0.000, 0.000, 0.000, 17:59:41.064
180, 10135.87, -3480.81, -187500.02, -187500.02, -187500.02, -187500.02, -187500.02, -187500.02, 0.000, 0.000, 0.000, 17:59:41.064
181, 7699.89, -5894.20, -187500.02, -187500.02, -187500.02, -187500.02, -187500.02, -187500.02, 0.000, 0.000, 0.000, 17:59:41.064
182, 10805.82, -2848.71, -187500.02, -187500.02, -187500.02, -187500.02, -187500.02, -187500.02, 0.000, 0.000, 0.000, 17:59:41.065
183, 13129.66, -535.73, -187500.02, -187500.02, -187500.02, -187500.02, -187500.02, -187500.02, 0.000, 0.000, 0.000, 17:59:41.065
184, 12436.60, -1209.70, -187500.02, -187500.02, -187500.02, -187500.02, -187500.02, -187500.02, 0.000, 0.000, 0.000, 17:59:41.065
185, 10186.94, -3434.93, -187500.02, -187500.02, -187500.02, -187500.02, -187500.02, -187500.02, 0.000, 0.000, 0.000, 17:59:41.065
186, 7736.92, -5862.21, -187500.02, -187500.02, -187500.02, -187500.02, -187500.02, -187500.02, 0.000, 0.000, 0.000, 17:59:41.065
187, 10824.17, -2829.17, -187500.02, -187500.02, -187500.02, -187500.02, -187500.02, -187500.02, 0.010, 0.196, 1.004, 17:59:41.065
188, 13160.13, -509.55, -187500.02, -187500.02, -187500.02, -187500.02, -187500.02, -187500.02, 0.000, 0.000, 0.000, 17:59:41.066
189, 12460.72, -1185.09, -187500.02, -187500.02, -187500.02, -187500.02, -187500.02, -187500.02, 0.000, 0.000, 0.000, 17:59:41.066
190, 10209.25, -3409.85, -187500.02, -187500.02, -187500.02, -187500.02, -187500.02, -187500.02, 0.000, 0.000, 0.000, 17:59:41.066
191, 7747.78, -5852.42, -187500.02, -187500.02, -187500.02, -187500.02, -187500.02, -187500.02, 0.000, 0.000, 0.000, 17:59:41.066
192, 10825.42, -2829.15, -187500.02, -187500.02, -187500.02, -187500.02, -187500.02, -187500.02, 0.000, 0.000, 0.000, 17:59:41.066
193, 13168.95, -502.06, -187500.02, -187500.02, -187500.02, -187500.02, -187500.02, -187500.02, 0.000, 0.000, 0.000, 17:59:41.066
194, 12481.95, -1167.74, -187500.02, -187500.02, -187500.02, -187500.02, -187500.02, -187500.02, 0.000, 0.000, 0.000, 17:59:41.067
195, 10258.40, -3363.69, -187500.02, -187500.02, -187500.02, -187500.02, -187500.02, -187500.02, 0.000, 0.000, 0.000, 17:59:41.067
196, 7784.84, -5813.87, -187500.02, -187500.02, -187500.02, -187500.02, -187500.02, -187500.02, 0.000, 0.000, 0.000, 17:59:41.067
197, 10842.90, -2815.40, -187500.02, -187500.02, -187500.02, -187500.02, -187500.02, -187500.02, 0.008, 0.194, 0.998, 17:59:41.067
198, 13193.99, -476.34, -187500.02, -187500.02, -187500.02, -187500.02, -187500.02, -187500.02, 0.000, 0.000, 0.000, 17:59:41.067
199, 12503.63, -1141.37, -187500.02, -187500.02, -187500.02, -187500.02, -187500.02, -187500.02, 0.000, 0.000, 0.000, 17:59:41.068
200, 10281.49, -3336.29, -187500.02, -187500.02, -187500.02, -187500.02, -187500.02, -187500.02, 0.000, 0.000, 0.000, 17:59:41.068
201, 7791.80, -5810.25, -187500.02, -187500.02, -187500.02, -187500.02, -187500.02, -187500.02, 0.000, 0.000, 0.000, 17:59:41.068
202, 10837.35, -2823.63, -187500.02, -187500.02, -187500.02, -187500.02, -187500.02, -187500.02, 0.000, 0.000, 0.000, 17:59:41.068
203, 13221.37, -452.82, -187500.02, -187500.02, -187500.02, -187500.02, -187500.02, -187500.02, 0.000, 0.000, 0.000, 17:59:41.068
204, 12530.03, -1115.37, -187500.02, -187500.02, -187500.02, -187500.02, -187500.02, -187500.02, 0.000, 0.000, 0.000, 17:59:41.068
205, 10302.39, -3318.09, -187500.02, -187500.02, -187500.02, -187500.02, -187500.02, -187500.02, 0.000, 0.000, 0.000, 17:59:41.068
206, 7796.94, -5808.21, -187500.02, -187500.02, -187500.02, -187500.02, -187500.02, -187500.02, 0.000, 0.000, 0.000, 17:59:41.068
207, 10823.90, -2835.36, -187500.02, -187500.02, -187500.02, -187500.02, -187500.02, -187500.02, 0.010, 0.196, 1.000, 17:59:41.069
208, 13203.98, -467.20, -187500.02, -187500.02, -187500.02, -187500.02, -187500.02, -187500.02, 0.000, 0.000, 0.000, 17:59:41.069
209, 12525.67, -1123.64, -187500.02, -187500.02, -187500.02, -187500.02, -187500.02, -187500.02, 0.000, 0.000, 0.000, 17:59:41.069
210, 10314.99, -3312.22, -187500.02, -187500.02, -187500.02, -187500.02, -187500.02, -187500.02, 0.000, 0.000, 0.000, 17:59:41.069
211, 7795.91, -5809.31, -187500.02, -187500.02, -187500.02, -187500.02, -187500.02, -187500.02, 0.000, 0.000, 0.000, 17:59:41.069
212, 10810.02, -2852.37, -187500.02, -187500.02, -187500.02, -187500.02, -187500.02, -187500.02, 0.000, 0.000, 0.000, 17:59:41.069
213, 13204.65, -469.77, -187500.02, -187500.02, -187500.02, -187500.02, -187500.02, -187500.02, 0.000, 0.000, 0.000, 17:59:41.069
214, 12535.68, -1115.84, -187500.02, -187500.02, -187500.02, -187500.02, -187500.02, -187500.02, 0.000, 0.000, 0.000, 17:59:41.069
215, 10326.44, -3297.60, -187500.02, -187500.02, -187500.02, -187500.02, -187500.02, -187500.02, 0.000, 0.000, 0.000, 17:59:41.069
216, 7798.43, -5808.23, -187500.02, -187500.02, -187500.02, -187500.02, -187500.02, -187500.02, 0.000, 0.000, 0.000, 17:59:41.070
217, 10798.78, -2862.83, -187500.02, -187500.02, -187500.02, -187500.02, -187500.02, -187500.02, 0.016, 0.200, 1.000, 17:59:41.070
218, 13213.99, -459.10, -187500.02, -187500.02, -187500.02, -187500.02, -187500.02, -187500.02, 0.000, 0.000, 0.000, 17:59:41.070
219, 12546.39, -1103.30, -187500.02, -187500.02, -187500.02, -187500.02, -187500.02, -187500.02, 0.000, 0.000, 0.000, 17:59:41.070
220, 10343.00, -3282.38, -187500.02, -187500.02, -187500.02, -187500.02, -187500.02, -187500.02, 0.000, 0.000, 0.000, 17:59:41.070
221, 7799.55, -5802.45, -187500.02, -187500.02, -187500.02, -187500.02, -187500.02, -187500.02, 0.000, 0.000, 0.000, 17:59:41.070
222, 10785.81, -2872.69, -187500.02, -187500.02, -187500.02, -187500.02, -187500.02, -187500.02, 0.000, 0.000, 0.000, 17:59:41.070
223, 13220.45, -451.71, -187500.02, -187500.02, -187500.02, -187500.02, -187500.02, -187500.02, 0.000, 0.000, 0.000, 17:59:41.070
224, 12565.14, -1087.88, -187500.02, -187500.02, -187500.02, -187500.02, -187500.02, -187500.02, 0.000, 0.000, 0.000, 17:59:41.070
225, 10369.96, -3258.91, -187500.02, -187500.02, -187500.02, -187500.02, -187500.02, -187500.02, 0.000, 0.000, 0.000, 17:59:41.071
226, 7810.17, -5799.96, -187500.02, -187500.02, -187500.02, -187500.02, -187500.02, -187500.02, 0.000, 0.000, 0.000, 17:59:41.071
227, 10777.85, -2889.39, -187500.02, -187500.02, -187500.02, -187500.02, -187500.02, -187500.02, 0.012, 0.198, 1.002, 17:59:41.071
228, 13210.15, -465.74, -187500.02, -187500.02, -187500.02, -187500.02, -187500.02, -187500.02, 0.000, 0.000, 0.000, 17:59:41.071
229, 12555.24, -1096.76, -187500.02, -187500.02, -187500.02, -187500.02, -187500.02, -187500.02, 0.000, 0.000, 0.000, 17:59:41.071
230, 10371.41, -3258.30, -187500.02, -187500.02, -187500.02, -187500.02, -187500.02, -187500.02, 0.000, 0.000, 0.000, 17:59:41.071
231, 7795.53, -5816.44, -187500.02, -187500.02, -187500.02, -187500.02, -187500.02, -187500.02, 0.000, 0.000, 0.000, 17:59:41.071
232, 10764.35, -2901.03, -187500.02, -187500.02, -187500.02, -187500.02, -187500.02, -187500.02, 0.000, 0.000, 0.000, 17:59:41.071
233, 13217.44, -463.87, -187500.02, -187500.02, -187500.02, -187500.02, -187500.02, -187500.02, 0.000, 0.000, 0.000, 17:59:41.072
234, 12556.41, -1100.71, -187500.02, -187500.02, -187500.02, -187500.02, -187500.02, -187500.02, 0.000, 0.000, 0.000, 17:59:41.072
235, 10383.08, -3251.89, -187500.02, -187500.02, -187500.02, -187500.02, -187500.02, -187500.02, 0.000, 0.000, 0.000, 17:59:41.072
236, 7797.14, -5814.09, -187500.02, -187500.02, -187500.02, -187500.02, -187500.02, -187500.02, 0.000, 0.000, 0.000, 17:59:41.072
237, 10747.41, -2915.18, -187500.02, -187500.02, -187500.02, -187500.02, -187500.02, -187500.02, 0.004, 0.198, 0.996, 17:59:41.072
238, 13211.13, -470.15, -187500.02, -187500.02, -187500.02, -187500.02, -187500.02, -187500.02, 0.000, 0.000, 0.000, 17:59:41.072
239, 12557.86, -1098.21, -187500.02, -187500.02, -187500.02, -187500.02, -187500.02, -187500.02, 0.000, 0.000, 0.000, 17:59:41.073
240, 10392.98, -3238.57, -187500.02, -187500.02, -187500.02, -187500.02, -187500.02, -187500.02, 0.000, 0.000, 0.000, 17:59:41.073
241, 7797.20, -5814.16, -187500.02, -187500.02, -187500.02, -187500.02, -187500.02, -187500.02, 0.000, 0.000, 0.000, 17:59:41.073
242, 10723.61, -2940.98, -187500.02, -187500.02, -187500.02, -187500.02, -187500.02, -187500.02, 0.000, 0.000, 0.000, 17:59:41.073
243, 13219.11, -462.75, -187500.02, -187500.02, -187500.02, -187500.02, -187500.02, -187500.02, 0.000, 0.000, 0.000, 17:59:41.073
244, 12583.85, -1077.49, -187500.02, -187500.02, -187500.02, -187500.02, -187500.02, -187500.02, 0.000, 0.000, 0.000, 17:59:41.073
245, 10408.69, -3222.14, -187500.02, -187500.02, -187500.02, -187500.02, -187500.02, -187500.02, 0.000, 0.000, 0.000, 17:59:41.074
246, 7800.45, -5808.59, -187500.02, -187500.02, -187500.02, -187500.02, -187500.02, -187500.02, 0.000, 0.000, 0.000, 17:59:41.074
247, 10714.44, -2953.65, -187500.02, -187500.02, -187500.02, -187500.02, -187500.02, -187500.02, 0.004, 0.196, 0.996, 17:59:41.074
248, 13215.45, -467.02, -187500.02, -187500.02, -187500.02, -187500.02, -187500.02, -187500.02, 0.000, 0.000, 0.000, 17:59:41.074
249, 12567.07, -1091.75, -187500.02, -187500.02, -187500.02, -187500.02, -187500.02, -187500.02, 0.000, 0.000, 0.000, 17:59:41.074
250, 10408.07, -3221.82, -187500.02, -187500.02, -187500.02, -187500.02, -187500.02, -187500.02, 0.000, 0.000, 0.000, 17:59:41.075
251, 7800.00, -5809.55, -187500.02, -187500.02, -187500.02, -187500.02, -187500.02, -187500.02, 0.000, 0.000, 0.000, 17:59:41.075
252, 10691.20, -2972.25, -187500.02, -187500.02, -187500.02, -187500.02, -187500.02, -187500.02, 0.000, 0.000, 0.000, 17:59:41.075
253, 13184.89, -489.95, -187500.02, -187500.02, -187500.02, -187500.02, -187500.02, -187500.02, 0.000, 0.000, 0.000, 17:59:41.075
254, 12552.52, -1102.19, -187500.02, -187500.02, -187500.02, -187500.02, -187500.02, -187500.02, 0.000, 0.000, 0.000, 17:59:41.075
255, 10420.03, -3210.96, -187500.02, -187500.02, -187500.02, -187500.02, -187500.02, -187500.02, 0.000, 0.000, 0.000, 17:59:41.075
0, 7800.98, -5809.75, -187500.02, -187500.02, -187500.02, -187500.02, -187500.02, -187500.02, 0.000, 0.000, 0.000, 17:59:41.076
1, 10681.29, -2987.18, -187500.02, -187500.02, -187500.02, -187500.02, -187500.02, -187500.02, 0.010, 0.194, 0.998, 17:59:41.076
2, 13215.29, -470.21, -187500.02, -187500.02, -187500.02, -187500.02, -187500.02, -187500.02, 0.000, 0.000, 0.000, 17:59:41.076
3, 12593.04, -1066.69, -187500.02, -187500.02, -187500.02, -187500.02, -187500.02, -187500.02, 0.000, 0.000, 0.000, 17:59:41.076
4, 10455.77, -3175.80, -187500.02, -187500.02, -187500.02, -187500.02, -187500.02, -187500.02, 0.000, 0.000, 0.000, 17:59:41.076
5, 7814.86, -5795.74, -187500.02, -187500.02, -187500.02, -187500.02, -187500.02, -187500.02, 0.000, 0.000, 0.000, 17:59:41.077
6, 10672.29, -2991.83, -187500.02, -187500.02, -187500.02, -187500.02, -187500.02, -187500.02, 0.000, 0.000, 0.000, 17:59:41.077
7, 13205.72, -474.57, -187500.02, -187500.02, -187500.02, -187500.02, -187500.02, -187500.02, 0.000, 0.000, 0.000, 17:59:41.077
8, 12574.15, -1082.09, -187500.02, -187500.02, -187500.02, -187500.02, -187500.02, -187500.02, 0.000, 0.000, 0.000, 17:59:41.077
9, 10446.47, -3184.03, -187500.02, -187500.02, -187500.02, -187500.02, -187500.02, -187500.02, 0.000, 0.000, 0.000, 17:59:41.077
10, 7800.36, -5811.68, -187500.02, -187500.02, -187500.02, -187500.02, -187500.02, -187500.02, 0.000, 0.000, 0.000, 17:59:41.077
11, 10643.90, -3019.74, -187500.02, -187500.02, -187500.02, -187500.02, -187500.02, -187500.02, 0.010, 0.200, 0.998, 17:59:41.078
12, 13192.54, -484.79, -187500.02, -187500.02, -187500.02, -187500.02, -187500.02, -187500.02, 0.000, 0.000, 0.000, 17:59:41.078
13, 12580.14, -1075.77, -187500.02, -187500.02, -187500.02, -187500.02, -187500.02, -187500.02, 0.000, 0.000, 0.000, 17:59:41.078
14, 10457.42, -3170.15, -187500.02, -187500.02, -187500.02, -187500.02, -187500.02, -187500.02, 0.000, 0.000, 0.000, 17:59:41.078
15, 7795.71, -5809.67, -187500.02, -187500.02, -187500.02, -187500.02, -187500.02, -187500.02, 0.000, 0.000, 0.000, 17:59:41.078
16, 10630.91, -3029.26, -187500.02, -187500.02, -187500.02, -187500.02, -187500.02, -187500.02, 0.000, 0.000, 0.000, 17:59:41.079
17, 13185.99, -491.45, -187500.02, -187500.02, -187500.02, -187500.02, -187500.02, -187500.02, 0.000, 0.000, 0.000, 17:59:41.079
18, 12566.91, -1085.27, -187500.02, -187500.02, -187500.02, -187500.02, -187500.02, -187500.02, 0.000, 0.000, 0.000, 17:59:41.079
19, 10459.19, -3166.48, -187500.02, -187500.02, -187500.02, -187500.02, -187500.02, -187500.02, 0.000, 0.000, 0.000, 17:59:41.079
20, 7788.35, -5815.83, -187500.02, -187500.02, -187500.02, -187500.02, -187500.02, -187500.02, 0.000, 0.000, 0.000, 17:59:41.079
21, 10610.44, -3046.30, -187500.02, -187500.02, -187500.02, -187500.02, -187500.02, -187500.02, 0.008, 0.198, 0.996, 17:59:41.079
22, 13200.47, -472.99, -187500.02, -187500.02, -187500.02, -187500.02, -187500.02, -187500.02, 0.000, 0.000, 0.000, 17:59:41.080
23, 12591.63, -1063.16, -187500.02, -187500.02, -187500.02, -187500.02, -187500.02, -187500.02, 0.000, 0.000, 0.000, 17:59:41.080
24, 10483.30, -3146.10, -187500.02, -187500.02, -187500.02, -187500.02, -187500.02, -187500.02, 0.000, 0.000, 0.000, 17:59:41.080
25, 7797.29, -5808.21, -187500.02, -187500.02, -187500.02, -187500.02, -187500.02, -187500.02, 0.000, 0.000, 0.000, 17:59:41.080
26, 10600.87, -3056.74, -187500.02, -187500.02, -187500.02, -187500.02, -187500.02, -187500.02, 0.000, 0.000, 0.000, 17:59:41.080
27, 13197.21, -476.63, -187500.02, -187500.02, -187500.02, -187500.02, -187500.02, -187500.02, 0.000, 0.000, 0.000, 17:59:41.081
28, 12600.66, -1050.55, -187500.02, -187500.02, -187500.02, -187500.02, -187500.02, -187500.02, 0.000, 0.000, 0.000, 17:59:41.081
29, 10491.15, -3137.78, -187500.02, -187500.02, -187500.02, -187500.02, -187500.02, -187500.02, 0.000, 0.000, 0.000, 17:59:41.081
30, 7791.68, -5809.69, -187500.02, -187500.02, -187500.02, -187500.02, -187500.02, -187500.02, 0.000, 0.000, 0.000, 17:59:41.541
31, 10595.24, -3062.59, -187500.02, -187500.02, -187500.02, -187500.02, -187500.02, -187500.02, 0.008, 0.200, 0.998, 17:59:41.541
32, 13191.73, -487.31, -187500.02, -187500.02, -187500.02, -187500.02, -187500.02, -187500.02, 0.000, 0.000, 0.000, 17:59:41.541
33, 12583.09, -1068.99, -187500.02, -187500.02, -187500.02, -187500.02, -187500.02, -187500.02, 0.000, 0.000, 0.000, 17:59:41.541
34, 10488.65, -3140.06, -187500.02, -187500.02, -187500.02, -187500.02, -187500.02, -187500.02, 0.000, 0.000, 0.000, 17:59:41.542
35, 7797.88, -5806.71, -187500.02, -187500.02, -187500.02, -187500.02, -187500.02, -187500.02, 0.000, 0.000, 0.000, 17:59:41.542
36, 10574.57, -3082.77, -187500.02, -187500.02, -187500.02, -187500.02, -187500.02, -187500.02, 0.000, 0.000, 0.000, 17:59:41.542
37, 13198.64, -473.79, -187500.02, -187500.02, -187500.02, -187500.02, -187500.02, -187500.02, 0.000, 0.000, 0.000, 17:59:41.542
38, 12602.63, -1046.62, -187500.02, -187500.02, -187500.02, -187500.02, -187500.02, -187500.02, 0.000, 0.000, 0.000, 17:59:41.542
39, 10519.51, -3104.68, -187500.02, -187500.02, -187500.02, -187500.02, -187500.02, -187500.02, 0.000, 0.000, 0.000, 17:59:41.542
40, 7797.16, -5803.36, -187500.02, -187500.02, -187500.02, -187500.02, -187500.02, -187500.02, 0.012, 0.192, 1.000, 17:59:41.542
41, 10552.55, -3100.57, -187500.02, -187500.02, -187500.02, -187500.02, -187500.02, -187500.02, 0.000, 0.000, 0.000, 17:59:41.542
42, 13168.98, -501.35, -187500.02, -187500.02, -187500.02, -187500.02, -187500.02, -187500.02, 0.000, 0.000, 0.000, 17:59:41.543
43, 12580.46, -1071.92, -187500.02, -187500.02, -187500.02, -187500.02, -187500.02, -187500.02, 0.000, 0.000, 0.000, 17:59:41.543
44, 10510.04, -3112.64, -187500.02, -187500.02, -187500.02, -187500.02, -187500.02, -187500.02, 0.000, 0.000, 0.000, 17:59:41.543
45, 7789.65, -5810.49, -187500.02, -187500.02, -187500.02, -187500.02, -187500.02, -187500.02, 0.000, 0.000, 0.000, 17:59:41.543
46, 10535.52, -3120.24, -187500.02, -187500.02, -187500.02, -187500.02, -187500.02, -187500.02, 0.000, 0.000, 0.000, 17:59:41.543
47, 13184.53, -487.27, -187500.02, -187500.02, -187500.02, -187500.02, -187500.02, -187500.02, 0.000, 0.000, 0.000, 17:59:41.543
48, 12597.49, -1050.76, -187500.02, -187500.02, -187500.02, -187500.02, -187500.02, -187500.02, 0.000, 0.000, 0.000, 17:59:41.543
49, 10531.45, -3089.97, -187500.02, -187500.02, -187500.02, -187500.02, -187500.02, -187500.02, 0.000, 0.000, 0.000, 17:59:41.543
50, 7795.66, -5804.81, -187500.02, -187500.02, -187500.02, -187500.02, -187500.02, -187500.02, 0.010, 0.194, 1.002, 17:59:41.543
51, 10524.61, -3132.55, -187500.02, -187500.02, -187500.02, -187500.02, -187500.02, -187500.02, 0.000, 0.000, 0.000, 17:59:41.544
52, 13175.06, -496.37, -187500.02, -187500.02, -187500.02, -187500.02, -187500.02, -187500.02, 0.000, 0.000, 0.000, 17:59:41.544
53, 12588.21, -1058.29, -187500.02, -187500.02, -187500.02, -187500.02, -187500.02, -187500.02, 0.000, 0.000, 0.000, 17:59:41.544
54, 10537.39, -3085.37, -187500.02, -187500.02, -187500.02, -187500.02, -187500.02, -187500.02, 0.000, 0.000, 0.000, 17:59:41.544
55, 7802.68, -5796.39, -187500.02, -187500.02, -187500.02, -187500.02, -187500.02, -187500.02, 0.000, 0.000, 0.000, 17:59:41.544
56, 10502.97, -3147.24, -187500.02, -187500.02, -187500.02, -187500.02, -187500.02, -187500.02, 0.000, 0.000, 0.000, 17:59:41.544
57, 13179.66, -488.27, -187500.02, -187500.02, -187500.02, -187500.02, -187500.02, -187500.02, 0.000, 0.000, 0.000, 17:59:41.544
58, 12613.11, -1034.01, -187500.02, -187500.02, -187500.02, -187500.02, -187500.02, -187500.02, 0.000, 0.000, 0.000, 17:59:41.544
59, 10564.46, -3060.56, -187500.02, -187500.02, -187500.02, -187500.02, -187500.02, -187500.02, 0.000, 0.000, 0.000, 17:59:41.545
60, 7802.73, -5793.04, -187500.02, -187500.02, -187500.02, -187500.02, -187500.02, -187500.02, 0.010, 0.192, 0.998, 17:59:41.545
61, 10491.22, -3157.76, -187500.02, -187500.02, -187500.02, -187500.02, -187500.02, -187500.02, 0.000, 0.000, 0.000, 17:59:41.545
62, 13177.38, -493.50, -187500.02, -187500.02, -187500.02, -187500.02, -187500.02, -187500.02, 0.000, 0.000, 0.000, 17:59:41.545
63, 12609.36, -1038.31, -187500.02, -187500.02, -187500.02, -187500.02, -187500.02, -187500.02, 0.000, 0.000, 0.000, 17:59:41.545
64, 10573.22, -3050.81, -187500.02, -187500.02, -187500.02, -187500.02, -187500.02, -187500.02, 0.000, 0.000, 0.000, 17:59:41.545
65, 7800.85, -5798.40, -187500.02, -187500.02, -187500.02, -187500.02, -187500.02, -187500.02, 0.000, 0.000, 0.000, 17:59:41.546
66, 10475.55, -3173.52, -187500.02, -187500.02, -187500.02, -187500.02, -187500.02, -187500.02, 0.000, 0.000, 0.000, 17:59:41.546
67, 13163.97, -505.91, -187500.02, -187500.02, -187500.02, -187500.02, -187500.02, -187500.02, 0.000, 0.000, 0.000, 17:59:41.546
68, 12587.05, -1058.67, -187500.02, -187500.02, -187500.02, -187500.02, -187500.02, -187500.02, 0.000, 0.000, 0.000, 17:59:41.546
69, 10557.58, -3063.17, -187500.02, -187500.02, -187500.02, -187500.02, -187500.02, -187500.02, 0.000, 0.000, 0.000, 17:59:41.546
70, 7795.44, -5799.72, -187500.02, -187500.02, -187500.02, -187500.02, -187500.02, -187500.02, 0.010, 0.192, 1.000, 17:59:41.547
71, 10452.77, -3194.33, -187500.02, -187500.02, -187500.02, -187500.02, -187500.02, -187500.02, 0.000, 0.000, 0.000, 17:59:41.547
72, 13168.28, -497.97, -187500.02, -187500.02, -187500.02, -187500.02, -187500.02, -187500.02, 0.000, 0.000, 0.000, 17:59:41.547
73, 12615.39, -1033.03, -187500.02, -187500.02, -187500.02, -187500.02, -187500.02, -187500.02, 0.000, 0.000, 0.000, 17:59:41.547
74, 10578.48, -3042.30, -187500.02, -187500.02, -187500.02, -187500.02, -187500.02, -187500.02, 0.000, 0.000, 0.000, 17:59:41.547
75, 7804.60, -5791.27, -187500.02, -187500.02, -187500.02, -187500.02, -187500.02, -187500.02, 0.000, 0.000, 0.000, 17:59:41.547
76, 10463.52, -3186.40, -187500.02, -187500.02, -187500.02, -187500.02, -187500.02, -187500.02, 0.000, 0.000, 0.000, 17:59:41.547
77, 13172.75, -495.11, -187500.02, -187500.02, -187500.02, -187500.02, -187500.02, -187500.02, 0.000, 0.000, 0.000, 17:59:41.547
78, 12606.09, -1039.22, -187500.02, -187500.02, -187500.02, -187500.02, -187500.02, -187500.02, 0.000, 0.000, 0.000, 17:59:41.547
79, 10589.32, -3030.92, -187500.02, -187500.02, -187500.02, -187500.02, -187500.02, -187500.02, 0.000, 0.000, 0.000, 17:59:41.548
80, 7795.35, -5799.56, -187500.02, -187500.02, -187500.02, -187500.02, -187500.02, -187500.02, 0.008, 0.192, 1.000, 17:59:41.548
81, 10421.59, -3219.25, -187500.02, -187500.02, -187500.02, -187500.02, -187500.02, -187500.02, 0.000, 0.000, 0.000, 17:59:41.548
82, 13162.94, -499.90, -187500.02, -187500.02, -187500.02, -187500.02, -187500.02, -187500.02, 0.000, 0.000, 0.000, 17:59:41.548
83, 12608.46, -1028.98, -187500.02, -187500.02, -187500.02, -187500.02, -187500.02, -187500.02, 0.000, 0.000, 0.000, 17:59:41.548
84, 10595.71, -3019.18, -187500.02, -187500.02, -187500.02, -187500.02, -187500.02, -187500.02, 0.000, 0.000, 0.000, 17:59:41.548
85, 7790.99, -5800.95, -187500.02, -187500.02, -187500.02, -187500.02, -187500.02, -187500.02, 0.000, 0.000, 0.000, 17:59:41.548
86, 10408.74, -3237.14, -187500.02, -187500.02, -187500.02, -187500.02, -187500.02, -187500.02, 0.000, 0.000, 0.000, 17:59:41.549
87, 13160.35, -509.11, -187500.02, -187500.02, -187500.02, -187500.02, -187500.02, -187500.02, 0.000, 0.000, 0.000, 17:59:41.549
88, 12625.87, -1022.19, -187500.02, -187500.02, -187500.02, -187500.02, -187500.02, -187500.02, 0.000, 0.000, 0.000, 17:59:41.549
89, 10628.79, -2991.80, -187500.02, -187500.02, -187500.02, -187500.02, -187500.02, -187500.02, 0.000, 0.000, 0.000, 17:59:41.549
90, 7804.89, -5789.15, -187500.02, -187500.02, -187500.02, -187500.02, -187500.02, -187500.02, 0.006, 0.192, 0.996, 17:59:41.549
91, 10407.64, -3238.72, -187500.02, -187500.02, -187500.02, -187500.02, -187500.02, -187500.02, 0.000, 0.000, 0.000, 17:59:41.549
92, 13167.01, -504.57, -187500.02, -187500.02, -187500.02, -187500.02, -187500.02, -187500.02, 0.000, 0.000, 0.000, 17:59:41.549
93, 12620.87, -1029.79, -187500.02, -187500.02, -187500.02, -187500.02, -187500.02, -187500.02, 0.000, 0.000, 0.000, 17:59:41.549
94, 10623.22, -2999.09, -187500.02, -187500.02, -187500.02, -187500.02, -187500.02, -187500.02, 0.000, 0.000, 0.000, 17:59:41.550
95, 7800.16, -5794.11, -187500.02, -187500.02, -187500.02, -187500.02, -187500.02, -187500.02, 0.000, 0.000, 0.000, 17:59:41.550
96, 10388.15, -3257.05, -187500.02, -187500.02, -187500.02, -187500.02, -187500.02, -187500.02, 0.000, 0.000, 0.000, 17:59:41.550
97, 13156.28, -505.51, -187500.02, -187500.02, -187500.02, -187500.02, -187500.02, -187500.02, 0.000, 0.000, 0.000, 17:59:41.550
98, 12608.53, -1024.60, -187500.02, -187500.02, -187500.02, -187500.02, -187500.02, -187500.02, 0.000, 0.000, 0.000, 17:59:41.550
99, 10614.89, -2998.49, -187500.02, -187500.02, -187500.02, -187500.02, -187500.02, -187500.02, 0.000, 0.000, 0.000, 17:59:41.551
100, 7790.95, -5798.49, -187500.02, -187500.02, -187500.02, -187500.02, -187500.02, -187500.02, 0.012, 0.188, 1.000, 17:59:41.551
101, 10367.59, -3275.56, -187500.02, -187500.02, -187500.02, -187500.02, -187500.02, -187500.02, 0.000, 0.000, 0.000, 17:59:41.551
102, 13138.67, -524.86, -187500.02, -187500.02, -187500.02, -187500.02, -187500.02, -187500.02, 0.000, 0.000, 0.000, 17:59:41.551
103, 12606.41, -1034.15, -187500.02, -187500.02, -187500.02, -187500.02, -187500.02, -187500.02, 0.000, 0.000, 0.000, 17:59:41.551
104, 10616.03, -2999.63, -187500.02, -187500.02, -187500.02, -187500.02, -187500.02, -187500.02, 0.000, 0.000, 0.000, 17:59:41.552
105, 7785.60, -5799.09, -187500.02, -187500.02, -187500.02, -187500.02, -187500.02, -187500.02, 0.000, 0.000, 0.000, 17:59:41.552
106, 10351.20, -3286.24, -187500.02, -187500.02, -187500.02, -187500.02, -187500.02, -187500.02, 0.000, 0.000, 0.000, 17:59:41.552
107, 13160.59, -499.47, -187500.02, -187500.02, -187500.02, -187500.02, -187500.02, -187500.02, 0.000, 0.000, 0.000, 17:59:41.552
108, 12631.62, -1007.80, -187500.02, -187500.02, -187500.02, -187500.02, -187500.02, -187500.02, 0.000, 0.000, 0.000, 17:59:41.552
109, 10653.36, -2958.01, -187500.02, -187500.02, -187500.02, -187500.02, -187500.02, -187500.02, 0.000, 0.000, 0.000, 17:59:41.553
110, 7814.97, -5776.27, -187500.02, -187500.02, -187500.02, -187500.02, -187500.02, -187500.02, 0.014, 0.192, 0.996, 17:59:41.553
111, 10347.58, -3296.32, -187500.02, -187500.02, -187500.02, -187500.02, -187500.02, -187500.02, 0.000, 0.000, 0.000, 17:59:41.553
112, 13140.17, -521.51, -187500.02, -187500.02, -187500.02, -187500.02, -187500.02, -187500.02, 0.000, 0.000, 0.000, 17:59:41.553
113, 12622.92, -1015.17, -187500.02, -187500.02, -187500.02, -187500.02, -187500.02, -187500.02, 0.000, 0.000, 0.000, 17:59:41.553
114, 10656.44, -2957.96, -187500.02, -187500.02, -187500.02, -187500.02, -187500.02, -187500.02, 0.000, 0.000, 0.000, 17:59:41.554
115, 7811.46, -5776.56, -187500.02, -187500.02, -187500.02, -187500.02, -187500.02, -187500.02, 0.000, 0.000, 0.000, 17:59:41.554
116, 10325.68, -3310.99, -187500.02, -187500.02, -187500.02, -187500.02, -187500.02, -187500.02, 0.000, 0.000, 0.000, 17:59:41.554
117, 13132.10, -524.93, -187500.02, -187500.02, -187500.02, -187500.02, -187500.02, -187500.02, 0.000, 0.000, 0.000, 17:59:41.554
118, 12609.49, -1024.87, -187500.02, -187500.02, -187500.02, -187500.02, -187500.02, -187500.02, 0.000, 0.000, 0.000, 17:59:41.554
119, 10656.01, -2954.61, -187500.02, -187500.02, -187500.02, -187500.02, -187500.02, -187500.02, 0.000, 0.000, 0.000, 17:59:41.555
120, 7805.18, -5776.63, -187500.02, -187500.02, -187500.02, -187500.02, -187500.02, -187500.02, 0.012, 0.202, 0.990, 17:59:41.555
121, 10302.86, -3323.59, -187500.02, -187500.02, -187500.02, -187500.02, -187500.02, -187500.02, 0.000, 0.000, 0.000, 17:59:41.555
122, 13135.18, -517.55, -187500.02, -187500.02, -187500.02, -187500.02, -187500.02, -187500.02, 0.000, 0.000, 0.000, 17:59:41.555
123, 12653.79, -979.14, -187500.02, -187500.02, -187500.02, -187500.02, -187500.02, -187500.02, 0.000, 0.000, 0.000, 17:59:41.555
124, 10694.62, -2910.40, -187500.02, -187500.02, -187500.02, -187500.02, -187500.02, -187500.02, 0.000, 0.000, 0.000, 17:59:41.555
125, 7812.34, -5767.91, -187500.02, -187500.02, -187500.02, -187500.02, -187500.02, -187500.02, 0.000, 0.000, 0.000, 17:59:41.555
126, 10287.03, -3340.33, -187500.02, -187500.02, -187500.02, -187500.02, -187500.02, -187500.02, 0.000, 0.000, 0.000, 17:59:41.555
127, 13118.19, -531.68, -187500.02, -187500.02, -187500.02, -187500.02, -187500.02, -187500.02, 0.000, 0.000, 0.000, 17:59:41.556
128, 12623.73, -1006.14, -187500.02, -187500.02, -187500.02, -187500.02, -187500.02, -187500.02, 0.000, 0.000, 0.000, 17:59:41.556
129, 10675.62, -2927.05, -187500.02, -187500.02, -187500.02, -187500.02, -187500.02, -187500.02, 0.000, 0.000, 0.000, 17:59:41.556
130, 7791.73, -5784.45, -187500.02, -187500.02, -187500.02, -187500.02, -187500.02, -187500.02, 0.004, 0.204, 0.996, 17:59:41.556
131, 10262.58, -3367.45, -187500.02, -187500.02, -187500.02, -187500.02, -187500.02, -187500.02, 0.000, 0.000, 0.000, 17:59:41.556
132, 13113.88, -538.07, -187500.02, -187500.02, -187500.02, -187500.02, -187500.02, -187500.02, 0.000, 0.000, 0.000, 17:59:41.556
133, 12603.70, -1022.84, -187500.02, -187500.02, -187500.02, -187500.02, -187500.02, -187500.02, 0.000, 0.000, 0.000, 17:59:41.556
134, 10662.25, -2936.59, -187500.02, -187500.02, -187500.02, -187500.02, -187500.02, -187500.02, 0.000, 0.000, 0.000, 17:59:41.556
135, 7781.16, -5794.85, -187500.02, -187500.02, -187500.02, -187500.02, -187500.02, -187500.02, 0.000, 0.000, 0.000, 17:59:41.557
136, 10234.62, -3389.51, -187500.02, -187500.02, -187500.02, -187500.02, -187500.02, -187500.02, 0.000, 0.000, 0.000, 17:59:41.557
137, 13108.43, -536.91, -187500.02, -187500.02, -187500.02, -187500.02, -187500.02, -187500.02, 0.000, 0.000, 0.000, 17:59:41.557
138, 12624.06, -1001.07, -187500.02, -187500.02, -187500.02, -187500.02, -187500.02, -187500.02, 0.000, 0.000, 0.000, 17:59:41.557
139, 10697.52, -2903.80, -187500.02, -187500.02, -187500.02, -187500.02, -187500.02, -187500.02, 0.000, 0.000, 0.000, 17:59:41.557
140, 7791.53, -5783.65, -187500.02, -187500.02, -187500.02, -187500.02, -187500.02, -187500.02, 0.004, 0.200, 0.986, 17:59:41.557
141, 10220.76, -3400.84, -187500.02, -187500.02, -187500.02, -187500.02, -187500.02, -187500.02, 0.000, 0.000, 0.000, 17:59:41.557
142, 13095.89, -549.50, -187500.02, -187500.02, -187500.02, -187500.02, -187500.02, -187500.02, 0.000, 0.000, 0.000, 17:59:41.558
143, 12617.45, -1004.87, -187500.02, -187500.02, -187500.02, -187500.02, -187500.02, -187500.02, 0.000, 0.000, 0.000, 17:59:41.558
144, 10690.35, -2907.85, -187500.02, -187500.02, -187500.02, -187500.02, -187500.02, -187500.02, 0.000, 0.000, 0.000, 17:59:41.558
145, 7772.73, -5799.96, -187500.02, -187500.02, -187500.02, -187500.02, -187500.02, -187500.02, 0.000, 0.000, 0.000, 17:59:41.558
146, 10179.99, -3440.96, -187500.02, -187500.02, -187500.02, -187500.02, -187500.02, -187500.02, 0.000, 0.000, 0.000, 17:59:41.558
147, 13070.88, -571.94, -187500.02, -187500.02, -187500.02, -187500.02, -187500.02, -187500.02, 0.000, 0.000, 0.000, 17:59:41.558
148, 12579.43, -1043.58, -187500.02, -187500.02, -187500.02, -187500.02, -187500.02, -187500.02, 0.000, 0.000, 0.000, 17:59:41.558
149, 10666.90, -2933.98, -187500.02, -187500.02, -187500.02, -187500.02, -187500.02, -187500.02, 0.000, 0.000, 0.000, 17:59:41.558
150, 7751.94, -5825.45, -187500.02, -187500.02, -187500.02, -187500.02, -187500.02, -187500.02, 0.008, 0.194, 0.992, 17:59:42.023
151, 10121.96, -3496.48, -187500.02, -187500.02, -187500.02, -187500.02, -187500.02, -187500.02, 0.000, 0.000, 0.000, 17:59:42.023
152, 13026.46, -615.92, -187500.02, -187500.02, -187500.02, -187500.02, -187500.02, -187500.02, 0.000, 0.000, 0.000, 17:59:42.023
153, 12552.36, -1070.80, -187500.02, -187500.02, -187500.02, -187500.02, -187500.02, -187500.02, 0.000, 0.000, 0.000, 17:59:42.023
154, 10633.73, -2959.17, -187500.02, -187500.02, -187500.02, -187500.02, -187500.02, -187500.02, 0.000, 0.000, 0.000, 17:59:42.024
155, 7696.20, -5869.48, -187500.02, -187500.02, -187500.02, -187500.02, -187500.02, -187500.02, 0.000, 0.000, 0.000, 17:59:42.024
156, 10060.32, -3553.79, -187500.02, -187500.02, -187500.02, -187500.02, -187500.02, -187500.02, 0.000, 0.000, 0.000, 17:59:42.024
157, 12974.92, -658.57, -187500.02, -187500.02, -187500.02, -187500.02, -187500.02, -187500.02, 0.000, 0.000, 0.000, 17:59:42.024
158, 12491.50, -1123.69, -187500.02, -187500.02, -187500.02, -187500.02, -187500.02, -187500.02, 0.000, 0.000, 0.000, 17:59:42.024
159, 10577.36, -3017.35, -187500.02, -187500.02, -187500.02, -187500.02, -187500.02, -187500.02, 0.000, 0.000, 0.000, 17:59:42.024
160, 7633.30, -5935.46, -187500.02, -187500.02, -187500.02, -187500.02, -187500.02, -187500.02, 0.010, 0.196, 0.992, 17:59:42.025
161, 9976.28, -3644.09, -187500.02, -187500.02, -187500.02, -187500.02, -187500.02, -187500.02, 0.000, 0.000, 0.000, 17:59:42.025
162, 12888.62, -755.80, -187500.02, -187500.02, -187500.02, -187500.02, -187500.02, -187500.02, 0.000, 0.000, 0.000, 17:59:42.025
163, 12411.81, -1209.94, -187500.02, -187500.02, -187500.02, -187500.02, -187500.02, -187500.02, 0.000, 0.000, 0.000, 17:59:42.025
164, 10505.63, -3087.60, -187500.02, -187500.02, -187500.02, -187500.02, -187500.02, -187500.02, 0.000, 0.000, 0.000, 17:59:42.025
165, 7554.33, -6015.90, -187500.02, -187500.02, -187500.02, -187500.02, -187500.02, -187500.02, 0.000, 0.000, 0.000, 17:59:42.026
166, 9902.14, -3717.63, -187500.02, -187500.02, -187500.02, -187500.02, -187500.02, -187500.02, 0.000, 0.000, 0.000, 17:59:42.026
167, 12856.57, -788.66, -187500.02, -187500.02, -187500.02, -187500.02, -187500.02, -187500.02, 0.000, 0.000, 0.000, 17:59:42.026
168, 12409.00, -1210.64, -187500.02, -187500.02, -187500.02, -187500.02, -187500.02, -187500.02, 0.000, 0.000, 0.000, 17:59:42.026
169, 10528.19, -3070.15, -187500.02, -187500.02, -187500.02, -187500.02, -187500.02, -187500.02, 0.010, 0.196, 0.992, 17:59:42.026
170, 7582.18, -5988.50, -187500.02, -187500.02, -187500.02, -187500.02, -187500.02, -187500.02, 0.000, 0.000, 0.000, 17:59:42.026
171, 9910.54, -3706.50, -187500.02, -187500.02, -187500.02, -187500.02, -187500.02, -187500.02, 0.000, 0.000, 0.000, 17:59:42.027
172, 12860.03, -782.80, -187500.02, -187500.02, -187500.02, -187500.02, -187500.02, -187500.02, 0.000, 0.000, 0.000, 17:59:42.027
173, 12409.78, -1207.35, -187500.02, -187500.02, -187500.02, -187500.02, -187500.02, -187500.02, 0.000, 0.000, 0.000, 17:59:42.027
174, 10533.64, -3052.73, -187500.02, -187500.02, -187500.02, -187500.02, -187500.02, -187500.02, 0.000, 0.000, 0.000, 17:59:42.027
175, 7589.06, -5966.71, -187500.02, -187500.02, -187500.02, -187500.02, -187500.02, -187500.02, 0.000, 0.000, 0.000, 17:59:42.027
176, 9903.10, -3705.63, -187500.02, -187500.02, -187500.02, -187500.02, -187500.02, -187500.02, 0.000, 0.000, 0.000, 17:59:42.027
177, 12888.89, -744.09, -187500.02, -187500.02, -187500.02, -187500.02, -187500.02, -187500.02, 0.000, 0.000, 0.000, 17:59:42.028
178, 12453.18, -1156.90, -187500.02, -187500.02, -187500.02, -187500.02, -187500.02, -187500.02, 0.000, 0.000, 0.000, 17:59:42.028
179, 10583.53, -3007.56, -187500.02, -187500.02, -187500.02, -187500.02, -187500.02, -187500.02, 0.010, 0.194, 0.988, 17:59:42.028
180, 7624.96, -5935.98, -187500.02, -187500.02, -187500.02, -187500.02, -187500.02, -187500.02, 0.000, 0.000, 0.000, 17:59:42.028
181, 9925.25, -3683.14, -187500.02, -187500.02, -187500.02, -187500.02, -187500.02, -187500.02, 0.000, 0.000, 0.000, 17:59:42.028
182, 12912.71, -717.69, -187500.02, -187500.02, -187500.02, -187500.02, -187500.02, -187500.02, 0.000, 0.000, 0.000, 17:59:42.029
183, 12489.46, -1122.44, -187500.02, -187500.02, -187500.02, -187500.02, -187500.02, -187500.02, 0.000, 0.000, 0.000, 17:59:42.029
184, 10633.75, -2952.22, -187500.02, -187500.02, -187500.02, -187500.02, -187500.02, -187500.02, 0.000, 0.000, 0.000, 17:59:42.029
185, 7670.27, -5887.38, -187500.02, -187500.02, -187500.02, -187500.02, -187500.02, -187500.02, 0.000, 0.000, 0.000, 17:59:42.029
186, 9953.70, -3649.66, -187500.02, -187500.02, -187500.02, -187500.02, -187500.02, -187500.02, 0.000, 0.000, 0.000, 17:59:42.029
187, 12944.99, -686.47, -187500.02, -187500.02, -187500.02, -187500.02, -187500.02, -187500.02, 0.000, 0.000, 0.000, 17:59:42.030
188, 12512.15, -1098.41, -187500.02, -187500.02, -187500.02, -187500.02, -187500.02, -187500.02, 0.000, 0.000, 0.000, 17:59:42.030
189, 10660.17, -2925.60, -187500.02, -187500.02, -187500.02, -187500.02, -187500.02, -187500.02, 0.012, 0.194, 0.992, 17:59:42.030
190, 7690.01, -5870.71, -187500.02, -187500.02, -187500.02, -187500.02, -187500.02, -187500.02, 0.000, 0.000, 0.000, 17:59:42.030
191, 9956.20, -3646.82, -187500.02, -187500.02, -187500.02, -187500.02, -187500.02, -187500.02, 0.000, 0.000, 0.000, 17:59:42.030
192, 12975.17, -650.19, -187500.02, -187500.02, -187500.02, -187500.02, -187500.02, -187500.02, 0.000, 0.000, 0.000, 17:59:42.030
193, 12555.69, -1048.25, -187500.02, -187500.02, -187500.02, -187500.02, -187500.02, -187500.02, 0.000, 0.000, 0.000, 17:59:42.031
194, 10705.55, -2876.13, -187500.02, -187500.02, -187500.02, -187500.02, -187500.02, -187500.02, 0.000, 0.000, 0.000, 17:59:42.031
195, 7736.27, -5814.60, -187500.02, -187500.02, -187500.02, -187500.02, -187500.02, -187500.02, 0.000, 0.000, 0.000, 17:59:42.031
196, 9982.49, -3618.23, -187500.02, -187500.02, -187500.02, -187500.02, -187500.02, -187500.02, 0.000, 0.000, 0.000, 17:59:42.031
197, 13001.70, -624.06, -187500.02, -187500.02, -187500.02, -187500.02, -187500.02, -187500.02, 0.000, 0.000, 0.000, 17:59:42.031
198, 12600.93, -1005.07, -187500.02, -187500.02, -187500.02, -187500.02, -187500.02, -187500.02, 0.000, 0.000, 0.000, 17:59:42.031
199, 10751.73, -2833.04, -187500.02, -187500.02, -187500.02, -187500.02, -187500.02, -187500.02, 0.010, 0.192, 0.990, 17:59:42.032
200, 7765.24, -5787.18, -187500.02, -187500.02, -187500.02, -187500.02, -187500.02, -187500.02, 0.000, 0.000, 0.000, 17:59:42.032
201, 9996.57, -3602.23, -187500.02, -187500.02, -187500.02, -187500.02, -187500.02, -187500.02, 0.000, 0.000, 0.000, 17:59:42.032
202, 13023.58, -603.07, -187500.02, -187500.02, -187500.02, -187500.02, -187500.02, -187500.02, 0.000, 0.000, 0.000, 17:59:42.032
203, 12615.44, -987.03, -187500.02, -187500.02, -187500.02, -187500.02, -187500.02, -187500.02, 0.000, 0.000, 0.000, 17:59:42.032
204, 10777.88, -2796.85, -187500.02, -187500.02, -187500.02, -187500.02, -187500.02, -187500.02, 0.000, 0.000, 0.000, 17:59:42.032
205, 7779.28, -5769.81, -187500.02, -187500.02, -187500.02, -187500.02, -187500.02, -187500.02, 0.000, 0.000, 0.000, 17:59:42.033
206, 9988.17, -3605.58, -187500.02, -187500.02, -187500.02, -187500.02, -187500.02, -187500.02, 0.000, 0.000, 0.000, 17:59:42.033
207, 13020.34, -599.79, -187500.02, -187500.02, -187500.02, -187500.02, -187500.02, -187500.02, 0.000, 0.000, 0.000, 17:59:42.033
208, 12609.36, -986.92, -187500.02, -187500.02, -187500.02, -187500.02, -187500.02, -187500.02, 0.000, 0.000, 0.000, 17:59:42.033
209, 10784.69, -2790.86, -187500.02, -187500.02, -187500.02, -187500.02, -187500.02, -187500.02, 0.014, 0.192, 1.000, 17:59:42.033
210, 7782.63, -5759.19, -187500.02, -187500.02, -187500.02, -187500.02, -187500.02, -187500.02, 0.000, 0.000, 0.000, 17:59:42.033
211, 9978.20, -3613.18, -187500.02, -187500.02, -187500.02, -187500.02, -187500.02, -187500.02, 0.000, 0.000, 0.000, 17:59:42.033
212, 13026.13, -591.81, -187500.02, -187500.02, -187500.02, -187500.02, -187500.02, -187500.02, 0.000, 0.000, 0.000, 17:59:42.034
213, 12630.66, -966.91, -187500.02, -187500.02, -187500.02, -187500.02, -187500.02, -187500.02, 0.000, 0.000, 0.000, 17:59:42.034
214, 10813.37, -2757.38, -187500.02, -187500.02, -187500.02, -187500.02, -187500.02, -187500.02, 0.000, 0.000, 0.000, 17:59:42.034
215, 7808.31, -5735.90, -187500.02, -187500.02, -187500.02, -187500.02, -187500.02, -187500.02, 0.000, 0.000, 0.000, 17:59:42.034
216, 9965.21, -3625.77, -187500.02, -187500.02, -187500.02, -187500.02, -187500.02, -187500.02, 0.000, 0.000, 0.000, 17:59:42.034
217, 13027.85, -586.91, -187500.02, -187500.02, -187500.02, -187500.02, -187500.02, -187500.02, 0.000, 0.000, 0.000, 17:59:42.034
218, 12622.61, -967.56, -187500.02, -187500.02, -187500.02, -187500.02, -187500.02, -187500.02, 0.000, 0.000, 0.000, 17:59:42.034
219, 10802.75, -2760.49, -187500.02, -187500.02, -187500.02, -187500.02, -187500.02, -187500.02, 0.012, 0.196, 0.996, 17:59:42.034
220, 7792.89, -5741.54, -187500.02, -187500.02, -187500.02, -187500.02, -187500.02, -187500.02, 0.000, 0.000, 0.000, 17:59:42.034
221, 9947.75, -3634.35, -187500.02, -187500.02, -187500.02, -187500.02, -187500.02, -187500.02, 0.000, 0.000, 0.000, 17:59:42.035
222, 13024.76, -583.58, -187500.02, -187500.02, -187500.02, -187500.02, -187500.02, -187500.02, 0.000, 0.000, 0.000, 17:59:42.035
223, 12634.97, -951.94, -187500.02, -187500.02, -187500.02, -187500.02, -187500.02, -187500.02, 0.000, 0.000, 0.000, 17:59:42.035
224, 10832.71, -2731.76, -187500.02, -187500.02, -187500.02, -187500.02, -187500.02, -187500.02, 0.000, 0.000, 0.000, 17:59:42.035
225, 7812.47, -5721.51, -187500.02, -187500.02, -187500.02, -187500.02, -187500.02, -187500.02, 0.000, 0.000, 0.000, 17:59:42.035
226, 9942.23, -3635.38, -187500.02, -187500.02, -187500.02, -187500.02, -187500.02, -187500.02, 0.000, 0.000, 0.000, 17:59:42.035
227, 13023.33, -581.28, -187500.02, -187500.02, -187500.02, -187500.02, -187500.02, -187500.02, 0.000, 0.000, 0.000, 17:59:42.035
228, 12634.75, -949.19, -187500.02, -187500.02, -187500.02, -187500.02, -187500.02, -187500.02, 0.000, 0.000, 0.000, 17:59:42.035
229, 10832.35, -2724.01, -187500.02, -187500.02, -187500.02, -187500.02, -187500.02, -187500.02, 0.010, 0.198, 0.994, 17:59:42.036
230, 7809.05, -5712.59, -187500.02, -187500.02, -187500.02, -187500.02, -187500.02, -187500.02, 0.000, 0.000, 0.000, 17:59:42.036
231, 9929.83, -3640.92, -187500.02, -187500.02, -187500.02, -187500.02, -187500.02, -187500.02, 0.000, 0.000, 0.000, 17:59:42.036
232, 13029.35, -572.76, -187500.02, -187500.02, -187500.02, -187500.02, -187500.02, -187500.02, 0.000, 0.000, 0.000, 17:59:42.036
233, 12653.19, -923.95, -187500.02, -187500.02, -187500.02, -187500.02, -187500.02, -187500.02, 0.000, 0.000, 0.000, 17:59:42.036
234, 10858.05, -2698.93, -187500.02, -187500.02, -187500.02, -187500.02, -187500.02, -187500.02, 0.000, 0.000, 0.000, 17:59:42.036
235, 7825.32, -5702.42, -187500.02, -187500.02, -187500.02, -187500.02, -187500.02, -187500.02, 0.000, 0.000, 0.000, 17:59:42.036
236, 9922.74, -3650.96, -187500.02, -187500.02, -187500.02, -187500.02, -187500.02, -187500.02, 0.000, 0.000, 0.000, 17:59:42.036
237, 13016.47, -583.92, -187500.02, -187500.02, -187500.02, -187500.02, -187500.02, -187500.02, 0.000, 0.000, 0.000, 17:59:42.036
238, 12645.30, -936.11, -187500.02, -187500.02, -187500.02, -187500.02, -187500.02, -187500.02, 0.000, 0.000, 0.000, 17:59:42.037
239, 10863.86, -2690.43, -187500.02, -187500.02, -187500.02, -187500.02, -187500.02, -187500.02, 0.012, 0.202, 0.998, 17:59:42.037
240, 7821.68, -5702.31, -187500.02, -187500.02, -187500.02, -187500.02, -187500.02, -187500.02, 0.000, 0.000, 0.000, 17:59:42.037
241, 9897.26, -3671.94, -187500.02, -187500.02, -187500.02, -187500.02, -187500.02, -187500.02, 0.000, 0.000, 0.000, 17:59:42.037
242, 13016.52, -582.69, -187500.02, -187500.02, -187500.02, -187500.02, -187500.02, -187500.02, 0.000, 0.000, 0.000, 17:59:42.037
243, 12654.75, -923.40, -187500.02, -187500.02, -187500.02, -187500.02, -187500.02, -187500.02, 0.000, 0.000, 0.000, 17:59:42.037
244, 10868.07, -2682.48, -187500.02, -187500.02, -187500.02, -187500.02, -187500.02, -187500.02, 0.000, 0.000, 0.000, 17:59:42.037
245, 7824.70, -5696.36, -187500.02, -187500.02, -187500.02, -187500.02, -187500.02, -187500.02, 0.000, 0.000, 0.000, 17:59:42.037
246, 9891.38, -3675.61, -187500.02, -187500.02, -187500.02, -187500.02, -187500.02, -187500.02, 0.000, 0.000, 0.000, 17:59:42.037
247, 13006.77, -588.90, -187500.02, -187500.02, -187500.02, -187500.02, -187500.02, -187500.02, 0.000, 0.000, 0.000, 17:59:42.038
248, 12643.40, -928.83, -187500.02, -187500.02, -187500.02, -187500.02, -187500.02, -187500.02, 0.000, 0.000, 0.000, 17:59:42.038
249, 10875.40, -2676.49, -187500.02, -187500.02, -187500.02, -187500.02, -187500.02, -187500.02, 0.008, 0.200, 0.996, 17:59:42.038
250, 7829.32, -5696.19, -187500.02, -187500.02, -187500.02, -187500.02, -187500.02, -187500.02, 0.000, 0.000, 0.000, 17:59:42.038
251, 9865.28, -3701.94, -187500.02, -187500.02, -187500.02, -187500.02, -187500.02, -187500.02, 0.000, 0.000, 0.000, 17:59:42.038
252, 13003.60, -589.39, -187500.02, -187500.02, -187500.02, -187500.02, -187500.02, -187500.02, 0.000, 0.000, 0.000, 17:59:42.039
253, 12656.65, -916.11, -187500.02, -187500.02, -187500.02, -187500.02, -187500.02, -187500.02, 0.000, 0.000, 0.000, 17:59:42.039
254, 10896.83, -2653.91, -187500.02, -187500.02, -187500.02, -187500.02, -187500.02, -187500.02, 0.000, 0.000, 0.000, 17:59:42.039
255, 7849.13, -5674.48, -187500.02, -187500.02, -187500.02, -187500.02, -187500.02, -187500.02, 0.000, 0.000, 0.000, 17:59:42.039
0, 9863.51, -3702.75, -187500.02, -187500.02, -187500.02, -187500.02, -187500.02, -187500.02, 0.000, 0.000, 0.000, 17:59:42.039
1, 13012.42, -580.07, -187500.02, -187500.02, -187500.02, -187500.02, -187500.02, -187500.02, 0.000, 0.000, 0.000, 17:59:42.039
2, 12661.35, -912.76, -187500.02, -187500.02, -187500.02, -187500.02, -187500.02, -187500.02, 0.000, 0.000, 0.000, 17:59:42.040
3, 10897.62, -2652.44, -187500.02, -187500.02, -187500.02, -187500.02, -187500.02, -187500.02, 0.004, 0.192, 0.998, 17:59:42.040
4, 7835.45, -5681.75, -187500.02, -187500.02, -187500.02, -187500.02, -187500.02, -187500.02, 0.000, 0.000, 0.000, 17:59:42.040
5, 9850.06, -3710.41, -187500.02, -187500.02, -187500.02, -187500.02, -187500.02, -187500.02, 0.000, 0.000, 0.000, 17:59:42.040
6, 13003.73, -587.78, -187500.02, -187500.02, -187500.02, -187500.02, -187500.02, -187500.02, 0.000, 0.000, 0.000, 17:59:42.040
7, 12652.27, -915.24, -187500.02, -187500.02, -187500.02, -187500.02, -187500.02, -187500.02, 0.000, 0.000, 0.000, 17:59:42.041
8, 10897.28, -2650.43, -187500.02, -187500.02, -187500.02, -187500.02, -187500.02, -187500.02, 0.000, 0.000, 0.000, 17:59:42.041
9, 7831.51, -5687.89, -187500.02, -187500.02, -187500.02, -187500.02, -187500.02, -187500.02, 0.000, 0.000, 0.000, 17:59:42.041
10, 9816.53, -3746.80, -187500.02, -187500.02, -187500.02, -187500.02, -187500.02, -187500.02, 0.000, 0.000, 0.000, 17:59:42.041
11, 12997.65, -596.88, -187500.02, -187500.02, -187500.02, -187500.02, -187500.02, -187500.02, 0.000, 0.000, 0.000, 17:59:42.041
12, 12677.06, -895.75, -187500.02, -187500.02, -187500.02, -187500.02, -187500.02, -187500.02, 0.000, 0.000, 0.000, 17:59:42.041
13, 10922.13, -2627.89, -187500.02, -187500.02, -187500.02, -187500.02, -187500.02, -187500.02, 0.008, 0.198, 0.998, 17:59:42.042
14, 7850.60, -5665.07, -187500.02, -187500.02, -187500.02, -187500.02, -187500.02, -187500.02, 0.000, 0.000, 0.000, 17:59:42.503
15, 9817.85, -3742.64, -187500.02, -187500.02, -187500.02, -187500.02, -187500.02, -187500.02, 0.000, 0.000, 0.000, 17:59:42.503
16, 12996.42, -592.70, -187500.02, -187500.02, -187500.02, -187500.02, -187500.02, -187500.02, 0.000, 0.000, 0.000, 17:59:42.503
17, 12662.29, -905.67, -187500.02, -187500.02, -187500.02, -187500.02, -187500.02, -187500.02, 0.000, 0.000, 0.000, 17:59:42.503
18, 10921.55, -2624.81, -187500.02, -187500.02, -187500.02, -187500.02, -187500.02, -187500.02, 0.000, 0.000, 0.000, 17:59:42.504
19, 7846.31, -5669.01, -187500.02, -187500.02, -187500.02, -187500.02, -187500.02, -187500.02, 0.000, 0.000, 0.000, 17:59:42.504
20, 9796.84, -3762.58, -187500.02, -187500.02, -187500.02, -187500.02, -187500.02, -187500.02, 0.000, 0.000, 0.000, 17:59:42.504
21, 12984.49, -604.15, -187500.02, -187500.02, -187500.02, -187500.02, -187500.02, -187500.02, 0.000, 0.000, 0.000, 17:59:42.504
22, 12665.66, -899.39, -187500.02, -187500.02, -187500.02, -187500.02, -187500.02, -187500.02, 0.000, 0.000, 0.000, 17:59:42.504
23, 10928.73, -2612.49, -187500.02, -187500.02, -187500.02, -187500.02, -187500.02, -187500.02, 0.008, 0.198, 0.990, 17:59:42.504
24, 7843.07, -5670.01, -187500.02, -187500.02, -187500.02, -187500.02, -187500.02, -187500.02, 0.000, 0.000, 0.000, 17:59:42.505
25, 9782.20, -3775.46, -187500.02, -187500.02, -187500.02, -187500.02, -187500.02, -187500.02, 0.000, 0.000, 0.000, 17:59:42.505
26, 12988.40, -594.09, -187500.02, -187500.02, -187500.02, -187500.02, -187500.02, -187500.02, 0.000, 0.000, 0.000, 17:59:42.505
27, 12677.55, -881.64, -187500.02, -187500.02, -187500.02, -187500.02, -187500.02, -187500.02, 0.000, 0.000, 0.000, 17:59:42.505
28, 10944.87, -2593.65, -187500.02, -187500.02, -187500.02, -187500.02, -187500.02, -187500.02, 0.000, 0.000, 0.000, 17:59:42.505
29, 7856.50, -5653.20, -187500.02, -187500.02, -187500.02, -187500.02, -187500.02, -187500.02, 0.000, 0.000, 0.000, 17:59:42.506
30, 9772.63, -3779.23, -187500.02, -187500.02, -187500.02, -187500.02, -187500.02, -187500.02, 0.000, 0.000, 0.000, 17:59:42.506
31, 12976.30, -603.85, -187500.02, -187500.02, -187500.02, -187500.02, -187500.02, -187500.02, 0.000, 0.000, 0.000, 17:59:42.506
32, 12666.17, -895.90, -187500.02, -187500.02, -187500.02, -187500.02, -187500.02, -187500.02, 0.000, 0.000, 0.000, 17:59:42.506
33, 10946.61, -2596.69, -187500.02, -187500.02, -187500.02, -187500.02, -187500.02, -187500.02, 0.006, 0.198, 1.006, 17:59:42.506
34, 7854.87, -5650.36, -187500.02, -187500.02, -187500.02, -187500.02, -187500.02, -187500.02, 0.000, 0.000, 0.000, 17:59:42.506
35, 9749.52, -3801.23, -187500.02, -187500.02, -187500.02, -187500.02, -187500.02, -187500.02, 0.000, 0.000, 0.000, 17:59:42.507
36, 12966.13, -616.46, -187500.02, -187500.02, -187500.02, -187500.02, -187500.02, -187500.02, 0.000, 0.000, 0.000, 17:59:42.507
37, 12671.63, -887.59, -187500.02, -187500.02, -187500.02, -187500.02, -187500.02, -187500.02, 0.000, 0.000, 0.000, 17:59:42.507
38, 10949.63, -2585.87, -187500.02, -187500.02, -187500.02, -187500.02, -187500.02, -187500.02, 0.000, 0.000, 0.000, 17:59:42.507
39, 7851.47, -5652.67, -187500.02, -187500.02, -187500.02, -187500.02, -187500.02, -187500.02, 0.000, 0.000, 0.000, 17:59:42.507
40, 9737.47, -3810.73, -187500.02, -187500.02, -187500.02, -187500.02, -187500.02, -187500.02, 0.000, 0.000, 0.000, 17:59:42.507
41, 12970.47, -610.72, -187500.02, -187500.02, -187500.02, -187500.02, -187500.02, -187500.02, 0.000, 0.000, 0.000, 17:59:42.508
42, 12678.22, -880.26, -187500.02, -187500.02, -187500.02, -187500.02, -187500.02, -187500.02, 0.006, 0.198, 1.002, 17:59:42.508
43, 10972.69, -2564.37, -187500.02, -187500.02, -187500.02, -187500.02, -187500.02, -187500.02, 0.000, 0.000, 0.000, 17:59:42.508
44, 7864.37, -5638.58, -187500.02, -187500.02, -187500.02, -187500.02, -187500.02, -187500.02, 0.000, 0.000, 0.000, 17:59:42.508
45, 9724.08, -3820.34, -187500.02, -187500.02, -187500.02, -187500.02, -187500.02, -187500.02, 0.000, 0.000, 0.000, 17:59:42.508
46, 12966.98, -608.93, -187500.02, -187500.02, -187500.02, -187500.02, -187500.02, -187500.02, 0.000, 0.000, 0.000, 17:59:42.509
47, 12688.95, -866.78, -187500.02, -187500.02, -187500.02, -187500.02, -187500.02, -187500.02, 0.000, 0.000, 0.000, 17:59:42.509
48, 10991.20, -2541.24, -187500.02, -187500.02, -187500.02, -187500.02, -187500.02, -187500.02, 0.000, 0.000, 0.000, 17:59:42.509
49, 7884.82, -5614.62, -187500.02, -187500.02, -187500.02, -187500.02, -187500.02, -187500.02, 0.000, 0.000, 0.000, 17:59:42.509
50, 9712.53, -3829.12, -187500.02, -187500.02, -187500.02, -187500.02, -187500.02, -187500.02, 0.000, 0.000, 0.000, 17:59:42.509
51, 12962.36, -609.29, -187500.02, -187500.02, -187500.02, -187500.02, -187500.02, -187500.02, 0.000, 0.000, 0.000, 17:59:42.509
52, 12683.34, -868.90, -187500.02, -187500.02, -187500.02, -187500.02, -187500.02, -187500.02, 0.010, 0.188, 0.998, 17:59:42.510
53, 10978.48, -2555.52, -187500.02, -187500.02, -187500.02, -187500.02, -187500.02, -187500.02, 0.000, 0.000, 0.000, 17:59:42.510
54, 7866.67, -5633.94, -187500.02, -187500.02, -187500.02, -187500.02, -187500.02, -187500.02, 0.000, 0.000, 0.000, 17:59:42.510
55, 9696.95, -3844.84, -187500.02, -187500.02, -187500.02, -187500.02, -187500.02, -187500.02, 0.000, 0.000, 0.000, 17:59:42.510
56, 12958.56, -617.38, -187500.02, -187500.02, -187500.02, -187500.02, -187500.02, -187500.02, 0.000, 0.000, 0.000, 17:59:42.510
57, 12681.13, -873.98, -187500.02, -187500.02, -187500.02, -187500.02, -187500.02, -187500.02, 0.000, 0.000, 0.000, 17:59:42.511
58, 10995.52, -2533.93, -187500.02, -187500.02, -187500.02, -187500.02, -187500.02, -187500.02, 0.000, 0.000, 0.000, 17:59:42.511
59, 7881.85, -5616.70, -187500.02, -187500.02, -187500.02, -187500.02, -187500.02, -187500.02, 0.000, 0.000, 0.000, 17:59:42.511
60, 9683.25, -3859.63, -187500.02, -187500.02, -187500.02, -187500.02, -187500.02, -187500.02, 0.000, 0.000, 0.000, 17:59:42.511
61, 12965.49, -605.35, -187500.02, -187500.02, -187500.02, -187500.02, -187500.02, -187500.02, 0.000, 0.000, 0.000, 17:59:42.511
62, 12699.39, -851.22, -187500.02, -187500.02, -187500.02, -187500.02, -187500.02, -187500.02, 0.010, 0.190, 0.994, 17:59:42.511
63, 11011.68, -2518.71, -187500.02, -187500.02, -187500.02, -187500.02, -187500.02, -187500.02, 0.000, 0.000, 0.000, 17:59:42.512
64, 7893.09, -5599.02, -187500.02, -187500.02, -187500.02, -187500.02, -187500.02, -187500.02, 0.000, 0.000, 0.000, 17:59:42.512
65, 9675.87, -3860.17, -187500.02, -187500.02, -187500.02, -187500.02, -187500.02, -187500.02, 0.000, 0.000, 0.000, 17:59:42.512
66, 12949.26, -622.92, -187500.02, -187500.02, -187500.02, -187500.02, -187500.02, -187500.02, 0.000, 0.000, 0.000, 17:59:42.512
67, 12675.41, -872.12, -187500.02, -187500.02, -187500.02, -187500.02, -187500.02, -187500.02, 0.000, 0.000, 0.000, 17:59:42.512
68, 10998.60, -2529.41, -187500.02, -187500.02, -187500.02, -187500.02, -187500.02, -187500.02, 0.000, 0.000, 0.000, 17:59:42.513
69, 7884.80, -5610.82, -187500.02, -187500.02, -187500.02, -187500.02, -187500.02, -187500.02, 0.000, 0.000, 0.000, 17:59:42.513
70, 9654.92, -3885.67, -187500.02, -187500.02, -187500.02, -187500.02, -187500.02, -187500.02, 0.000, 0.000, 0.000, 17:59:42.513
71, 12946.42, -620.89, -187500.02, -187500.02, -187500.02, -187500.02, -187500.02, -187500.02, 0.000, 0.000, 0.000, 17:59:42.513
72, 12691.10, -853.81, -187500.02, -187500.02, -187500.02, -187500.02, -187500.02, -187500.02, 0.008, 0.192, 0.990, 17:59:42.513
73, 11025.74, -2497.05, -187500.02, -187500.02, -187500.02, -187500.02, -187500.02, -187500.02, 0.000, 0.000, 0.000, 17:59:42.513
74, 7905.88, -5587.80, -187500.02, -187500.02, -187500.02, -187500.02, -187500.02, -187500.02, 0.000, 0.000, 0.000, 17:59:42.514
75, 9646.14, -3887.53, -187500.02, -187500.02, -187500.02, -187500.02, -187500.02, -187500.02, 0.000, 0.000, 0.000, 17:59:42.514
76, 12941.82, -624.75, -187500.02, -187500.02, -187500.02, -187500.02, -187500.02, -187500.02, 0.000, 0.000, 0.000, 17:59:42.514
77, 12692.42, -850.37, -187500.02, -187500.02, -187500.02, -187500.02, -187500.02, -187500.02, 0.000, 0.000, 0.000, 17:59:42.514
78, 11028.55, -2494.83, -187500.02, -187500.02, -187500.02, -187500.02, -187500.02, -187500.02, 0.000, 0.000, 0.000, 17:59:42.514
79, 7896.33, -5594.89, -187500.02, -187500.02, -187500.02, -187500.02, -187500.02, -187500.02, 0.000, 0.000, 0.000, 17:59:42.514
80, 9618.80, -3914.95, -187500.02, -187500.02, -187500.02, -187500.02, -187500.02, -187500.02, 0.000, 0.000, 0.000, 17:59:42.514
81, 12945.15, -624.33, -187500.02, -187500.02, -187500.02, -187500.02, -187500.02, -187500.02, 0.000, 0.000, 0.000, 17:59:42.514
82, 12710.61, -834.66, -187500.02, -187500.02, -187500.02, -187500.02, -187500.02, -187500.02, 0.008, 0.190, 0.994, 17:59:42.515
83, 11050.59, -2472.80, -187500.02, -187500.02, -187500.02, -187500.02, -187500.02, -187500.02, 0.000, 0.000, 0.000, 17:59:42.515
84, 7911.49, -5579.33, -187500.02, -187500.02, -187500.02, -187500.02, -187500.02, -187500.02, 0.000, 0.000, 0.000, 17:59:42.515
85, 9610.36, -3924.14, -187500.02, -187500.02, -187500.02, -187500.02, -187500.02, -187500.02, 0.000, 0.000, 0.000, 17:59:42.515
86, 12938.84, -628.73, -187500.02, -187500.02, -187500.02, -187500.02, -187500.02, -187500.02, 0.000, 0.000, 0.000, 17:59:42.515
87, 12705.16, -843.82, -187500.02, -187500.02, -187500.02, -187500.02, -187500.02, -187500.02, 0.000, 0.000, 0.000, 17:59:42.515
88, 11051.66, -2475.48, -187500.02, -187500.02, -187500.02, -187500.02, -187500.02, -187500.02, 0.000, 0.000, 0.000, 17:59:42.515
89, 7899.73, -5592.79, -187500.02, -187500.02, -187500.02, -187500.02, -187500.02, -187500.02, 0.000, 0.000, 0.000, 17:59:42.515
90, 9582.24, -3953.04, -187500.02, -187500.02, -187500.02, -187500.02, -187500.02, -187500.02, 0.000, 0.000, 0.000, 17:59:42.515
91, 12932.74, -634.19, -187500.02, -187500.02, -187500.02, -187500.02, -187500.02, -187500.02, 0.000, 0.000, 0.000, 17:59:42.516
92, 12710.83, -836.07, -187500.02, -187500.02, -187500.02, -187500.02, -187500.02, -187500.02, 0.008, 0.192, 0.998, 17:59:42.516
93, 11052.20, -2470.14, -187500.02, -187500.02, -187500.02, -187500.02, -187500.02, -187500.02, 0.000, 0.000, 0.000, 17:59:42.516
94, 7915.00, -5576.11, -187500.02, -187500.02, -187500.02, -187500.02, -187500.02, -187500.02, 0.000, 0.000, 0.000, 17:59:42.516
95, 9588.03, -3943.97, -187500.02, -187500.02, -187500.02, -187500.02, -187500.02, -187500.02, 0.000, 0.000, 0.000, 17:59:42.516
96, 12914.52, -651.24, -187500.02, -187500.02, -187500.02, -187500.02, -187500.02, -187500.02, 0.000, 0.000, 0.000, 17:59:42.516
97, 12700.66, -845.86, -187500.02, -187500.02, -187500.02, -187500.02, -187500.02, -187500.02, 0.000, 0.000, 0.000, 17:59:42.517
98, 11068.18, -2454.80, -187500.02, -187500.02, -187500.02, -187500.02, -187500.02, -187500.02, 0.000, 0.000, 0.000, 17:59:42.517
99, 7919.98, -5565.23, -187500.02, -187500.02, -187500.02, -187500.02, -187500.02, -187500.02, 0.000, 0.000, 0.000, 17:59:42.517
100, 9564.98, -3961.24, -187500.02, -187500.02, -187500.02, -187500.02, -187500.02, -187500.02, 0.000, 0.000, 0.000, 17:59:42.517
101, 12931.67, -629.13, -187500.02, -187500.02, -187500.02, -187500.02, -187500.02, -187500.02, 0.000, 0.000, 0.000, 17:59:42.517
102, 12724.31, -816.24, -187500.02, -187500.02, -187500.02, -187500.02, -187500.02, -187500.02, 0.008, 0.190, 1.004, 17:59:42.517
103, 11093.59, -2428.54, -187500.02, -187500.02, -187500.02, -187500.02, -187500.02, -187500.02, 0.000, 0.000, 0.000, 17:59:42.517
104, 7947.39, -5539.59, -187500.02, -187500.02, -187500.02, -187500.02, -187500.02, -187500.02, 0.000, 0.000, 0.000, 17:59:42.517
105, 9567.49, -3963.23, -187500.02, -187500.02, -187500.02, -187500.02, -187500.02, -187500.02, 0.000, 0.000, 0.000, 17:59:42.517
106, 12936.52, -632.76, -187500.02, -187500.02, -187500.02, -187500.02, -187500.02, -187500.02, 0.000, 0.000, 0.000, 17:59:42.518
107, 12724.87, -819.88, -187500.02, -187500.02, -187500.02, -187500.02, -187500.02, -187500.02, 0.000, 0.000, 0.000, 17:59:42.518
108, 11094.58, -2427.87, -187500.02, -187500.02, -187500.02, -187500.02, -187500.02, -187500.02, 0.000, 0.000, 0.000, 17:59:42.518
109, 7938.24, -5551.93, -187500.02, -187500.02, -187500.02, -187500.02, -187500.02, -187500.02, 0.000, 0.000, 0.000, 17:59:42.518
110, 9542.76, -3989.21, -187500.02, -187500.02, -187500.02, -187500.02, -187500.02, -187500.02, 0.000, 0.000, 0.000, 17:59:42.518
111, 12906.54, -655.78, -187500.02, -187500.02, -187500.02, -187500.02, -187500.02, -187500.02, 0.000, 0.000, 0.000, 17:59:42.518
112, 12708.93, -830.68, -187500.02, -187500.02, -187500.02, -187500.02, -187500.02, -187500.02, 0.010, 0.192, 0.998, 17:59:42.518
113, 11087.49, -2428.61, -187500.02, -187500.02, -187500.02, -187500.02, -187500.02, -187500.02, 0.000, 0.000, 0.000, 17:59:42.518
114, 7932.90, -5553.78, -187500.02, -187500.02, -187500.02, -187500.02, -187500.02, -187500.02, 0.000, 0.000, 0.000, 17:59:42.519
115, 9519.18, -4007.02, -187500.02, -187500.02, -187500.02, -187500.02, -187500.02, -187500.02, 0.000, 0.000, 0.000, 17:59:42.519
116, 12903.97, -656.49, -187500.02, -187500.02, -187500.02, -187500.02, -187500.02, -187500.02, 0.000, 0.000, 0.000, 17:59:42.519
117, 12729.07, -810.63, -187500.02, -187500.02, -187500.02, -187500.02, -187500.02, -187500.02, 0.000, 0.000, 0.000, 17:59:42.519
118, 11112.84, -2403.82, -187500.02, -187500.02, -187500.02, -187500.02, -187500.02, -187500.02, 0.000, 0.000, 0.000, 17:59:42.519
119, 7955.05, -5531.70, -187500.02, -187500.02, -187500.02, -187500.02, -187500.02, -187500.02, 0.000, 0.000, 0.000, 17:59:42.519
120, 9524.55, -4002.53, -187500.02, -187500.02, -187500.02, -187500.02, -187500.02, -187500.02, 0.000, 0.000, 0.000, 17:59:42.520
121, 12908.67, -651.91, -187500.02, -187500.02, -187500.02, -187500.02, -187500.02, -187500.02, 0.000, 0.000, 0.000, 17:59:42.520
122, 12727.87, -812.02, -187500.02, -187500.02, -187500.02, -187500.02, -187500.02, -187500.02, 0.012, 0.194, 0.994, 17:59:42.520
123, 11123.64, -2395.15, -187500.02, -187500.02, -187500.02, -187500.02, -187500.02, -187500.02, 0.000, 0.000, 0.000, 17:59:42.520
124, 7965.02, -5516.92, -187500.02, -187500.02, -187500.02, -187500.02, -187500.02, -187500.02, 0.000, 0.000, 0.000, 17:59:42.520
125, 9504.05, -4016.52, -187500.02, -187500.02, -187500.02, -187500.02, -187500.02, -187500.02, 0.000, 0.000, 0.000, 17:59:42.521
126, 12903.80, -654.03, -187500.02, -187500.02, -187500.02, -187500.02, -187500.02, -187500.02, 0.000, 0.000, 0.000, 17:59:42.521
127, 12724.24, -814.97, -187500.02, -187500.02, -187500.02, -187500.02, -187500.02, -187500.02, 0.000, 0.000, 0.000, 17:59:42.521
128, 11119.39, -2395.12, -187500.02, -187500.02, -187500.02, -187500.02, -187500.02, -187500.02, 0.000, 0.000, 0.000, 17:59:42.521
129, 7958.05, -5523.05, -187500.02, -187500.02, -187500.02, -187500.02, -187500.02, -187500.02, 0.000, 0.000, 0.000, 17:59:42.521
130, 9493.86, -4029.73, -187500.02, -187500.02, -187500.02, -187500.02, -187500.02, -187500.02, 0.000, 0.000, 0.000, 17:59:42.521
131, 12900.67, -651.89, -187500.02, -187500.02, -187500.02, -187500.02, -187500.02, -187500.02, 0.000, 0.000, 0.000, 17:59:42.522
132, 12736.27, -795.70, -187500.02, -187500.02, -187500.02, -187500.02, -187500.02, -187500.02, 0.010, 0.198, 0.992, 17:59:42.522
133, 11137.52, -2373.60, -187500.02, -187500.02, -187500.02, -187500.02, -187500.02, -187500.02, 0.000, 0.000, 0.000, 17:59:42.522
134, 7971.06, -5509.79, -187500.02, -187500.02, -187500.02, -187500.02, -187500.02, -187500.02, 0.000, 0.000, 0.000, 17:59:42.522
135, 9484.31, -4035.61, -187500.02, -187500.02, -187500.02, -187500.02, -187500.02, -187500.02, 0.000, 0.000, 0.000, 17:59:42.984
136, 12909.67, -647.37, -187500.02, -187500.02, -187500.02, -187500.02, -187500.02, -187500.02, 0.000, 0.000, 0.000, 17:59:42.984
137, 12758.24, -779.58, -187500.02, -187500.02, -187500.02, -187500.02, -187500.02, -187500.02, 0.000, 0.000, 0.000, 17:59:42.984
138, 11161.43, -2353.44, -187500.02, -187500.02, -187500.02, -187500.02, -187500.02, -187500.02, 0.000, 0.000, 0.000, 17:59:42.984
139, 7983.24, -5494.46, -187500.02, -187500.02, -187500.02, -187500.02, -187500.02, -187500.02, 0.000, 0.000, 0.000, 17:59:42.984
140, 9464.91, -4052.57, -187500.02, -187500.02, -187500.02, -187500.02, -187500.02, -187500.02, 0.000, 0.000, 0.000, 17:59:42.985
141, 12891.88, -658.97, -187500.02, -187500.02, -187500.02, -187500.02, -187500.02, -187500.02, 0.000, 0.000, 0.000, 17:59:42.985
142, 12744.67, -789.66, -187500.02, -187500.02, -187500.02, -187500.02, -187500.02, -187500.02, 0.010, 0.198, 0.996, 17:59:42.985
143, 11150.48, -2357.01, -187500.02, -187500.02, -187500.02, -187500.02, -187500.02, -187500.02, 0.000, 0.000, 0.000, 17:59:42.985
144, 7977.78, -5495.11, -187500.02, -187500.02, -187500.02, -187500.02, -187500.02, -187500.02, 0.000, 0.000, 0.000, 17:59:42.985
145, 9454.74, -4066.30, -187500.02, -187500.02, -187500.02, -187500.02, -187500.02, -187500.02, 0.000, 0.000, 0.000, 17:59:42.985
146, 12882.47, -670.89, -187500.02, -187500.02, -187500.02, -187500.02, -187500.02, -187500.02, 0.000, 0.000, 0.000, 17:59:42.986
147, 12744.79, -786.69, -187500.02, -187500.02, -187500.02, -187500.02, -187500.02, -187500.02, 0.000, 0.000, 0.000, 17:59:42.986
148, 11169.50, -2342.66, -187500.02, -187500.02, -187500.02, -187500.02, -187500.02, -187500.02, 0.000, 0.000, 0.000, 17:59:42.986
149, 7989.79, -5490.80, -187500.02, -187500.02, -187500.02, -187500.02, -187500.02, -187500.02, 0.000, 0.000, 0.000, 17:59:42.986
150, 9443.19, -4076.44, -187500.02, -187500.02, -187500.02, -187500.02, -187500.02, -187500.02, 0.000, 0.000, 0.000, 17:59:42.986
151, 12883.34, -667.51, -187500.02, -187500.02, -187500.02, -187500.02, -187500.02, -187500.02, 0.000, 0.000, 0.000, 17:59:42.986
152, 12757.46, -773.84, -187500.02, -187500.02, -187500.02, -187500.02, -187500.02, -187500.02, 0.008, 0.198, 1.000, 17:59:42.986
