%OpenBCI Raw EEG Data
%
%Sample Rate = 250.0 Hz
%First Column = SampleIndex
%Last Column = Timestamp 
%Other Columns = EEG data in microvolts followed by Accel Data (in G) interleaved with Aux Data
0, 93473.52, 59406.38, -187500.02, -187500.02, -187500.02, -187500.02, -187500.02, -187500.02, -0.002, 0.282, -0.978, 15:47:32.920
1, 94123.26, 60449.48, -187500.02, -187500.02, -187500.02, -187500.02, -187500.02, -187500.02, 0.000, 0.000, 0.000, 15:47:32.921
2, 94311.35, 60597.23, -187500.02, -187500.02, -187500.02, -187500.02, -187500.02, -187500.02, 0.000, 0.000, 0.000, 15:47:32.921
3, 94097.16, 60227.49, -187500.02, -187500.02, -187500.02, -187500.02, -187500.02, -187500.02, 0.000, 0.000, 0.000, 15:47:32.921
4, 93594.40, 59449.04, -187500.02, -187500.02, -187500.02, -187500.02, -187500.02, -187500.02, 0.000, 0.000, 0.000, 15:47:32.921
5, 93483.20, 59418.76, -187500.02, -187500.02, -187500.02, -187500.02, -187500.02, -187500.02, 0.000, 0.000, 0.000, 15:47:32.921
6, 94118.59, 60440.37, -187500.02, -187500.02, -187500.02, -187500.02, -187500.02, -187500.02, 0.000, 0.000, 0.000, 15:47:32.921
7, 94311.10, 60578.19, -187500.02, -187500.02, -187500.02, -187500.02, -187500.02, -187500.02, 0.000, 0.272, -0.996, 15:47:32.921
8, 94108.77, 60230.89, -187500.02, -187500.02, -187500.02, -187500.02, -187500.02, -187500.02, 0.000, 0.000, 0.000, 15:47:32.921
9, 93583.58, 59438.63, -187500.02, -187500.02, -187500.02, -187500.02, -187500.02, -187500.02, 0.000, 0.000, 0.000, 15:47:32.921
10, 93462.56, 59388.63, -187500.02, -187500.02, -187500.02, -187500.02, -187500.02, -187500.02, 0.000, 0.000, 0.000, 15:47:32.922
11, 94120.45, 60441.30, -187500.02, -187500.02, -187500.02, -187500.02, -187500.02, -187500.02, 0.000, 0.000, 0.000, 15:47:32.922
12, 94298.72, 60587.29, -187500.02, -187500.02, -187500.02, -187500.02, -187500.02, -187500.02, 0.000, 0.000, 0.000, 15:47:32.922
13, 94087.61, 60214.28, -187500.02, -187500.02, -187500.02, -187500.02, -187500.02, -187500.02, 0.000, 0.000, 0.000, 15:47:32.922
14, 93578.81, 59424.95, -187500.02, -187500.02, -187500.02, -187500.02, -187500.02, -187500.02, 0.000, 0.000, 0.000, 15:47:32.922
15, 93468.17, 59387.11, -187500.02, -187500.02, -187500.02, -187500.02, -187500.02, -187500.02, 0.000, 0.000, 0.000, 15:47:32.922
16, 94116.78, 60432.23, -187500.02, -187500.02, -187500.02, -187500.02, -187500.02, -187500.02, 0.000, 0.000, 0.000, 15:47:32.922
17, 94295.03, 60577.54, -187500.02, -187500.02, -187500.02, -187500.02, -187500.02, -187500.02, -0.004, 0.274, -0.994, 15:47:32.922
18, 94077.22, 60209.18, -187500.02, -187500.02, -187500.02, -187500.02, -187500.02, -187500.02, 0.000, 0.000, 0.000, 15:47:32.923
19, 93573.23, 59427.52, -187500.02, -187500.02, -187500.02, -187500.02, -187500.02, -187500.02, 0.000, 0.000, 0.000, 15:47:32.923
20, 93458.56, 59372.80, -187500.02, -187500.02, -187500.02, -187500.02, -187500.02, -187500.02, 0.000, 0.000, 0.000, 15:47:32.923
21, 94113.60, 60432.14, -187500.02, -187500.02, -187500.02, -187500.02, -187500.02, -187500.02, 0.000, 0.000, 0.000, 15:47:32.923
22, 94288.23, 60573.83, -187500.02, -187500.02, -187500.02, -187500.02, -187500.02, -187500.02, 0.000, 0.000, 0.000, 15:47:32.923
23, 94088.91, 60208.89, -187500.02, -187500.02, -187500.02, -187500.02, -187500.02, -187500.02, 0.000, 0.000, 0.000, 15:47:32.923
24, 93599.13, 59445.18, -187500.02, -187500.02, -187500.02, -187500.02, -187500.02, -187500.02, 0.000, 0.000, 0.000, 15:47:32.923
25, 93475.87, 59389.81, -187500.02, -187500.02, -187500.02, -187500.02, -187500.02, -187500.02, 0.000, 0.000, 0.000, 15:47:32.923
26, 94119.20, 60427.27, -187500.02, -187500.02, -187500.02, -187500.02, -187500.02, -187500.02, 0.000, 0.000, 0.000, 15:47:32.924
27, 94309.80, 60585.03, -187500.02, -187500.02, -187500.02, -187500.02, -187500.02, -187500.02, -0.004, 0.268, -0.976, 15:47:32.924
28, 94089.48, 60210.99, -187500.02, -187500.02, -187500.02, -187500.02, -187500.02, -187500.02, 0.000, 0.000, 0.000, 15:47:32.924
29, 93594.88, 59438.92, -187500.02, -187500.02, -187500.02, -187500.02, -187500.02, -187500.02, 0.000, 0.000, 0.000, 15:47:32.924
30, 93481.67, 59395.18, -187500.02, -187500.02, -187500.02, -187500.02, -187500.02, -187500.02, 0.000, 0.000, 0.000, 15:47:32.924
31, 94123.98, 60437.71, -187500.02, -187500.02, -187500.02, -187500.02, -187500.02, -187500.02, 0.000, 0.000, 0.000, 15:47:32.924
32, 94313.83, 60589.81, -187500.02, -187500.02, -187500.02, -187500.02, -187500.02, -187500.02, 0.000, 0.000, 0.000, 15:47:32.924
33, 94101.24, 60218.41, -187500.02, -187500.02, -187500.02, -187500.02, -187500.02, -187500.02, 0.000, 0.000, 0.000, 15:47:32.924
34, 93592.56, 59433.64, -187500.02, -187500.02, -187500.02, -187500.02, -187500.02, -187500.02, 0.000, 0.000, 0.000, 15:47:32.924
35, 93469.76, 59380.94, -187500.02, -187500.02, -187500.02, -187500.02, -187500.02, -187500.02, 0.000, 0.000, 0.000, 15:47:32.925
36, 94118.39, 60426.22, -187500.02, -187500.02, -187500.02, -187500.02, -187500.02, -187500.02, -0.008, 0.272, -0.982, 15:47:32.925
37, 94311.80, 60582.86, -187500.02, -187500.02, -187500.02, -187500.02, -187500.02, -187500.02, 0.000, 0.000, 0.000, 15:47:32.925
38, 94092.64, 60215.84, -187500.02, -187500.02, -187500.02, -187500.02, -187500.02, -187500.02, 0.000, 0.000, 0.000, 15:47:32.925
39, 93580.09, 59428.14, -187500.02, -187500.02, -187500.02, -187500.02, -187500.02, -187500.02, 0.000, 0.000, 0.000, 15:47:32.925
40, 93461.78, 59375.17, -187500.02, -187500.02, -187500.02, -187500.02, -187500.02, -187500.02, 0.000, 0.000, 0.000, 15:47:32.925
41, 94118.97, 60427.38, -187500.02, -187500.02, -187500.02, -187500.02, -187500.02, -187500.02, 0.000, 0.000, 0.000, 15:47:32.925
42, 94315.77, 60589.88, -187500.02, -187500.02, -187500.02, -187500.02, -187500.02, -187500.02, 0.000, 0.000, 0.000, 15:47:32.925
43, 94098.61, 60219.66, -187500.02, -187500.02, -187500.02, -187500.02, -187500.02, -187500.02, 0.000, 0.000, 0.000, 15:47:32.926
44, 93581.32, 59430.56, -187500.02, -187500.02, -187500.02, -187500.02, -187500.02, -187500.02, 0.000, 0.000, 0.000, 15:47:32.926
45, 93458.50, 59370.84, -187500.02, -187500.02, -187500.02, -187500.02, -187500.02, -187500.02, 0.000, 0.000, 0.000, 15:47:32.926
46, 94120.33, 60430.93, -187500.02, -187500.02, -187500.02, -187500.02, -187500.02, -187500.02, -0.008, 0.272, -0.978, 15:47:32.926
47, 94325.56, 60603.82, -187500.02, -187500.02, -187500.02, -187500.02, -187500.02, -187500.02, 0.000, 0.000, 0.000, 15:47:32.926
48, 94105.55, 60233.73, -187500.02, -187500.02, -187500.02, -187500.02, -187500.02, -187500.02, 0.000, 0.000, 0.000, 15:47:32.926
49, 93588.36, 59438.90, -187500.02, -187500.02, -187500.02, -187500.02, -187500.02, -187500.02, 0.000, 0.000, 0.000, 15:47:32.926
50, 93467.13, 59384.25, -187500.02, -187500.02, -187500.02, -187500.02, -187500.02, -187500.02, 0.000, 0.000, 0.000, 15:47:32.926
51, 94139.58, 60454.74, -187500.02, -187500.02, -187500.02, -187500.02, -187500.02, -187500.02, 0.000, 0.000, 0.000, 15:47:32.927
52, 94323.33, 60603.15, -187500.02, -187500.02, -187500.02, -187500.02, -187500.02, -187500.02, 0.000, 0.000, 0.000, 15:47:32.927
53, 94102.43, 60237.41, -187500.02, -187500.02, -187500.02, -187500.02, -187500.02, -187500.02, 0.000, 0.000, 0.000, 15:47:32.927
54, 93596.38, 59461.07, -187500.02, -187500.02, -187500.02, -187500.02, -187500.02, -187500.02, 0.000, 0.000, 0.000, 15:47:32.927
55, 93460.09, 59382.19, -187500.02, -187500.02, -187500.02, -187500.02, -187500.02, -187500.02, 0.000, 0.000, 0.000, 15:47:32.927
56, 94125.88, 60451.43, -187500.02, -187500.02, -187500.02, -187500.02, -187500.02, -187500.02, -0.004, 0.268, -0.978, 15:47:32.927
57, 94324.54, 60617.77, -187500.02, -187500.02, -187500.02, -187500.02, -187500.02, -187500.02, 0.000, 0.000, 0.000, 15:47:32.927
58, 94109.80, 60245.35, -187500.02, -187500.02, -187500.02, -187500.02, -187500.02, -187500.02, 0.000, 0.000, 0.000, 15:47:32.927
59, 93596.72, 59456.42, -187500.02, -187500.02, -187500.02, -187500.02, -187500.02, -187500.02, 0.000, 0.000, 0.000, 15:47:32.927
60, 93462.59, 59381.52, -187500.02, -187500.02, -187500.02, -187500.02, -187500.02, -187500.02, 0.000, 0.000, 0.000, 15:47:32.928
61, 94124.16, 60444.12, -187500.02, -187500.02, -187500.02, -187500.02, -187500.02, -187500.02, 0.000, 0.000, 0.000, 15:47:32.928
62, 94330.30, 60622.46, -187500.02, -187500.02, -187500.02, -187500.02, -187500.02, -187500.02, 0.000, 0.000, 0.000, 15:47:32.928
63, 94115.21, 60249.21, -187500.02, -187500.02, -187500.02, -187500.02, -187500.02, -187500.02, 0.000, 0.000, 0.000, 15:47:32.929
64, 93606.76, 59469.94, -187500.02, -187500.02, -187500.02, -187500.02, -187500.02, -187500.02, 0.000, 0.000, 0.000, 15:47:32.929
65, 93469.43, 59393.03, -187500.02, -187500.02, -187500.02, -187500.02, -187500.02, -187500.02, 0.000, 0.000, 0.000, 15:47:32.929
66, 94132.52, 60454.23, -187500.02, -187500.02, -187500.02, -187500.02, -187500.02, -187500.02, -0.008, 0.268, -0.980, 15:47:32.929
67, 94330.48, 60621.19, -187500.02, -187500.02, -187500.02, -187500.02, -187500.02, -187500.02, 0.000, 0.000, 0.000, 15:47:32.929
68, 94110.32, 60247.20, -187500.02, -187500.02, -187500.02, -187500.02, -187500.02, -187500.02, 0.000, 0.000, 0.000, 15:47:32.929
69, 93602.09, 59463.53, -187500.02, -187500.02, -187500.02, -187500.02, -187500.02, -187500.02, 0.000, 0.000, 0.000, 15:47:32.930
70, 93466.34, 59390.24, -187500.02, -187500.02, -187500.02, -187500.02, -187500.02, -187500.02, 0.000, 0.000, 0.000, 15:47:32.930
71, 94139.04, 60469.18, -187500.02, -187500.02, -187500.02, -187500.02, -187500.02, -187500.02, 0.000, 0.000, 0.000, 15:47:32.930
72, 94344.88, 60642.43, -187500.02, -187500.02, -187500.02, -187500.02, -187500.02, -187500.02, 0.000, 0.000, 0.000, 15:47:32.930
73, 94127.57, 60266.56, -187500.02, -187500.02, -187500.02, -187500.02, -187500.02, -187500.02, 0.000, 0.000, 0.000, 15:47:32.930
74, 93612.48, 59476.63, -187500.02, -187500.02, -187500.02, -187500.02, -187500.02, -187500.02, 0.000, 0.000, 0.000, 15:47:32.930
75, 93477.02, 59400.30, -187500.02, -187500.02, -187500.02, -187500.02, -187500.02, -187500.02, 0.000, 0.000, 0.000, 15:47:32.930
76, 94135.51, 60463.14, -187500.02, -187500.02, -187500.02, -187500.02, -187500.02, -187500.02, -0.002, 0.272, -0.984, 15:47:32.930
77, 94352.79, 60650.90, -187500.02, -187500.02, -187500.02, -187500.02, -187500.02, -187500.02, 0.000, 0.000, 0.000, 15:47:32.931
78, 94129.90, 60276.95, -187500.02, -187500.02, -187500.02, -187500.02, -187500.02, -187500.02, 0.000, 0.000, 0.000, 15:47:32.931
79, 93622.85, 59494.57, -187500.02, -187500.02, -187500.02, -187500.02, -187500.02, -187500.02, 0.000, 0.000, 0.000, 15:47:32.931
80, 93479.40, 59404.41, -187500.02, -187500.02, -187500.02, -187500.02, -187500.02, -187500.02, 0.000, 0.000, 0.000, 15:47:32.931
81, 94139.48, 60471.10, -187500.02, -187500.02, -187500.02, -187500.02, -187500.02, -187500.02, 0.000, 0.000, 0.000, 15:47:32.931
82, 94351.56, 60656.22, -187500.02, -187500.02, -187500.02, -187500.02, -187500.02, -187500.02, 0.000, 0.000, 0.000, 15:47:32.931
83, 94131.28, 60279.50, -187500.02, -187500.02, -187500.02, -187500.02, -187500.02, -187500.02, 0.000, 0.000, 0.000, 15:47:32.931
84, 93611.41, 59482.26, -187500.02, -187500.02, -187500.02, -187500.02, -187500.02, -187500.02, 0.000, 0.000, 0.000, 15:47:32.931
85, 93471.93, 59393.25, -187500.02, -187500.02, -187500.02, -187500.02, -187500.02, -187500.02, 0.000, 0.000, 0.000, 15:47:32.931
86, 94137.23, 60465.51, -187500.02, -187500.02, -187500.02, -187500.02, -187500.02, -187500.02, 0.002, 0.272, -0.984, 15:47:32.932
87, 94345.44, 60649.07, -187500.02, -187500.02, -187500.02, -187500.02, -187500.02, -187500.02, 0.000, 0.000, 0.000, 15:47:32.932
88, 94130.52, 60277.13, -187500.02, -187500.02, -187500.02, -187500.02, -187500.02, -187500.02, 0.000, 0.000, 0.000, 15:47:32.932
89, 93622.70, 59493.21, -187500.02, -187500.02, -187500.02, -187500.02, -187500.02, -187500.02, 0.000, 0.000, 0.000, 15:47:32.932
90, 93483.73, 59412.63, -187500.02, -187500.02, -187500.02, -187500.02, -187500.02, -187500.02, 0.000, 0.000, 0.000, 15:47:32.932
91, 94141.12, 60474.18, -187500.02, -187500.02, -187500.02, -187500.02, -187500.02, -187500.02, 0.000, 0.000, 0.000, 15:47:32.932
92, 94359.77, 60666.19, -187500.02, -187500.02, -187500.02, -187500.02, -187500.02, -187500.02, 0.000, 0.000, 0.000, 15:47:32.932
93, 94138.98, 60289.61, -187500.02, -187500.02, -187500.02, -187500.02, -187500.02, -187500.02, 0.000, 0.000, 0.000, 15:47:32.932
94, 93628.10, 59503.71, -187500.02, -187500.02, -187500.02, -187500.02, -187500.02, -187500.02, 0.000, 0.000, 0.000, 15:47:32.933
95, 93477.45, 59406.53, -187500.02, -187500.02, -187500.02, -187500.02, -187500.02, -187500.02, 0.000, 0.000, 0.000, 15:47:32.933
96, 94149.08, 60480.53, -187500.02, -187500.02, -187500.02, -187500.02, -187500.02, -187500.02, 0.000, 0.272, -0.980, 15:47:32.933
97, 94355.27, 60670.99, -187500.02, -187500.02, -187500.02, -187500.02, -187500.02, -187500.02, 0.000, 0.000, 0.000, 15:47:32.933
98, 94142.93, 60299.84, -187500.02, -187500.02, -187500.02, -187500.02, -187500.02, -187500.02, 0.000, 0.000, 0.000, 15:47:32.933
99, 93631.70, 59505.30, -187500.02, -187500.02, -187500.02, -187500.02, -187500.02, -187500.02, 0.000, 0.000, 0.000, 15:47:32.933
100, 93479.22, 59404.23, -187500.02, -187500.02, -187500.02, -187500.02, -187500.02, -187500.02, 0.000, 0.000, 0.000, 15:47:32.933
101, 94146.62, 60479.86, -187500.02, -187500.02, -187500.02, -187500.02, -187500.02, -187500.02, 0.000, 0.000, 0.000, 15:47:32.933
102, 94367.81, 60679.33, -187500.02, -187500.02, -187500.02, -187500.02, -187500.02, -187500.02, 0.000, 0.000, 0.000, 15:47:32.934
103, 94151.69, 60305.23, -187500.02, -187500.02, -187500.02, -187500.02, -187500.02, -187500.02, 0.000, 0.000, 0.000, 15:47:32.934
104, 93616.10, 59487.80, -187500.02, -187500.02, -187500.02, -187500.02, -187500.02, -187500.02, 0.000, 0.000, 0.000, 15:47:32.934
105, 93474.92, 59396.07, -187500.02, -187500.02, -187500.02, -187500.02, -187500.02, -187500.02, 0.000, 0.000, 0.000, 15:47:32.934
106, 94146.82, 60484.02, -187500.02, -187500.02, -187500.02, -187500.02, -187500.02, -187500.02, 0.000, 0.274, -0.980, 15:47:32.934
107, 94356.03, 60667.64, -187500.02, -187500.02, -187500.02, -187500.02, -187500.02, -187500.02, 0.000, 0.000, 0.000, 15:47:32.934
108, 94141.12, 60293.40, -187500.02, -187500.02, -187500.02, -187500.02, -187500.02, -187500.02, 0.000, 0.000, 0.000, 15:47:32.934
109, 93618.49, 59495.09, -187500.02, -187500.02, -187500.02, -187500.02, -187500.02, -187500.02, 0.000, 0.000, 0.000, 15:47:32.935
110, 93468.42, 59393.12, -187500.02, -187500.02, -187500.02, -187500.02, -187500.02, -187500.02, 0.000, 0.000, 0.000, 15:47:32.935
111, 94146.51, 60474.12, -187500.02, -187500.02, -187500.02, -187500.02, -187500.02, -187500.02, 0.000, 0.000, 0.000, 15:47:32.935
112, 94367.92, 60674.81, -187500.02, -187500.02, -187500.02, -187500.02, -187500.02, -187500.02, 0.000, 0.000, 0.000, 15:47:32.935
113, 94144.90, 60303.86, -187500.02, -187500.02, -187500.02, -187500.02, -187500.02, -187500.02, 0.000, 0.000, 0.000, 15:47:32.935
114, 93632.04, 59508.12, -187500.02, -187500.02, -187500.02, -187500.02, -187500.02, -187500.02, 0.000, 0.000, 0.000, 15:47:32.935
115, 93474.59, 59402.02, -187500.02, -187500.02, -187500.02, -187500.02, -187500.02, -187500.02, 0.000, 0.000, 0.000, 15:47:32.935
116, 94134.44, 60475.23, -187500.02, -187500.02, -187500.02, -187500.02, -187500.02, -187500.02, -0.006, 0.272, -0.990, 15:47:32.935
117, 94356.73, 60671.59, -187500.02, -187500.02, -187500.02, -187500.02, -187500.02, -187500.02, 0.000, 0.000, 0.000, 15:47:32.936
118, 94147.58, 60301.07, -187500.02, -187500.02, -187500.02, -187500.02, -187500.02, -187500.02, 0.000, 0.000, 0.000, 15:47:32.936
119, 93630.02, 59507.58, -187500.02, -187500.02, -187500.02, -187500.02, -187500.02, -187500.02, 0.000, 0.000, 0.000, 15:47:32.936
120, 93464.73, 59391.69, -187500.02, -187500.02, -187500.02, -187500.02, -187500.02, -187500.02, 0.000, 0.000, 0.000, 15:47:33.402
121, 94132.11, 60469.67, -187500.02, -187500.02, -187500.02, -187500.02, -187500.02, -187500.02, 0.000, 0.000, 0.000, 15:47:33.402
122, 94362.98, 60681.45, -187500.02, -187500.02, -187500.02, -187500.02, -187500.02, -187500.02, 0.000, 0.000, 0.000, 15:47:33.402
123, 94144.12, 60303.42, -187500.02, -187500.02, -187500.02, -187500.02, -187500.02, -187500.02, 0.000, 0.000, 0.000, 15:47:33.402
124, 93624.21, 59502.91, -187500.02, -187500.02, -187500.02, -187500.02, -187500.02, -187500.02, 0.000, 0.000, 0.000, 15:47:33.403
125, 93455.86, 59372.56, -187500.02, -187500.02, -187500.02, -187500.02, -187500.02, -187500.02, 0.000, 0.000, 0.000, 15:47:33.403
126, 94131.98, 60458.02, -187500.02, -187500.02, -187500.02, -187500.02, -187500.02, -187500.02, -0.010, 0.272, -0.986, 15:47:33.403
127, 94357.10, 60671.26, -187500.02, -187500.02, -187500.02, -187500.02, -187500.02, -187500.02, 0.000, 0.000, 0.000, 15:47:33.403
128, 94153.88, 60304.67, -187500.02, -187500.02, -187500.02, -187500.02, -187500.02, -187500.02, 0.000, 0.000, 0.000, 15:47:33.403
129, 93635.05, 59504.41, -187500.02, -187500.02, -187500.02, -187500.02, -187500.02, -187500.02, 0.000, 0.000, 0.000, 15:47:33.403
130, 93459.97, 59367.04, -187500.02, -187500.02, -187500.02, -187500.02, -187500.02, -187500.02, 0.000, 0.000, 0.000, 15:47:33.403
131, 94128.18, 60447.00, -187500.02, -187500.02, -187500.02, -187500.02, -187500.02, -187500.02, 0.000, 0.000, 0.000, 15:47:33.404
132, 94355.56, 60655.19, -187500.02, -187500.02, -187500.02, -187500.02, -187500.02, -187500.02, 0.000, 0.000, 0.000, 15:47:33.404
133, 94148.54, 60288.64, -187500.02, -187500.02, -187500.02, -187500.02, -187500.02, -187500.02, 0.000, 0.000, 0.000, 15:47:33.404
134, 93630.47, 59488.56, -187500.02, -187500.02, -187500.02, -187500.02, -187500.02, -187500.02, 0.000, 0.000, 0.000, 15:47:33.404
135, 93465.07, 59358.72, -187500.02, -187500.02, -187500.02, -187500.02, -187500.02, -187500.02, 0.000, 0.000, 0.000, 15:47:33.404
136, 94131.30, 60444.43, -187500.02, -187500.02, -187500.02, -187500.02, -187500.02, -187500.02, -0.008, 0.270, -0.982, 15:47:33.404
137, 94367.70, 60660.35, -187500.02, -187500.02, -187500.02, -187500.02, -187500.02, -187500.02, 0.000, 0.000, 0.000, 15:47:33.404
138, 94159.02, 60293.52, -187500.02, -187500.02, -187500.02, -187500.02, -187500.02, -187500.02, 0.000, 0.000, 0.000, 15:47:33.404
139, 93642.54, 59490.20, -187500.02, -187500.02, -187500.02, -187500.02, -187500.02, -187500.02, 0.000, 0.000, 0.000, 15:47:33.405
140, 93470.39, 59360.46, -187500.02, -187500.02, -187500.02, -187500.02, -187500.02, -187500.02, 0.000, 0.000, 0.000, 15:47:33.405
141, 94125.14, 60438.18, -187500.02, -187500.02, -187500.02, -187500.02, -187500.02, -187500.02, 0.000, 0.000, 0.000, 15:47:33.405
142, 94357.44, 60644.48, -187500.02, -187500.02, -187500.02, -187500.02, -187500.02, -187500.02, 0.000, 0.000, 0.000, 15:47:33.405
143, 94145.52, 60273.80, -187500.02, -187500.02, -187500.02, -187500.02, -187500.02, -187500.02, 0.000, 0.000, 0.000, 15:47:33.405
144, 93637.09, 59493.88, -187500.02, -187500.02, -187500.02, -187500.02, -187500.02, -187500.02, 0.000, 0.000, 0.000, 15:47:33.405
145, 93461.23, 59357.49, -187500.02, -187500.02, -187500.02, -187500.02, -187500.02, -187500.02, 0.000, 0.000, 0.000, 15:47:33.405
146, 94129.16, 60433.32, -187500.02, -187500.02, -187500.02, -187500.02, -187500.02, -187500.02, -0.002, 0.274, -0.982, 15:47:33.405
147, 94363.45, 60654.61, -187500.02, -187500.02, -187500.02, -187500.02, -187500.02, -187500.02, 0.000, 0.000, 0.000, 15:47:33.406
148, 94151.52, 60290.92, -187500.02, -187500.02, -187500.02, -187500.02, -187500.02, -187500.02, 0.000, 0.000, 0.000, 15:47:33.406
149, 93632.64, 59478.57, -187500.02, -187500.02, -187500.02, -187500.02, -187500.02, -187500.02, 0.000, 0.000, 0.000, 15:47:33.406
150, 93457.42, 59342.38, -187500.02, -187500.02, -187500.02, -187500.02, -187500.02, -187500.02, 0.000, 0.000, 0.000, 15:47:33.406
151, 94122.27, 60424.43, -187500.02, -187500.02, -187500.02, -187500.02, -187500.02, -187500.02, 0.000, 0.000, 0.000, 15:47:33.406
152, 94356.19, 60640.39, -187500.02, -187500.02, -187500.02, -187500.02, -187500.02, -187500.02, 0.000, 0.000, 0.000, 15:47:33.406
153, 94151.00, 60279.79, -187500.02, -187500.02, -187500.02, -187500.02, -187500.02, -187500.02, 0.000, 0.000, 0.000, 15:47:33.406
154, 93653.05, 59502.55, -187500.02, -187500.02, -187500.02, -187500.02, -187500.02, -187500.02, 0.000, 0.000, 0.000, 15:47:33.406
155, 93469.05, 59359.77, -187500.02, -187500.02, -187500.02, -187500.02, -187500.02, -187500.02, 0.002, 0.266, -0.976, 15:47:33.407
156, 94136.16, 60442.11, -187500.02, -187500.02, -187500.02, -187500.02, -187500.02, -187500.02, 0.000, 0.000, 0.000, 15:47:33.407
157, 94375.68, 60666.12, -187500.02, -187500.02, -187500.02, -187500.02, -187500.02, -187500.02, 0.000, 0.000, 0.000, 15:47:33.407
158, 94161.59, 60292.80, -187500.02, -187500.02, -187500.02, -187500.02, -187500.02, -187500.02, 0.000, 0.000, 0.000, 15:47:33.407
159, 93645.24, 59492.92, -187500.02, -187500.02, -187500.02, -187500.02, -187500.02, -187500.02, 0.000, 0.000, 0.000, 15:47:33.407
160, 93474.19, 59358.74, -187500.02, -187500.02, -187500.02, -187500.02, -187500.02, -187500.02, 0.000, 0.000, 0.000, 15:47:33.407
161, 94133.43, 60439.41, -187500.02, -187500.02, -187500.02, -187500.02, -187500.02, -187500.02, 0.000, 0.000, 0.000, 15:47:33.407
162, 94369.87, 60663.48, -187500.02, -187500.02, -187500.02, -187500.02, -187500.02, -187500.02, 0.000, 0.000, 0.000, 15:47:33.407
163, 94160.77, 60292.51, -187500.02, -187500.02, -187500.02, -187500.02, -187500.02, -187500.02, 0.000, 0.000, 0.000, 15:47:33.407
164, 93646.61, 59498.02, -187500.02, -187500.02, -187500.02, -187500.02, -187500.02, -187500.02, 0.000, 0.000, 0.000, 15:47:33.408
165, 93468.35, 59350.88, -187500.02, -187500.02, -187500.02, -187500.02, -187500.02, -187500.02, -0.002, 0.266, -0.980, 15:47:33.408
166, 94130.66, 60434.04, -187500.02, -187500.02, -187500.02, -187500.02, -187500.02, -187500.02, 0.000, 0.000, 0.000, 15:47:33.408
167, 94363.38, 60659.08, -187500.02, -187500.02, -187500.02, -187500.02, -187500.02, -187500.02, 0.000, 0.000, 0.000, 15:47:33.408
168, 94154.51, 60283.21, -187500.02, -187500.02, -187500.02, -187500.02, -187500.02, -187500.02, 0.000, 0.000, 0.000, 15:47:33.408
169, 93646.38, 59493.88, -187500.02, -187500.02, -187500.02, -187500.02, -187500.02, -187500.02, 0.000, 0.000, 0.000, 15:47:33.408
170, 93460.66, 59353.47, -187500.02, -187500.02, -187500.02, -187500.02, -187500.02, -187500.02, 0.000, 0.000, 0.000, 15:47:33.408
171, 94120.96, 60435.79, -187500.02, -187500.02, -187500.02, -187500.02, -187500.02, -187500.02, 0.000, 0.000, 0.000, 15:47:33.408
172, 94367.59, 60657.43, -187500.02, -187500.02, -187500.02, -187500.02, -187500.02, -187500.02, 0.000, 0.000, 0.000, 15:47:33.409
173, 94161.15, 60292.24, -187500.02, -187500.02, -187500.02, -187500.02, -187500.02, -187500.02, 0.000, 0.000, 0.000, 15:47:33.409
174, 93654.61, 59502.20, -187500.02, -187500.02, -187500.02, -187500.02, -187500.02, -187500.02, 0.000, 0.000, 0.000, 15:47:33.409
175, 93459.59, 59338.20, -187500.02, -187500.02, -187500.02, -187500.02, -187500.02, -187500.02, -0.004, 0.264, -0.976, 15:47:33.409
176, 94126.41, 60427.22, -187500.02, -187500.02, -187500.02, -187500.02, -187500.02, -187500.02, 0.000, 0.000, 0.000, 15:47:33.409
177, 94375.97, 60665.11, -187500.02, -187500.02, -187500.02, -187500.02, -187500.02, -187500.02, 0.000, 0.000, 0.000, 15:47:33.409
178, 94173.69, 60301.72, -187500.02, -187500.02, -187500.02, -187500.02, -187500.02, -187500.02, 0.000, 0.000, 0.000, 15:47:33.409
179, 93660.35, 59509.73, -187500.02, -187500.02, -187500.02, -187500.02, -187500.02, -187500.02, 0.000, 0.000, 0.000, 15:47:33.409
180, 93462.99, 59347.59, -187500.02, -187500.02, -187500.02, -187500.02, -187500.02, -187500.02, 0.000, 0.000, 0.000, 15:47:33.410
181, 94129.07, 60431.83, -187500.02, -187500.02, -187500.02, -187500.02, -187500.02, -187500.02, 0.000, 0.000, 0.000, 15:47:33.410
182, 94373.30, 60663.13, -187500.02, -187500.02, -187500.02, -187500.02, -187500.02, -187500.02, 0.000, 0.000, 0.000, 15:47:33.410
183, 94167.74, 60298.57, -187500.02, -187500.02, -187500.02, -187500.02, -187500.02, -187500.02, 0.000, 0.000, 0.000, 15:47:33.410
184, 93661.14, 59508.19, -187500.02, -187500.02, -187500.02, -187500.02, -187500.02, -187500.02, 0.000, 0.000, 0.000, 15:47:33.410
185, 93477.38, 59348.28, -187500.02, -187500.02, -187500.02, -187500.02, -187500.02, -187500.02, -0.004, 0.266, -0.976, 15:47:33.410
186, 94138.70, 60446.91, -187500.02, -187500.02, -187500.02, -187500.02, -187500.02, -187500.02, 0.000, 0.000, 0.000, 15:47:33.410
187, 94378.88, 60673.92, -187500.02, -187500.02, -187500.02, -187500.02, -187500.02, -187500.02, 0.000, 0.000, 0.000, 15:47:33.410
188, 94185.35, 60313.01, -187500.02, -187500.02, -187500.02, -187500.02, -187500.02, -187500.02, 0.000, 0.000, 0.000, 15:47:33.411
189, 93672.63, 59511.74, -187500.02, -187500.02, -187500.02, -187500.02, -187500.02, -187500.02, 0.000, 0.000, 0.000, 15:47:33.411
190, 93473.78, 59339.03, -187500.02, -187500.02, -187500.02, -187500.02, -187500.02, -187500.02, 0.000, 0.000, 0.000, 15:47:33.411
191, 94132.94, 60434.51, -187500.02, -187500.02, -187500.02, -187500.02, -187500.02, -187500.02, 0.000, 0.000, 0.000, 15:47:33.411
192, 94382.34, 60675.73, -187500.02, -187500.02, -187500.02, -187500.02, -187500.02, -187500.02, 0.000, 0.000, 0.000, 15:47:33.411
193, 94185.38, 60310.44, -187500.02, -187500.02, -187500.02, -187500.02, -187500.02, -187500.02, 0.000, 0.000, 0.000, 15:47:33.411
194, 93675.33, 59511.54, -187500.02, -187500.02, -187500.02, -187500.02, -187500.02, -187500.02, 0.000, 0.000, 0.000, 15:47:33.411
195, 93471.10, 59335.36, -187500.02, -187500.02, -187500.02, -187500.02, -187500.02, -187500.02, -0.006, 0.268, -0.980, 15:47:33.411
196, 94122.48, 60419.11, -187500.02, -187500.02, -187500.02, -187500.02, -187500.02, -187500.02, 0.000, 0.000, 0.000, 15:47:33.412
197, 94375.90, 60664.71, -187500.02, -187500.02, -187500.02, -187500.02, -187500.02, -187500.02, 0.000, 0.000, 0.000, 15:47:33.412
198, 94173.10, 60301.72, -187500.02, -187500.02, -187500.02, -187500.02, -187500.02, -187500.02, 0.000, 0.000, 0.000, 15:47:33.412
199, 93655.88, 59486.55, -187500.02, -187500.02, -187500.02, -187500.02, -187500.02, -187500.02, 0.000, 0.000, 0.000, 15:47:33.412
200, 93461.16, 59323.63, -187500.02, -187500.02, -187500.02, -187500.02, -187500.02, -187500.02, 0.000, 0.000, 0.000, 15:47:33.412
201, 94128.18, 60422.64, -187500.02, -187500.02, -187500.02, -187500.02, -187500.02, -187500.02, 0.000, 0.000, 0.000, 15:47:33.412
202, 94389.24, 60674.68, -187500.02, -187500.02, -187500.02, -187500.02, -187500.02, -187500.02, 0.000, 0.000, 0.000, 15:47:33.412
203, 94179.02, 60298.99, -187500.02, -187500.02, -187500.02, -187500.02, -187500.02, -187500.02, 0.000, 0.000, 0.000, 15:47:33.412
204, 93673.66, 59506.11, -187500.02, -187500.02, -187500.02, -187500.02, -187500.02, -187500.02, 0.000, 0.000, 0.000, 15:47:33.412
205, 93480.34, 59347.99, -187500.02, -187500.02, -187500.02, -187500.02, -187500.02, -187500.02, -0.006, 0.272, -0.982, 15:47:33.413
206, 94141.25, 60434.11, -187500.02, -187500.02, -187500.02, -187500.02, -187500.02, -187500.02, 0.000, 0.000, 0.000, 15:47:33.413
207, 94393.36, 60680.60, -187500.02, -187500.02, -187500.02, -187500.02, -187500.02, -187500.02, 0.000, 0.000, 0.000, 15:47:33.413
208, 94184.95, 60305.30, -187500.02, -187500.02, -187500.02, -187500.02, -187500.02, -187500.02, 0.000, 0.000, 0.000, 15:47:33.413
209, 93679.35, 59515.18, -187500.02, -187500.02, -187500.02, -187500.02, -187500.02, -187500.02, 0.000, 0.000, 0.000, 15:47:33.413
210, 93477.52, 59342.43, -187500.02, -187500.02, -187500.02, -187500.02, -187500.02, -187500.02, 0.000, 0.000, 0.000, 15:47:33.413
211, 94135.28, 60433.66, -187500.02, -187500.02, -187500.02, -187500.02, -187500.02, -187500.02, 0.000, 0.000, 0.000, 15:47:33.413
212, 94389.71, 60674.90, -187500.02, -187500.02, -187500.02, -187500.02, -187500.02, -187500.02, 0.000, 0.000, 0.000, 15:47:33.413
213, 94184.57, 60304.87, -187500.02, -187500.02, -187500.02, -187500.02, -187500.02, -187500.02, 0.000, 0.000, 0.000, 15:47:33.414
214, 93680.02, 59513.29, -187500.02, -187500.02, -187500.02, -187500.02, -187500.02, -187500.02, 0.000, 0.000, 0.000, 15:47:33.414
215, 93478.86, 59338.87, -187500.02, -187500.02, -187500.02, -187500.02, -187500.02, -187500.02, 0.000, 0.274, -0.980, 15:47:33.414
216, 94137.34, 60430.60, -187500.02, -187500.02, -187500.02, -187500.02, -187500.02, -187500.02, 0.000, 0.000, 0.000, 15:47:33.414
217, 94391.15, 60670.99, -187500.02, -187500.02, -187500.02, -187500.02, -187500.02, -187500.02, 0.000, 0.000, 0.000, 15:47:33.414
218, 94190.67, 60305.52, -187500.02, -187500.02, -187500.02, -187500.02, -187500.02, -187500.02, 0.000, 0.000, 0.000, 15:47:33.414
219, 93677.97, 59514.82, -187500.02, -187500.02, -187500.02, -187500.02, -187500.02, -187500.02, 0.000, 0.000, 0.000, 15:47:33.415
220, 93462.43, 59322.96, -187500.02, -187500.02, -187500.02, -187500.02, -187500.02, -187500.02, 0.000, 0.000, 0.000, 15:47:33.415
221, 94122.88, 60414.15, -187500.02, -187500.02, -187500.02, -187500.02, -187500.02, -187500.02, 0.000, 0.000, 0.000, 15:47:33.415
222, 94385.22, 60668.42, -187500.02, -187500.02, -187500.02, -187500.02, -187500.02, -187500.02, 0.000, 0.000, 0.000, 15:47:33.415
223, 94182.47, 60304.42, -187500.02, -187500.02, -187500.02, -187500.02, -187500.02, -187500.02, 0.000, 0.000, 0.000, 15:47:33.415
224, 93668.67, 59505.06, -187500.02, -187500.02, -187500.02, -187500.02, -187500.02, -187500.02, 0.000, 0.000, 0.000, 15:47:33.415
225, 93461.63, 59316.34, -187500.02, -187500.02, -187500.02, -187500.02, -187500.02, -187500.02, -0.002, 0.276, -0.982, 15:47:33.415
226, 94116.35, 60404.54, -187500.02, -187500.02, -187500.02, -187500.02, -187500.02, -187500.02, 0.000, 0.000, 0.000, 15:47:33.415
227, 94380.22, 60671.64, -187500.02, -187500.02, -187500.02, -187500.02, -187500.02, -187500.02, 0.000, 0.000, 0.000, 15:47:33.415
228, 94189.11, 60314.48, -187500.02, -187500.02, -187500.02, -187500.02, -187500.02, -187500.02, 0.000, 0.000, 0.000, 15:47:33.416
229, 93673.68, 59507.18, -187500.02, -187500.02, -187500.02, -187500.02, -187500.02, -187500.02, 0.000, 0.000, 0.000, 15:47:33.416
230, 93457.24, 59312.97, -187500.02, -187500.02, -187500.02, -187500.02, -187500.02, -187500.02, 0.000, 0.000, 0.000, 15:47:33.416
231, 94122.88, 60413.10, -187500.02, -187500.02, -187500.02, -187500.02, -187500.02, -187500.02, 0.000, 0.000, 0.000, 15:47:33.416
232, 94385.38, 60668.11, -187500.02, -187500.02, -187500.02, -187500.02, -187500.02, -187500.02, 0.000, 0.000, 0.000, 15:47:33.416
233, 94179.09, 60294.66, -187500.02, -187500.02, -187500.02, -187500.02, -187500.02, -187500.02, 0.000, 0.000, 0.000, 15:47:33.416
234, 93677.86, 59510.71, -187500.02, -187500.02, -187500.02, -187500.02, -187500.02, -187500.02, 0.000, 0.000, 0.000, 15:47:33.416
235, 93452.28, 59303.02, -187500.02, -187500.02, -187500.02, -187500.02, -187500.02, -187500.02, 0.000, 0.278, -0.986, 15:47:33.416
236, 94104.26, 60386.97, -187500.02, -187500.02, -187500.02, -187500.02, -187500.02, -187500.02, 0.000, 0.000, 0.000, 15:47:33.417
237, 94368.64, 60645.18, -187500.02, -187500.02, -187500.02, -187500.02, -187500.02, -187500.02, 0.000, 0.000, 0.000, 15:47:33.417
238, 94172.32, 60291.95, -187500.02, -187500.02, -187500.02, -187500.02, -187500.02, -187500.02, 0.000, 0.000, 0.000, 15:47:33.417
239, 93662.45, 59492.38, -187500.02, -187500.02, -187500.02, -187500.02, -187500.02, -187500.02, 0.000, 0.000, 0.000, 15:47:33.417
240, 93445.63, 59288.20, -187500.02, -187500.02, -187500.02, -187500.02, -187500.02, -187500.02, 0.000, 0.000, 0.000, 15:47:33.882
241, 94092.52, 60369.29, -187500.02, -187500.02, -187500.02, -187500.02, -187500.02, -187500.02, 0.000, 0.000, 0.000, 15:47:33.882
242, 94354.38, 60633.82, -187500.02, -187500.02, -187500.02, -187500.02, -187500.02, -187500.02, 0.000, 0.000, 0.000, 15:47:33.883
243, 94153.55, 60265.35, -187500.02, -187500.02, -187500.02, -187500.02, -187500.02, -187500.02, 0.000, 0.000, 0.000, 15:47:33.883
244, 93654.95, 59474.35, -187500.02, -187500.02, -187500.02, -187500.02, -187500.02, -187500.02, 0.000, 0.000, 0.000, 15:47:33.883
245, 93440.70, 59280.13, -187500.02, -187500.02, -187500.02, -187500.02, -187500.02, -187500.02, 0.002, 0.276, -0.984, 15:47:33.883
246, 94096.93, 60367.46, -187500.02, -187500.02, -187500.02, -187500.02, -187500.02, -187500.02, 0.000, 0.000, 0.000, 15:47:33.883
247, 94354.78, 60618.80, -187500.02, -187500.02, -187500.02, -187500.02, -187500.02, -187500.02, 0.000, 0.000, 0.000, 15:47:33.883
248, 94158.58, 60264.04, -187500.02, -187500.02, -187500.02, -187500.02, -187500.02, -187500.02, 0.000, 0.000, 0.000, 15:47:33.883
249, 93661.98, 59480.49, -187500.02, -187500.02, -187500.02, -187500.02, -187500.02, -187500.02, 0.000, 0.000, 0.000, 15:47:33.884
250, 93443.61, 59280.51, -187500.02, -187500.02, -187500.02, -187500.02, -187500.02, -187500.02, 0.000, 0.000, 0.000, 15:47:33.884
251, 94096.93, 60372.26, -187500.02, -187500.02, -187500.02, -187500.02, -187500.02, -187500.02, 0.000, 0.000, 0.000, 15:47:33.884
252, 94363.95, 60625.30, -187500.02, -187500.02, -187500.02, -187500.02, -187500.02, -187500.02, 0.000, 0.000, 0.000, 15:47:33.884
253, 94172.52, 60275.30, -187500.02, -187500.02, -187500.02, -187500.02, -187500.02, -187500.02, 0.000, 0.000, 0.000, 15:47:33.884
254, 93671.42, 59493.75, -187500.02, -187500.02, -187500.02, -187500.02, -187500.02, -187500.02, 0.000, 0.000, 0.000, 15:47:33.884
255, 93446.29, 59279.37, -187500.02, -187500.02, -187500.02, -187500.02, -187500.02, -187500.02, -0.004, 0.266, -0.984, 15:47:33.884
0, 94100.51, 60366.43, -187500.02, -187500.02, -187500.02, -187500.02, -187500.02, -187500.02, 0.000, 0.000, 0.000, 15:47:33.885
1, 94363.09, 60632.86, -187500.02, -187500.02, -187500.02, -187500.02, -187500.02, -187500.02, 0.000, 0.000, 0.000, 15:47:33.885
2, 94157.41, 60265.91, -187500.02, -187500.02, -187500.02, -187500.02, -187500.02, -187500.02, 0.000, 0.000, 0.000, 15:47:33.885
3, 93655.46, 59475.89, -187500.02, -187500.02, -187500.02, -187500.02, -187500.02, -187500.02, 0.000, 0.000, 0.000, 15:47:33.885
4, 93436.19, 59270.32, -187500.02, -187500.02, -187500.02, -187500.02, -187500.02, -187500.02, 0.000, 0.000, 0.000, 15:47:33.885
5, 94090.94, 60360.01, -187500.02, -187500.02, -187500.02, -187500.02, -187500.02, -187500.02, 0.000, 0.000, 0.000, 15:47:33.885
6, 94361.57, 60633.44, -187500.02, -187500.02, -187500.02, -187500.02, -187500.02, -187500.02, 0.000, 0.000, 0.000, 15:47:33.885
7, 94156.32, 60265.00, -187500.02, -187500.02, -187500.02, -187500.02, -187500.02, -187500.02, 0.000, 0.000, 0.000, 15:47:33.885
8, 93651.64, 59478.28, -187500.02, -187500.02, -187500.02, -187500.02, -187500.02, -187500.02, 0.000, 0.000, 0.000, 15:47:33.886
9, 93421.30, 59259.21, -187500.02, -187500.02, -187500.02, -187500.02, -187500.02, -187500.02, -0.006, 0.268, -0.990, 15:47:33.886
10, 94078.78, 60350.18, -187500.02, -187500.02, -187500.02, -187500.02, -187500.02, -187500.02, 0.000, 0.000, 0.000, 15:47:33.886
11, 94349.68, 60615.78, -187500.02, -187500.02, -187500.02, -187500.02, -187500.02, -187500.02, 0.000, 0.000, 0.000, 15:47:33.886
12, 94146.21, 60254.91, -187500.02, -187500.02, -187500.02, -187500.02, -187500.02, -187500.02, 0.000, 0.000, 0.000, 15:47:33.886
13, 93636.13, 59463.91, -187500.02, -187500.02, -187500.02, -187500.02, -187500.02, -187500.02, 0.000, 0.000, 0.000, 15:47:33.886
14, 93418.42, 59248.01, -187500.02, -187500.02, -187500.02, -187500.02, -187500.02, -187500.02, 0.000, 0.000, 0.000, 15:47:33.886
15, 94073.80, 60344.52, -187500.02, -187500.02, -187500.02, -187500.02, -187500.02, -187500.02, 0.000, 0.000, 0.000, 15:47:33.886
16, 94345.46, 60616.54, -187500.02, -187500.02, -187500.02, -187500.02, -187500.02, -187500.02, 0.000, 0.000, 0.000, 15:47:33.887
17, 94152.49, 60259.25, -187500.02, -187500.02, -187500.02, -187500.02, -187500.02, -187500.02, 0.000, 0.000, 0.000, 15:47:33.887
18, 93653.60, 59470.75, -187500.02, -187500.02, -187500.02, -187500.02, -187500.02, -187500.02, 0.000, 0.000, 0.000, 15:47:33.887
19, 93437.02, 59263.95, -187500.02, -187500.02, -187500.02, -187500.02, -187500.02, -187500.02, -0.006, 0.272, -0.988, 15:47:33.887
20, 94081.02, 60344.37, -187500.02, -187500.02, -187500.02, -187500.02, -187500.02, -187500.02, 0.000, 0.000, 0.000, 15:47:33.887
21, 94359.02, 60626.07, -187500.02, -187500.02, -187500.02, -187500.02, -187500.02, -187500.02, 0.000, 0.000, 0.000, 15:47:33.887
22, 94166.53, 60278.27, -187500.02, -187500.02, -187500.02, -187500.02, -187500.02, -187500.02, 0.000, 0.000, 0.000, 15:47:33.887
23, 93667.48, 59491.80, -187500.02, -187500.02, -187500.02, -187500.02, -187500.02, -187500.02, 0.000, 0.000, 0.000, 15:47:33.887
24, 93434.89, 59262.32, -187500.02, -187500.02, -187500.02, -187500.02, -187500.02, -187500.02, 0.000, 0.000, 0.000, 15:47:33.888
25, 94087.70, 60356.50, -187500.02, -187500.02, -187500.02, -187500.02, -187500.02, -187500.02, 0.000, 0.000, 0.000, 15:47:33.888
26, 94369.02, 60636.05, -187500.02, -187500.02, -187500.02, -187500.02, -187500.02, -187500.02, 0.000, 0.000, 0.000, 15:47:33.888
27, 94170.82, 60272.68, -187500.02, -187500.02, -187500.02, -187500.02, -187500.02, -187500.02, 0.000, 0.000, 0.000, 15:47:33.888
28, 93666.97, 59485.95, -187500.02, -187500.02, -187500.02, -187500.02, -187500.02, -187500.02, -0.002, 0.274, -0.984, 15:47:33.888
29, 93431.56, 59254.96, -187500.02, -187500.02, -187500.02, -187500.02, -187500.02, -187500.02, 0.000, 0.000, 0.000, 15:47:33.888
30, 94082.38, 60345.10, -187500.02, -187500.02, -187500.02, -187500.02, -187500.02, -187500.02, 0.000, 0.000, 0.000, 15:47:33.888
31, 94368.32, 60632.05, -187500.02, -187500.02, -187500.02, -187500.02, -187500.02, -187500.02, 0.000, 0.000, 0.000, 15:47:33.888
32, 94176.57, 60277.02, -187500.02, -187500.02, -187500.02, -187500.02, -187500.02, -187500.02, 0.000, 0.000, 0.000, 15:47:33.888
33, 93674.44, 59486.02, -187500.02, -187500.02, -187500.02, -187500.02, -187500.02, -187500.02, 0.000, 0.000, 0.000, 15:47:33.889
34, 93436.05, 59255.70, -187500.02, -187500.02, -187500.02, -187500.02, -187500.02, -187500.02, 0.000, 0.000, 0.000, 15:47:33.889
35, 94076.63, 60333.68, -187500.02, -187500.02, -187500.02, -187500.02, -187500.02, -187500.02, 0.000, 0.000, 0.000, 15:47:33.889
36, 94352.01, 60608.27, -187500.02, -187500.02, -187500.02, -187500.02, -187500.02, -187500.02, 0.000, 0.000, 0.000, 15:47:33.889
37, 94160.66, 60257.86, -187500.02, -187500.02, -187500.02, -187500.02, -187500.02, -187500.02, 0.000, 0.000, 0.000, 15:47:33.889
38, 93656.51, 59471.26, -187500.02, -187500.02, -187500.02, -187500.02, -187500.02, -187500.02, -0.002, 0.270, -0.980, 15:47:33.889
39, 93414.87, 59234.64, -187500.02, -187500.02, -187500.02, -187500.02, -187500.02, -187500.02, 0.000, 0.000, 0.000, 15:47:33.889
40, 94067.00, 60318.55, -187500.02, -187500.02, -187500.02, -187500.02, -187500.02, -187500.02, 0.000, 0.000, 0.000, 15:47:33.889
41, 94347.13, 60607.82, -187500.02, -187500.02, -187500.02, -187500.02, -187500.02, -187500.02, 0.000, 0.000, 0.000, 15:47:33.890
42, 94154.73, 60251.94, -187500.02, -187500.02, -187500.02, -187500.02, -187500.02, -187500.02, 0.000, 0.000, 0.000, 15:47:33.890
43, 93662.95, 59472.20, -187500.02, -187500.02, -187500.02, -187500.02, -187500.02, -187500.02, 0.000, 0.000, 0.000, 15:47:33.890
44, 93431.27, 59242.25, -187500.02, -187500.02, -187500.02, -187500.02, -187500.02, -187500.02, 0.000, 0.000, 0.000, 15:47:33.890
45, 94083.12, 60334.69, -187500.02, -187500.02, -187500.02, -187500.02, -187500.02, -187500.02, 0.000, 0.000, 0.000, 15:47:33.890
46, 94367.56, 60628.46, -187500.02, -187500.02, -187500.02, -187500.02, -187500.02, -187500.02, 0.000, 0.000, 0.000, 15:47:33.890
47, 94173.59, 60276.98, -187500.02, -187500.02, -187500.02, -187500.02, -187500.02, -187500.02, 0.000, 0.000, 0.000, 15:47:33.890
48, 93685.61, 59501.93, -187500.02, -187500.02, -187500.02, -187500.02, -187500.02, -187500.02, 0.004, 0.274, -0.984, 15:47:33.890
49, 93439.70, 59241.96, -187500.02, -187500.02, -187500.02, -187500.02, -187500.02, -187500.02, 0.000, 0.000, 0.000, 15:47:33.891
50, 94081.82, 60319.73, -187500.02, -187500.02, -187500.02, -187500.02, -187500.02, -187500.02, 0.000, 0.000, 0.000, 15:47:33.891
51, 94377.00, 60622.62, -187500.02, -187500.02, -187500.02, -187500.02, -187500.02, -187500.02, 0.000, 0.000, 0.000, 15:47:33.891
52, 94198.36, 60280.13, -187500.02, -187500.02, -187500.02, -187500.02, -187500.02, -187500.02, 0.000, 0.000, 0.000, 15:47:33.891
53, 93702.63, 59500.99, -187500.02, -187500.02, -187500.02, -187500.02, -187500.02, -187500.02, 0.000, 0.000, 0.000, 15:47:33.891
54, 93463.13, 59257.76, -187500.02, -187500.02, -187500.02, -187500.02, -187500.02, -187500.02, 0.000, 0.000, 0.000, 15:47:33.891
55, 94119.57, 60351.54, -187500.02, -187500.02, -187500.02, -187500.02, -187500.02, -187500.02, 0.000, 0.000, 0.000, 15:47:33.891
56, 94411.89, 60649.15, -187500.02, -187500.02, -187500.02, -187500.02, -187500.02, -187500.02, 0.000, 0.000, 0.000, 15:47:33.891
57, 94216.16, 60290.52, -187500.02, -187500.02, -187500.02, -187500.02, -187500.02, -187500.02, 0.000, 0.000, 0.000, 15:47:33.892
58, 93710.11, 59496.95, -187500.02, -187500.02, -187500.02, -187500.02, -187500.02, -187500.02, 0.002, 0.272, -0.982, 15:47:33.892
59, 93465.27, 59249.40, -187500.02, -187500.02, -187500.02, -187500.02, -187500.02, -187500.02, 0.000, 0.000, 0.000, 15:47:33.892
60, 94114.56, 60338.80, -187500.02, -187500.02, -187500.02, -187500.02, -187500.02, -187500.02, 0.000, 0.000, 0.000, 15:47:33.892
61, 94396.64, 60626.18, -187500.02, -187500.02, -187500.02, -187500.02, -187500.02, -187500.02, 0.000, 0.000, 0.000, 15:47:33.892
62, 94210.86, 60276.46, -187500.02, -187500.02, -187500.02, -187500.02, -187500.02, -187500.02, 0.000, 0.000, 0.000, 15:47:33.892
63, 93718.36, 59498.46, -187500.02, -187500.02, -187500.02, -187500.02, -187500.02, -187500.02, 0.000, 0.000, 0.000, 15:47:33.892
64, 93479.33, 59257.02, -187500.02, -187500.02, -187500.02, -187500.02, -187500.02, -187500.02, 0.000, 0.000, 0.000, 15:47:33.892
65, 94126.79, 60342.73, -187500.02, -187500.02, -187500.02, -187500.02, -187500.02, -187500.02, 0.000, 0.000, 0.000, 15:47:33.892
66, 94410.84, 60634.89, -187500.02, -187500.02, -187500.02, -187500.02, -187500.02, -187500.02, 0.000, 0.000, 0.000, 15:47:33.893
67, 94227.93, 60286.92, -187500.02, -187500.02, -187500.02, -187500.02, -187500.02, -187500.02, 0.000, 0.000, 0.000, 15:47:33.893
68, 93745.11, 59520.10, -187500.02, -187500.02, -187500.02, -187500.02, -187500.02, -187500.02, -0.002, 0.272, -0.986, 15:47:33.893
69, 93497.66, 59270.43, -187500.02, -187500.02, -187500.02, -187500.02, -187500.02, -187500.02, 0.000, 0.000, 0.000, 15:47:33.893
70, 94139.27, 60348.28, -187500.02, -187500.02, -187500.02, -187500.02, -187500.02, -187500.02, 0.000, 0.000, 0.000, 15:47:33.893
71, 94442.64, 60662.48, -187500.02, -187500.02, -187500.02, -187500.02, -187500.02, -187500.02, 0.000, 0.000, 0.000, 15:47:33.893
72, 94253.21, 60307.91, -187500.02, -187500.02, -187500.02, -187500.02, -187500.02, -187500.02, 0.000, 0.000, 0.000, 15:47:33.893
73, 93758.03, 59527.45, -187500.02, -187500.02, -187500.02, -187500.02, -187500.02, -187500.02, 0.000, 0.000, 0.000, 15:47:33.893
74, 93517.77, 59277.63, -187500.02, -187500.02, -187500.02, -187500.02, -187500.02, -187500.02, 0.000, 0.000, 0.000, 15:47:33.894
75, 94156.19, 60357.20, -187500.02, -187500.02, -187500.02, -187500.02, -187500.02, -187500.02, 0.000, 0.000, 0.000, 15:47:33.894
76, 94445.26, 60654.94, -187500.02, -187500.02, -187500.02, -187500.02, -187500.02, -187500.02, 0.000, 0.000, 0.000, 15:47:33.894
77, 94261.80, 60308.09, -187500.02, -187500.02, -187500.02, -187500.02, -187500.02, -187500.02, 0.000, 0.000, 0.000, 15:47:33.894
78, 93770.02, 59534.56, -187500.02, -187500.02, -187500.02, -187500.02, -187500.02, -187500.02, -0.006, 0.274, -0.986, 15:47:33.894
79, 93526.11, 59286.57, -187500.02, -187500.02, -187500.02, -187500.02, -187500.02, -187500.02, 0.000, 0.000, 0.000, 15:47:33.894
80, 94165.75, 60357.78, -187500.02, -187500.02, -187500.02, -187500.02, -187500.02, -187500.02, 0.000, 0.000, 0.000, 15:47:33.894
81, 94454.13, 60653.65, -187500.02, -187500.02, -187500.02, -187500.02, -187500.02, -187500.02, 0.000, 0.000, 0.000, 15:47:33.894
82, 94265.55, 60305.61, -187500.02, -187500.02, -187500.02, -187500.02, -187500.02, -187500.02, 0.000, 0.000, 0.000, 15:47:33.895
83, 93776.47, 59533.00, -187500.02, -187500.02, -187500.02, -187500.02, -187500.02, -187500.02, 0.000, 0.000, 0.000, 15:47:33.895
84, 93528.13, 59274.12, -187500.02, -187500.02, -187500.02, -187500.02, -187500.02, -187500.02, 0.000, 0.000, 0.000, 15:47:33.895
85, 94170.73, 60350.73, -187500.02, -187500.02, -187500.02, -187500.02, -187500.02, -187500.02, 0.000, 0.000, 0.000, 15:47:33.895
86, 94472.08, 60658.41, -187500.02, -187500.02, -187500.02, -187500.02, -187500.02, -187500.02, 0.000, 0.000, 0.000, 15:47:33.895
87, 94291.52, 60312.87, -187500.02, -187500.02, -187500.02, -187500.02, -187500.02, -187500.02, 0.000, 0.000, 0.000, 15:47:33.895
88, 93795.92, 59539.64, -187500.02, -187500.02, -187500.02, -187500.02, -187500.02, -187500.02, -0.002, 0.262, -0.984, 15:47:33.895
89, 93560.47, 59294.53, -187500.02, -187500.02, -187500.02, -187500.02, -187500.02, -187500.02, 0.000, 0.000, 0.000, 15:47:33.895
90, 94202.95, 60369.73, -187500.02, -187500.02, -187500.02, -187500.02, -187500.02, -187500.02, 0.000, 0.000, 0.000, 15:47:33.896
91, 94497.67, 60668.36, -187500.02, -187500.02, -187500.02, -187500.02, -187500.02, -187500.02, 0.000, 0.000, 0.000, 15:47:33.896
92, 94313.67, 60321.48, -187500.02, -187500.02, -187500.02, -187500.02, -187500.02, -187500.02, 0.000, 0.000, 0.000, 15:47:33.896
93, 93826.34, 59550.21, -187500.02, -187500.02, -187500.02, -187500.02, -187500.02, -187500.02, 0.000, 0.000, 0.000, 15:47:33.896
94, 93578.23, 59284.89, -187500.02, -187500.02, -187500.02, -187500.02, -187500.02, -187500.02, 0.000, 0.000, 0.000, 15:47:33.896
95, 94220.65, 60360.14, -187500.02, -187500.02, -187500.02, -187500.02, -187500.02, -187500.02, 0.000, 0.000, 0.000, 15:47:33.897
96, 94517.74, 60668.58, -187500.02, -187500.02, -187500.02, -187500.02, -187500.02, -187500.02, 0.000, 0.000, 0.000, 15:47:33.897
97, 94347.90, 60337.73, -187500.02, -187500.02, -187500.02, -187500.02, -187500.02, -187500.02, 0.000, 0.000, 0.000, 15:47:33.898
98, 93850.50, 59558.66, -187500.02, -187500.02, -187500.02, -187500.02, -187500.02, -187500.02, 0.000, 0.268, -0.984, 15:47:33.898
99, 93592.02, 59294.91, -187500.02, -187500.02, -187500.02, -187500.02, -187500.02, -187500.02, 0.000, 0.000, 0.000, 15:47:33.898
100, 94234.93, 60372.15, -187500.02, -187500.02, -187500.02, -187500.02, -187500.02, -187500.02, 0.000, 0.000, 0.000, 15:47:33.898
101, 94533.66, 60677.50, -187500.02, -187500.02, -187500.02, -187500.02, -187500.02, -187500.02, 0.000, 0.000, 0.000, 15:47:33.898
102, 94346.89, 60327.78, -187500.02, -187500.02, -187500.02, -187500.02, -187500.02, -187500.02, 0.000, 0.000, 0.000, 15:47:33.898
103, 93856.20, 59554.84, -187500.02, -187500.02, -187500.02, -187500.02, -187500.02, -187500.02, 0.000, 0.000, 0.000, 15:47:33.898
104, 93599.52, 59289.12, -187500.02, -187500.02, -187500.02, -187500.02, -187500.02, -187500.02, 0.000, 0.000, 0.000, 15:47:34.362
105, 94240.00, 60366.09, -187500.02, -187500.02, -187500.02, -187500.02, -187500.02, -187500.02, 0.000, 0.000, 0.000, 15:47:34.363
106, 94550.89, 60685.95, -187500.02, -187500.02, -187500.02, -187500.02, -187500.02, -187500.02, 0.000, 0.000, 0.000, 15:47:34.363
107, 94360.63, 60336.39, -187500.02, -187500.02, -187500.02, -187500.02, -187500.02, -187500.02, 0.000, 0.000, 0.000, 15:47:34.363
108, 93863.20, 59556.45, -187500.02, -187500.02, -187500.02, -187500.02, -187500.02, -187500.02, 0.000, 0.272, -0.984, 15:47:34.363
109, 93613.08, 59291.53, -187500.02, -187500.02, -187500.02, -187500.02, -187500.02, -187500.02, 0.000, 0.000, 0.000, 15:47:34.363
110, 94258.80, 60377.47, -187500.02, -187500.02, -187500.02, -187500.02, -187500.02, -187500.02, 0.000, 0.000, 0.000, 15:47:34.363
111, 94557.45, 60689.97, -187500.02, -187500.02, -187500.02, -187500.02, -187500.02, -187500.02, 0.000, 0.000, 0.000, 15:47:34.363
112, 94372.17, 60341.28, -187500.02, -187500.02, -187500.02, -187500.02, -187500.02, -187500.02, 0.000, 0.000, 0.000, 15:47:34.363
113, 93887.56, 59579.55, -187500.02, -187500.02, -187500.02, -187500.02, -187500.02, -187500.02, 0.000, 0.000, 0.000, 15:47:34.363
114, 93629.53, 59306.13, -187500.02, -187500.02, -187500.02, -187500.02, -187500.02, -187500.02, 0.000, 0.000, 0.000, 15:47:34.364
115, 94269.69, 60370.70, -187500.02, -187500.02, -187500.02, -187500.02, -187500.02, -187500.02, 0.000, 0.000, 0.000, 15:47:34.364
116, 94577.20, 60693.61, -187500.02, -187500.02, -187500.02, -187500.02, -187500.02, -187500.02, 0.000, 0.000, 0.000, 15:47:34.364
117, 94387.62, 60338.98, -187500.02, -187500.02, -187500.02, -187500.02, -187500.02, -187500.02, 0.000, 0.000, 0.000, 15:47:34.364
118, 93907.79, 59581.57, -187500.02, -187500.02, -187500.02, -187500.02, -187500.02, -187500.02, -0.002, 0.270, -0.978, 15:47:34.364
119, 93656.17, 59316.79, -187500.02, -187500.02, -187500.02, -187500.02, -187500.02, -187500.02, 0.000, 0.000, 0.000, 15:47:34.364
120, 94286.59, 60369.78, -187500.02, -187500.02, -187500.02, -187500.02, -187500.02, -187500.02, 0.000, 0.000, 0.000, 15:47:34.364
121, 94594.75, 60686.55, -187500.02, -187500.02, -187500.02, -187500.02, -187500.02, -187500.02, 0.000, 0.000, 0.000, 15:47:34.364
122, 94406.52, 60341.15, -187500.02, -187500.02, -187500.02, -187500.02, -187500.02, -187500.02, 0.000, 0.000, 0.000, 15:47:34.365
123, 93917.42, 59577.93, -187500.02, -187500.02, -187500.02, -187500.02, -187500.02, -187500.02, 0.000, 0.000, 0.000, 15:47:34.365
124, 93676.36, 59313.46, -187500.02, -187500.02, -187500.02, -187500.02, -187500.02, -187500.02, 0.000, 0.000, 0.000, 15:47:34.365
125, 94303.98, 60375.28, -187500.02, -187500.02, -187500.02, -187500.02, -187500.02, -187500.02, 0.000, 0.000, 0.000, 15:47:34.365
126, 94605.30, 60695.51, -187500.02, -187500.02, -187500.02, -187500.02, -187500.02, -187500.02, 0.000, 0.000, 0.000, 15:47:34.365
127, 94435.47, 60359.01, -187500.02, -187500.02, -187500.02, -187500.02, -187500.02, -187500.02, 0.000, 0.000, 0.000, 15:47:34.365
128, 93950.64, 59590.93, -187500.02, -187500.02, -187500.02, -187500.02, -187500.02, -187500.02, -0.006, 0.274, -0.980, 15:47:34.365
129, 93691.70, 59315.11, -187500.02, -187500.02, -187500.02, -187500.02, -187500.02, -187500.02, 0.000, 0.000, 0.000, 15:47:34.365
130, 94331.35, 60393.25, -187500.02, -187500.02, -187500.02, -187500.02, -187500.02, -187500.02, 0.000, 0.000, 0.000, 15:47:34.366
131, 94641.73, 60717.08, -187500.02, -187500.02, -187500.02, -187500.02, -187500.02, -187500.02, 0.000, 0.000, 0.000, 15:47:34.366
132, 94462.11, 60371.01, -187500.02, -187500.02, -187500.02, -187500.02, -187500.02, -187500.02, 0.000, 0.000, 0.000, 15:47:34.366
133, 93973.93, 59609.48, -187500.02, -187500.02, -187500.02, -187500.02, -187500.02, -187500.02, 0.000, 0.000, 0.000, 15:47:34.366
134, 93706.69, 59328.77, -187500.02, -187500.02, -187500.02, -187500.02, -187500.02, -187500.02, 0.000, 0.000, 0.000, 15:47:34.366
135, 94352.21, 60407.66, -187500.02, -187500.02, -187500.02, -187500.02, -187500.02, -187500.02, 0.000, 0.000, 0.000, 15:47:34.366
136, 94672.40, 60741.91, -187500.02, -187500.02, -187500.02, -187500.02, -187500.02, -187500.02, 0.000, 0.000, 0.000, 15:47:34.366
137, 94489.27, 60398.17, -187500.02, -187500.02, -187500.02, -187500.02, -187500.02, -187500.02, 0.000, 0.000, 0.000, 15:47:34.366
138, 93998.42, 59624.15, -187500.02, -187500.02, -187500.02, -187500.02, -187500.02, -187500.02, -0.004, 0.276, -0.984, 15:47:34.367
139, 93746.48, 59348.51, -187500.02, -187500.02, -187500.02, -187500.02, -187500.02, -187500.02, 0.000, 0.000, 0.000, 15:47:34.367
140, 94383.45, 60418.91, -187500.02, -187500.02, -187500.02, -187500.02, -187500.02, -187500.02, 0.000, 0.000, 0.000, 15:47:34.367
141, 94692.18, 60747.95, -187500.02, -187500.02, -187500.02, -187500.02, -187500.02, -187500.02, 0.000, 0.000, 0.000, 15:47:34.367
142, 94509.07, 60402.37, -187500.02, -187500.02, -187500.02, -187500.02, -187500.02, -187500.02, 0.000, 0.000, 0.000, 15:47:34.367
143, 94024.98, 59639.13, -187500.02, -187500.02, -187500.02, -187500.02, -187500.02, -187500.02, 0.000, 0.000, 0.000, 15:47:34.367
144, 93751.86, 59343.01, -187500.02, -187500.02, -187500.02, -187500.02, -187500.02, -187500.02, 0.000, 0.000, 0.000, 15:47:34.367
145, 94397.38, 60420.68, -187500.02, -187500.02, -187500.02, -187500.02, -187500.02, -187500.02, 0.000, 0.000, 0.000, 15:47:34.367
146, 94707.29, 60746.70, -187500.02, -187500.02, -187500.02, -187500.02, -187500.02, -187500.02, 0.000, 0.000, 0.000, 15:47:34.368
147, 94531.65, 60411.31, -187500.02, -187500.02, -187500.02, -187500.02, -187500.02, -187500.02, 0.000, 0.000, 0.000, 15:47:34.368
148, 94043.77, 59646.79, -187500.02, -187500.02, -187500.02, -187500.02, -187500.02, -187500.02, -0.002, 0.274, -0.980, 15:47:34.368
149, 93769.70, 59345.31, -187500.02, -187500.02, -187500.02, -187500.02, -187500.02, -187500.02, 0.000, 0.000, 0.000, 15:47:34.368
150, 94408.42, 60414.10, -187500.02, -187500.02, -187500.02, -187500.02, -187500.02, -187500.02, 0.000, 0.000, 0.000, 15:47:34.368
151, 94724.19, 60750.56, -187500.02, -187500.02, -187500.02, -187500.02, -187500.02, -187500.02, 0.000, 0.000, 0.000, 15:47:34.368
152, 94553.42, 60419.87, -187500.02, -187500.02, -187500.02, -187500.02, -187500.02, -187500.02, 0.000, 0.000, 0.000, 15:47:34.368
153, 94070.58, 59658.95, -187500.02, -187500.02, -187500.02, -187500.02, -187500.02, -187500.02, 0.000, 0.000, 0.000, 15:47:34.369
154, 93795.49, 59358.70, -187500.02, -187500.02, -187500.02, -187500.02, -187500.02, -187500.02, 0.000, 0.000, 0.000, 15:47:34.369
155, 94435.83, 60435.29, -187500.02, -187500.02, -187500.02, -187500.02, -187500.02, -187500.02, 0.000, 0.000, 0.000, 15:47:34.369
156, 94756.22, 60778.01, -187500.02, -187500.02, -187500.02, -187500.02, -187500.02, -187500.02, 0.000, 0.000, 0.000, 15:47:34.369
157, 94581.09, 60436.95, -187500.02, -187500.02, -187500.02, -187500.02, -187500.02, -187500.02, -0.002, 0.278, -0.976, 15:47:34.369
158, 94103.77, 59682.78, -187500.02, -187500.02, -187500.02, -187500.02, -187500.02, -187500.02, 0.000, 0.000, 0.000, 15:47:34.369
159, 93829.91, 59383.64, -187500.02, -187500.02, -187500.02, -187500.02, -187500.02, -187500.02, 0.000, 0.000, 0.000, 15:47:34.369
160, 94470.00, 60459.81, -187500.02, -187500.02, -187500.02, -187500.02, -187500.02, -187500.02, 0.000, 0.000, 0.000, 15:47:34.369
161, 94789.14, 60800.70, -187500.02, -187500.02, -187500.02, -187500.02, -187500.02, -187500.02, 0.000, 0.000, 0.000, 15:47:34.370
162, 94609.25, 60461.29, -187500.02, -187500.02, -187500.02, -187500.02, -187500.02, -187500.02, 0.000, 0.000, 0.000, 15:47:34.370
163, 94120.47, 59697.39, -187500.02, -187500.02, -187500.02, -187500.02, -187500.02, -187500.02, 0.000, 0.000, 0.000, 15:47:34.370
164, 93854.55, 59405.95, -187500.02, -187500.02, -187500.02, -187500.02, -187500.02, -187500.02, 0.000, 0.000, 0.000, 15:47:34.370
165, 94494.63, 60478.21, -187500.02, -187500.02, -187500.02, -187500.02, -187500.02, -187500.02, 0.000, 0.000, 0.000, 15:47:34.370
166, 94806.89, 60811.03, -187500.02, -187500.02, -187500.02, -187500.02, -187500.02, -187500.02, 0.000, 0.000, 0.000, 15:47:34.370
167, 94626.33, 60469.98, -187500.02, -187500.02, -187500.02, -187500.02, -187500.02, -187500.02, 0.000, 0.274, -0.978, 15:47:34.370
168, 94136.63, 59699.83, -187500.02, -187500.02, -187500.02, -187500.02, -187500.02, -187500.02, 0.000, 0.000, 0.000, 15:47:34.370
169, 93860.54, 59400.74, -187500.02, -187500.02, -187500.02, -187500.02, -187500.02, -187500.02, 0.000, 0.000, 0.000, 15:47:34.371
170, 94490.32, 60469.51, -187500.02, -187500.02, -187500.02, -187500.02, -187500.02, -187500.02, 0.000, 0.000, 0.000, 15:47:34.371
171, 94814.40, 60814.36, -187500.02, -187500.02, -187500.02, -187500.02, -187500.02, -187500.02, 0.000, 0.000, 0.000, 15:47:34.371
172, 94633.91, 60475.93, -187500.02, -187500.02, -187500.02, -187500.02, -187500.02, -187500.02, 0.000, 0.000, 0.000, 15:47:34.371
173, 94142.39, 59706.58, -187500.02, -187500.02, -187500.02, -187500.02, -187500.02, -187500.02, 0.000, 0.000, 0.000, 15:47:34.371
174, 93869.63, 59407.47, -187500.02, -187500.02, -187500.02, -187500.02, -187500.02, -187500.02, 0.000, 0.000, 0.000, 15:47:34.371
175, 94506.34, 60479.53, -187500.02, -187500.02, -187500.02, -187500.02, -187500.02, -187500.02, 0.000, 0.000, 0.000, 15:47:34.371
176, 94822.02, 60817.15, -187500.02, -187500.02, -187500.02, -187500.02, -187500.02, -187500.02, 0.000, 0.000, 0.000, 15:47:34.371
177, 94641.89, 60474.90, -187500.02, -187500.02, -187500.02, -187500.02, -187500.02, -187500.02, -0.004, 0.276, -0.976, 15:47:34.372
178, 94161.21, 59721.45, -187500.02, -187500.02, -187500.02, -187500.02, -187500.02, -187500.02, 0.000, 0.000, 0.000, 15:47:34.372
179, 93877.32, 59404.48, -187500.02, -187500.02, -187500.02, -187500.02, -187500.02, -187500.02, 0.000, 0.000, 0.000, 15:47:34.372
180, 94515.02, 60483.06, -187500.02, -187500.02, -187500.02, -187500.02, -187500.02, -187500.02, 0.000, 0.000, 0.000, 15:47:34.372
181, 94844.17, 60833.64, -187500.02, -187500.02, -187500.02, -187500.02, -187500.02, -187500.02, 0.000, 0.000, 0.000, 15:47:34.372
182, 94668.66, 60493.36, -187500.02, -187500.02, -187500.02, -187500.02, -187500.02, -187500.02, 0.000, 0.000, 0.000, 15:47:34.372
183, 94182.23, 59733.61, -187500.02, -187500.02, -187500.02, -187500.02, -187500.02, -187500.02, 0.000, 0.000, 0.000, 15:47:34.372
184, 93903.56, 59423.99, -187500.02, -187500.02, -187500.02, -187500.02, -187500.02, -187500.02, 0.000, 0.000, 0.000, 15:47:34.372
185, 94538.16, 60494.50, -187500.02, -187500.02, -187500.02, -187500.02, -187500.02, -187500.02, 0.000, 0.000, 0.000, 15:47:34.373
186, 94867.91, 60855.17, -187500.02, -187500.02, -187500.02, -187500.02, -187500.02, -187500.02, 0.000, 0.000, 0.000, 15:47:34.373
187, 94682.57, 60509.37, -187500.02, -187500.02, -187500.02, -187500.02, -187500.02, -187500.02, -0.002, 0.270, -0.978, 15:47:34.373
188, 94200.22, 59755.53, -187500.02, -187500.02, -187500.02, -187500.02, -187500.02, -187500.02, 0.000, 0.000, 0.000, 15:47:34.373
189, 93917.22, 59444.53, -187500.02, -187500.02, -187500.02, -187500.02, -187500.02, -187500.02, 0.000, 0.000, 0.000, 15:47:34.373
190, 94541.59, 60502.08, -187500.02, -187500.02, -187500.02, -187500.02, -187500.02, -187500.02, 0.000, 0.000, 0.000, 15:47:34.373
191, 94879.51, 60866.26, -187500.02, -187500.02, -187500.02, -187500.02, -187500.02, -187500.02, 0.000, 0.000, 0.000, 15:47:34.373
192, 94698.05, 60520.77, -187500.02, -187500.02, -187500.02, -187500.02, -187500.02, -187500.02, 0.000, 0.000, 0.000, 15:47:34.373
193, 94207.33, 59761.57, -187500.02, -187500.02, -187500.02, -187500.02, -187500.02, -187500.02, 0.000, 0.000, 0.000, 15:47:34.374
194, 93926.63, 59448.57, -187500.02, -187500.02, -187500.02, -187500.02, -187500.02, -187500.02, 0.000, 0.000, 0.000, 15:47:34.374
195, 94557.55, 60518.08, -187500.02, -187500.02, -187500.02, -187500.02, -187500.02, -187500.02, 0.000, 0.000, 0.000, 15:47:34.374
196, 94881.79, 60871.71, -187500.02, -187500.02, -187500.02, -187500.02, -187500.02, -187500.02, 0.000, 0.000, 0.000, 15:47:34.374
197, 94701.19, 60531.20, -187500.02, -187500.02, -187500.02, -187500.02, -187500.02, -187500.02, -0.002, 0.272, -0.980, 15:47:34.374
198, 94224.65, 59783.07, -187500.02, -187500.02, -187500.02, -187500.02, -187500.02, -187500.02, 0.000, 0.000, 0.000, 15:47:34.374
199, 93940.22, 59465.34, -187500.02, -187500.02, -187500.02, -187500.02, -187500.02, -187500.02, 0.000, 0.000, 0.000, 15:47:34.374
200, 94565.71, 60528.07, -187500.02, -187500.02, -187500.02, -187500.02, -187500.02, -187500.02, 0.000, 0.000, 0.000, 15:47:34.374
201, 94889.12, 60879.87, -187500.02, -187500.02, -187500.02, -187500.02, -187500.02, -187500.02, 0.000, 0.000, 0.000, 15:47:34.374
202, 94715.05, 60547.10, -187500.02, -187500.02, -187500.02, -187500.02, -187500.02, -187500.02, 0.000, 0.000, 0.000, 15:47:34.375
203, 94243.06, 59798.80, -187500.02, -187500.02, -187500.02, -187500.02, -187500.02, -187500.02, 0.000, 0.000, 0.000, 15:47:34.375
204, 93951.40, 59466.01, -187500.02, -187500.02, -187500.02, -187500.02, -187500.02, -187500.02, 0.000, 0.000, 0.000, 15:47:34.375
205, 94577.58, 60525.64, -187500.02, -187500.02, -187500.02, -187500.02, -187500.02, -187500.02, 0.000, 0.000, 0.000, 15:47:34.375
206, 94914.47, 60902.71, -187500.02, -187500.02, -187500.02, -187500.02, -187500.02, -187500.02, 0.000, 0.000, 0.000, 15:47:34.375
207, 94738.38, 60563.08, -187500.02, -187500.02, -187500.02, -187500.02, -187500.02, -187500.02, 0.000, 0.270, -0.982, 15:47:34.375
208, 94262.24, 59807.25, -187500.02, -187500.02, -187500.02, -187500.02, -187500.02, -187500.02, 0.000, 0.000, 0.000, 15:47:34.375
209, 93964.80, 59474.88, -187500.02, -187500.02, -187500.02, -187500.02, -187500.02, -187500.02, 0.000, 0.000, 0.000, 15:47:34.375
210, 94592.09, 60547.59, -187500.02, -187500.02, -187500.02, -187500.02, -187500.02, -187500.02, 0.000, 0.000, 0.000, 15:47:34.376
211, 94928.99, 60912.82, -187500.02, -187500.02, -187500.02, -187500.02, -187500.02, -187500.02, 0.000, 0.000, 0.000, 15:47:34.376
212, 94747.61, 60571.77, -187500.02, -187500.02, -187500.02, -187500.02, -187500.02, -187500.02, 0.000, 0.000, 0.000, 15:47:34.376
213, 94258.40, 59807.81, -187500.02, -187500.02, -187500.02, -187500.02, -187500.02, -187500.02, 0.000, 0.000, 0.000, 15:47:34.376
214, 93967.96, 59478.57, -187500.02, -187500.02, -187500.02, -187500.02, -187500.02, -187500.02, 0.000, 0.000, 0.000, 15:47:34.376
215, 94595.69, 60545.75, -187500.02, -187500.02, -187500.02, -187500.02, -187500.02, -187500.02, 0.000, 0.000, 0.000, 15:47:34.376
216, 94927.92, 60910.00, -187500.02, -187500.02, -187500.02, -187500.02, -187500.02, -187500.02, 0.000, 0.000, 0.000, 15:47:34.376
217, 94752.64, 60574.97, -187500.02, -187500.02, -187500.02, -187500.02, -187500.02, -187500.02, -0.004, 0.270, -0.984, 15:47:34.376
218, 94275.61, 59824.89, -187500.02, -187500.02, -187500.02, -187500.02, -187500.02, -187500.02, 0.000, 0.000, 0.000, 15:47:34.377
219, 93989.48, 59494.73, -187500.02, -187500.02, -187500.02, -187500.02, -187500.02, -187500.02, 0.000, 0.000, 0.000, 15:47:34.377
220, 94616.83, 60560.55, -187500.02, -187500.02, -187500.02, -187500.02, -187500.02, -187500.02, 0.000, 0.000, 0.000, 15:47:34.377
221, 94943.97, 60920.39, -187500.02, -187500.02, -187500.02, -187500.02, -187500.02, -187500.02, 0.000, 0.000, 0.000, 15:47:34.377
222, 94768.63, 60587.84, -187500.02, -187500.02, -187500.02, -187500.02, -187500.02, -187500.02, 0.000, 0.000, 0.000, 15:47:34.377
223, 94285.60, 59831.66, -187500.02, -187500.02, -187500.02, -187500.02, -187500.02, -187500.02, 0.000, 0.000, 0.000, 15:47:34.377
224, 93989.59, 59489.46, -187500.02, -187500.02, -187500.02, -187500.02, -187500.02, -187500.02, 0.000, 0.000, 0.000, 15:47:34.843
225, 94627.78, 60557.02, -187500.02, -187500.02, -187500.02, -187500.02, -187500.02, -187500.02, 0.000, 0.000, 0.000, 15:47:34.843
226, 94970.26, 60937.63, -187500.02, -187500.02, -187500.02, -187500.02, -187500.02, -187500.02, 0.000, 0.000, 0.000, 15:47:34.843
227, 94794.51, 60607.51, -187500.02, -187500.02, -187500.02, -187500.02, -187500.02, -187500.02, -0.002, 0.272, -0.986, 15:47:34.843
228, 94313.23, 59854.62, -187500.02, -187500.02, -187500.02, -187500.02, -187500.02, -187500.02, 0.000, 0.000, 0.000, 15:47:34.843
229, 94014.98, 59514.45, -187500.02, -187500.02, -187500.02, -187500.02, -187500.02, -187500.02, 0.000, 0.000, 0.000, 15:47:34.843
230, 94643.67, 60583.37, -187500.02, -187500.02, -187500.02, -187500.02, -187500.02, -187500.02, 0.000, 0.000, 0.000, 15:47:34.843
231, 94987.89, 60960.76, -187500.02, -187500.02, -187500.02, -187500.02, -187500.02, -187500.02, 0.000, 0.000, 0.000, 15:47:34.843
232, 94812.25, 60624.25, -187500.02, -187500.02, -187500.02, -187500.02, -187500.02, -187500.02, 0.000, 0.000, 0.000, 15:47:34.844
233, 94328.60, 59865.99, -187500.02, -187500.02, -187500.02, -187500.02, -187500.02, -187500.02, 0.000, 0.000, 0.000, 15:47:34.844
234, 94026.59, 59521.42, -187500.02, -187500.02, -187500.02, -187500.02, -187500.02, -187500.02, 0.000, 0.000, 0.000, 15:47:34.844
235, 94650.65, 60579.13, -187500.02, -187500.02, -187500.02, -187500.02, -187500.02, -187500.02, 0.000, 0.000, 0.000, 15:47:34.844
236, 94983.65, 60955.26, -187500.02, -187500.02, -187500.02, -187500.02, -187500.02, -187500.02, 0.000, 0.000, 0.000, 15:47:34.844
237, 94811.02, 60624.37, -187500.02, -187500.02, -187500.02, -187500.02, -187500.02, -187500.02, -0.006, 0.274, -0.982, 15:47:34.844
238, 94331.09, 59871.63, -187500.02, -187500.02, -187500.02, -187500.02, -187500.02, -187500.02, 0.000, 0.000, 0.000, 15:47:34.844
239, 94036.55, 59533.31, -187500.02, -187500.02, -187500.02, -187500.02, -187500.02, -187500.02, 0.000, 0.000, 0.000, 15:47:34.844
240, 94654.05, 60585.09, -187500.02, -187500.02, -187500.02, -187500.02, -187500.02, -187500.02, 0.000, 0.000, 0.000, 15:47:34.845
241, 94991.31, 60963.00, -187500.02, -187500.02, -187500.02, -187500.02, -187500.02, -187500.02, 0.000, 0.000, 0.000, 15:47:34.845
242, 94814.04, 60619.11, -187500.02, -187500.02, -187500.02, -187500.02, -187500.02, -187500.02, 0.000, 0.000, 0.000, 15:47:34.845
243, 94328.23, 59867.45, -187500.02, -187500.02, -187500.02, -187500.02, -187500.02, -187500.02, 0.000, 0.000, 0.000, 15:47:34.845
244, 94026.05, 59519.90, -187500.02, -187500.02, -187500.02, -187500.02, -187500.02, -187500.02, 0.000, 0.000, 0.000, 15:47:34.845
245, 94653.80, 60582.84, -187500.02, -187500.02, -187500.02, -187500.02, -187500.02, -187500.02, 0.000, 0.000, 0.000, 15:47:34.845
246, 94995.16, 60962.68, -187500.02, -187500.02, -187500.02, -187500.02, -187500.02, -187500.02, 0.000, 0.000, 0.000, 15:47:34.845
247, 94827.09, 60629.98, -187500.02, -187500.02, -187500.02, -187500.02, -187500.02, -187500.02, -0.002, 0.274, -0.974, 15:47:34.846
248, 94344.81, 59885.55, -187500.02, -187500.02, -187500.02, -187500.02, -187500.02, -187500.02, 0.000, 0.000, 0.000, 15:47:34.846
249, 94035.93, 59520.48, -187500.02, -187500.02, -187500.02, -187500.02, -187500.02, -187500.02, 0.000, 0.000, 0.000, 15:47:34.846
250, 94663.45, 60582.64, -187500.02, -187500.02, -187500.02, -187500.02, -187500.02, -187500.02, 0.000, 0.000, 0.000, 15:47:34.846
251, 95011.07, 60967.53, -187500.02, -187500.02, -187500.02, -187500.02, -187500.02, -187500.02, 0.000, 0.000, 0.000, 15:47:34.846
252, 94848.13, 60641.96, -187500.02, -187500.02, -187500.02, -187500.02, -187500.02, -187500.02, 0.000, 0.000, 0.000, 15:47:34.846
253, 94360.63, 59887.23, -187500.02, -187500.02, -187500.02, -187500.02, -187500.02, -187500.02, 0.000, 0.000, 0.000, 15:47:34.846
254, 94055.89, 59532.35, -187500.02, -187500.02, -187500.02, -187500.02, -187500.02, -187500.02, 0.000, 0.000, 0.000, 15:47:34.846
255, 94680.84, 60587.26, -187500.02, -187500.02, -187500.02, -187500.02, -187500.02, -187500.02, 0.000, 0.000, 0.000, 15:47:34.846
0, 95021.58, 60972.16, -187500.02, -187500.02, -187500.02, -187500.02, -187500.02, -187500.02, 0.000, 0.000, 0.000, 15:47:34.847
1, 94855.52, 60648.84, -187500.02, -187500.02, -187500.02, -187500.02, -187500.02, -187500.02, 0.004, 0.272, -0.972, 15:47:34.847
2, 94377.47, 59895.52, -187500.02, -187500.02, -187500.02, -187500.02, -187500.02, -187500.02, 0.000, 0.000, 0.000, 15:47:34.847
3, 94061.63, 59530.45, -187500.02, -187500.02, -187500.02, -187500.02, -187500.02, -187500.02, 0.000, 0.000, 0.000, 15:47:34.847
4, 94686.08, 60595.24, -187500.02, -187500.02, -187500.02, -187500.02, -187500.02, -187500.02, 0.000, 0.000, 0.000, 15:47:34.847
5, 95028.53, 60980.05, -187500.02, -187500.02, -187500.02, -187500.02, -187500.02, -187500.02, 0.000, 0.000, 0.000, 15:47:34.847
6, 94851.81, 60639.72, -187500.02, -187500.02, -187500.02, -187500.02, -187500.02, -187500.02, 0.000, 0.000, 0.000, 15:47:34.847
7, 94374.65, 59887.83, -187500.02, -187500.02, -187500.02, -187500.02, -187500.02, -187500.02, 0.000, 0.000, 0.000, 15:47:34.847
8, 94064.32, 59537.60, -187500.02, -187500.02, -187500.02, -187500.02, -187500.02, -187500.02, 0.000, 0.000, 0.000, 15:47:34.848
9, 94680.89, 60586.95, -187500.02, -187500.02, -187500.02, -187500.02, -187500.02, -187500.02, 0.000, 0.000, 0.000, 15:47:34.848
10, 95028.82, 60972.27, -187500.02, -187500.02, -187500.02, -187500.02, -187500.02, -187500.02, 0.000, 0.000, 0.000, 15:47:34.848
11, 94856.24, 60644.48, -187500.02, -187500.02, -187500.02, -187500.02, -187500.02, -187500.02, -0.002, 0.268, -0.980, 15:47:34.848
12, 94386.66, 59907.77, -187500.02, -187500.02, -187500.02, -187500.02, -187500.02, -187500.02, 0.000, 0.000, 0.000, 15:47:34.848
13, 94077.51, 59548.84, -187500.02, -187500.02, -187500.02, -187500.02, -187500.02, -187500.02, 0.000, 0.000, 0.000, 15:47:34.848
14, 94694.84, 60603.71, -187500.02, -187500.02, -187500.02, -187500.02, -187500.02, -187500.02, 0.000, 0.000, 0.000, 15:47:34.848
15, 95042.09, 60995.25, -187500.02, -187500.02, -187500.02, -187500.02, -187500.02, -187500.02, 0.000, 0.000, 0.000, 15:47:34.848
16, 94863.80, 60655.41, -187500.02, -187500.02, -187500.02, -187500.02, -187500.02, -187500.02, 0.000, 0.000, 0.000, 15:47:34.848
17, 94389.76, 59912.95, -187500.02, -187500.02, -187500.02, -187500.02, -187500.02, -187500.02, 0.000, 0.000, 0.000, 15:47:34.849
18, 94081.82, 59554.39, -187500.02, -187500.02, -187500.02, -187500.02, -187500.02, -187500.02, 0.000, 0.000, 0.000, 15:47:34.849
19, 94696.60, 60605.61, -187500.02, -187500.02, -187500.02, -187500.02, -187500.02, -187500.02, 0.000, 0.000, 0.000, 15:47:34.849
20, 95042.63, 60996.63, -187500.02, -187500.02, -187500.02, -187500.02, -187500.02, -187500.02, -0.004, 0.268, -0.986, 15:47:34.849
21, 94876.70, 60674.34, -187500.02, -187500.02, -187500.02, -187500.02, -187500.02, -187500.02, 0.000, 0.000, 0.000, 15:47:34.849
22, 94401.70, 59924.62, -187500.02, -187500.02, -187500.02, -187500.02, -187500.02, -187500.02, 0.000, 0.000, 0.000, 15:47:34.849
23, 94088.80, 59561.61, -187500.02, -187500.02, -187500.02, -187500.02, -187500.02, -187500.02, 0.000, 0.000, 0.000, 15:47:34.849
24, 94712.63, 60621.28, -187500.02, -187500.02, -187500.02, -187500.02, -187500.02, -187500.02, 0.000, 0.000, 0.000, 15:47:34.849
25, 95052.89, 61008.84, -187500.02, -187500.02, -187500.02, -187500.02, -187500.02, -187500.02, 0.000, 0.000, 0.000, 15:47:34.850
26, 94874.91, 60671.80, -187500.02, -187500.02, -187500.02, -187500.02, -187500.02, -187500.02, 0.000, 0.000, 0.000, 15:47:34.850
27, 94407.24, 59935.33, -187500.02, -187500.02, -187500.02, -187500.02, -187500.02, -187500.02, 0.000, 0.000, 0.000, 15:47:34.850
28, 94096.86, 59572.20, -187500.02, -187500.02, -187500.02, -187500.02, -187500.02, -187500.02, 0.000, 0.000, 0.000, 15:47:34.850
29, 94706.22, 60614.60, -187500.02, -187500.02, -187500.02, -187500.02, -187500.02, -187500.02, 0.000, 0.000, 0.000, 15:47:34.850
30, 95049.96, 61000.99, -187500.02, -187500.02, -187500.02, -187500.02, -187500.02, -187500.02, -0.006, 0.268, -0.984, 15:47:34.850
31, 94885.27, 60678.48, -187500.02, -187500.02, -187500.02, -187500.02, -187500.02, -187500.02, 0.000, 0.000, 0.000, 15:47:34.850
32, 94409.27, 59941.30, -187500.02, -187500.02, -187500.02, -187500.02, -187500.02, -187500.02, 0.000, 0.000, 0.000, 15:47:34.850
33, 94085.09, 59564.18, -187500.02, -187500.02, -187500.02, -187500.02, -187500.02, -187500.02, 0.000, 0.000, 0.000, 15:47:34.851
34, 94691.73, 60605.50, -187500.02, -187500.02, -187500.02, -187500.02, -187500.02, -187500.02, 0.000, 0.000, 0.000, 15:47:34.851
35, 95040.69, 60998.71, -187500.02, -187500.02, -187500.02, -187500.02, -187500.02, -187500.02, 0.000, 0.000, 0.000, 15:47:34.851
36, 94867.30, 60663.37, -187500.02, -187500.02, -187500.02, -187500.02, -187500.02, -187500.02, 0.000, 0.000, 0.000, 15:47:34.851
37, 94393.78, 59928.98, -187500.02, -187500.02, -187500.02, -187500.02, -187500.02, -187500.02, 0.000, 0.000, 0.000, 15:47:34.851
38, 94082.36, 59555.95, -187500.02, -187500.02, -187500.02, -187500.02, -187500.02, -187500.02, 0.000, 0.000, 0.000, 15:47:34.851
39, 94690.91, 60602.68, -187500.02, -187500.02, -187500.02, -187500.02, -187500.02, -187500.02, 0.000, 0.000, 0.000, 15:47:34.851
40, 95043.59, 61005.04, -187500.02, -187500.02, -187500.02, -187500.02, -187500.02, -187500.02, -0.006, 0.268, -0.986, 15:47:34.852
41, 94870.41, 60671.48, -187500.02, -187500.02, -187500.02, -187500.02, -187500.02, -187500.02, 0.000, 0.000, 0.000, 15:47:34.852
42, 94393.78, 59930.08, -187500.02, -187500.02, -187500.02, -187500.02, -187500.02, -187500.02, 0.000, 0.000, 0.000, 15:47:34.852
43, 94079.00, 59556.67, -187500.02, -187500.02, -187500.02, -187500.02, -187500.02, -187500.02, 0.000, 0.000, 0.000, 15:47:34.852
44, 94694.34, 60606.82, -187500.02, -187500.02, -187500.02, -187500.02, -187500.02, -187500.02, 0.000, 0.000, 0.000, 15:47:34.852
45, 95051.41, 61011.83, -187500.02, -187500.02, -187500.02, -187500.02, -187500.02, -187500.02, 0.000, 0.000, 0.000, 15:47:34.852
46, 94877.56, 60685.41, -187500.02, -187500.02, -187500.02, -187500.02, -187500.02, -187500.02, 0.000, 0.000, 0.000, 15:47:34.852
47, 94407.26, 59945.23, -187500.02, -187500.02, -187500.02, -187500.02, -187500.02, -187500.02, 0.000, 0.000, 0.000, 15:47:34.852
48, 94085.93, 59563.69, -187500.02, -187500.02, -187500.02, -187500.02, -187500.02, -187500.02, 0.000, 0.000, 0.000, 15:47:34.853
49, 94699.58, 60616.01, -187500.02, -187500.02, -187500.02, -187500.02, -187500.02, -187500.02, 0.000, 0.000, 0.000, 15:47:34.853
50, 95051.88, 61019.86, -187500.02, -187500.02, -187500.02, -187500.02, -187500.02, -187500.02, 0.000, 0.268, -0.980, 15:47:34.853
51, 94882.28, 60694.80, -187500.02, -187500.02, -187500.02, -187500.02, -187500.02, -187500.02, 0.000, 0.000, 0.000, 15:47:34.853
52, 94413.97, 59956.77, -187500.02, -187500.02, -187500.02, -187500.02, -187500.02, -187500.02, 0.000, 0.000, 0.000, 15:47:34.853
53, 94090.13, 59570.50, -187500.02, -187500.02, -187500.02, -187500.02, -187500.02, -187500.02, 0.000, 0.000, 0.000, 15:47:34.853
54, 94694.68, 60617.59, -187500.02, -187500.02, -187500.02, -187500.02, -187500.02, -187500.02, 0.000, 0.000, 0.000, 15:47:34.853
55, 95049.41, 61018.98, -187500.02, -187500.02, -187500.02, -187500.02, -187500.02, -187500.02, 0.000, 0.000, 0.000, 15:47:34.853
56, 94876.76, 60688.36, -187500.02, -187500.02, -187500.02, -187500.02, -187500.02, -187500.02, 0.000, 0.000, 0.000, 15:47:34.853
57, 94400.16, 59941.14, -187500.02, -187500.02, -187500.02, -187500.02, -187500.02, -187500.02, 0.000, 0.000, 0.000, 15:47:34.854
58, 94069.19, 59556.02, -187500.02, -187500.02, -187500.02, -187500.02, -187500.02, -187500.02, 0.000, 0.000, 0.000, 15:47:34.854
59, 94689.27, 60616.57, -187500.02, -187500.02, -187500.02, -187500.02, -187500.02, -187500.02, 0.000, 0.000, 0.000, 15:47:34.854
60, 95042.56, 61015.95, -187500.02, -187500.02, -187500.02, -187500.02, -187500.02, -187500.02, 0.004, 0.266, -0.982, 15:47:34.854
61, 94860.66, 60676.65, -187500.02, -187500.02, -187500.02, -187500.02, -187500.02, -187500.02, 0.000, 0.000, 0.000, 15:47:34.854
62, 94393.67, 59942.50, -187500.02, -187500.02, -187500.02, -187500.02, -187500.02, -187500.02, 0.000, 0.000, 0.000, 15:47:34.854
63, 94064.20, 59550.66, -187500.02, -187500.02, -187500.02, -187500.02, -187500.02, -187500.02, 0.000, 0.000, 0.000, 15:47:34.854
64, 94668.87, 60596.92, -187500.02, -187500.02, -187500.02, -187500.02, -187500.02, -187500.02, 0.000, 0.000, 0.000, 15:47:34.854
65, 95025.06, 61004.97, -187500.02, -187500.02, -187500.02, -187500.02, -187500.02, -187500.02, 0.000, 0.000, 0.000, 15:47:34.855
66, 94856.24, 60677.56, -187500.02, -187500.02, -187500.02, -187500.02, -187500.02, -187500.02, 0.000, 0.000, 0.000, 15:47:34.855
67, 94383.28, 59941.97, -187500.02, -187500.02, -187500.02, -187500.02, -187500.02, -187500.02, 0.000, 0.000, 0.000, 15:47:34.855
68, 94055.27, 59553.16, -187500.02, -187500.02, -187500.02, -187500.02, -187500.02, -187500.02, 0.000, 0.000, 0.000, 15:47:34.855
69, 94663.23, 60594.93, -187500.02, -187500.02, -187500.02, -187500.02, -187500.02, -187500.02, 0.000, 0.000, 0.000, 15:47:34.855
70, 95030.63, 61010.96, -187500.02, -187500.02, -187500.02, -187500.02, -187500.02, -187500.02, -0.004, 0.270, -0.980, 15:47:34.855
71, 94859.44, 60679.38, -187500.02, -187500.02, -187500.02, -187500.02, -187500.02, -187500.02, 0.000, 0.000, 0.000, 15:47:34.855
72, 94398.48, 59950.10, -187500.02, -187500.02, -187500.02, -187500.02, -187500.02, -187500.02, 0.000, 0.000, 0.000, 15:47:34.855
73, 94075.67, 59563.39, -187500.02, -187500.02, -187500.02, -187500.02, -187500.02, -187500.02, 0.000, 0.000, 0.000, 15:47:34.856
74, 94679.66, 60604.41, -187500.02, -187500.02, -187500.02, -187500.02, -187500.02, -187500.02, 0.000, 0.000, 0.000, 15:47:34.856
75, 95033.31, 61017.31, -187500.02, -187500.02, -187500.02, -187500.02, -187500.02, -187500.02, 0.000, 0.000, 0.000, 15:47:34.856
76, 94863.15, 60688.36, -187500.02, -187500.02, -187500.02, -187500.02, -187500.02, -187500.02, 0.000, 0.000, 0.000, 15:47:34.856
77, 94390.36, 59953.25, -187500.02, -187500.02, -187500.02, -187500.02, -187500.02, -187500.02, 0.000, 0.000, 0.000, 15:47:34.856
78, 94047.33, 59548.31, -187500.02, -187500.02, -187500.02, -187500.02, -187500.02, -187500.02, 0.000, 0.000, 0.000, 15:47:34.856
79, 94640.81, 60581.43, -187500.02, -187500.02, -187500.02, -187500.02, -187500.02, -187500.02, 0.000, 0.000, 0.000, 15:47:34.856
80, 95003.80, 60998.07, -187500.02, -187500.02, -187500.02, -187500.02, -187500.02, -187500.02, -0.006, 0.268, -0.986, 15:47:34.856
81, 94841.22, 60679.24, -187500.02, -187500.02, -187500.02, -187500.02, -187500.02, -187500.02, 0.000, 0.000, 0.000, 15:47:34.856
82, 94366.27, 59938.19, -187500.02, -187500.02, -187500.02, -187500.02, -187500.02, -187500.02, 0.000, 0.000, 0.000, 15:47:34.857
83, 94025.49, 59532.33, -187500.02, -187500.02, -187500.02, -187500.02, -187500.02, -187500.02, 0.000, 0.000, 0.000, 15:47:34.857
84, 94632.05, 60584.58, -187500.02, -187500.02, -187500.02, -187500.02, -187500.02, -187500.02, 0.000, 0.000, 0.000, 15:47:34.857
85, 94999.25, 61006.20, -187500.02, -187500.02, -187500.02, -187500.02, -187500.02, -187500.02, 0.000, 0.000, 0.000, 15:47:34.857
86, 94828.59, 60673.45, -187500.02, -187500.02, -187500.02, -187500.02, -187500.02, -187500.02, 0.000, 0.000, 0.000, 15:47:34.857
87, 94360.19, 59938.52, -187500.02, -187500.02, -187500.02, -187500.02, -187500.02, -187500.02, 0.000, 0.000, 0.000, 15:47:34.857
88, 94016.87, 59526.43, -187500.02, -187500.02, -187500.02, -187500.02, -187500.02, -187500.02, 0.000, 0.000, 0.000, 15:47:34.857
89, 94610.33, 60558.36, -187500.02, -187500.02, -187500.02, -187500.02, -187500.02, -187500.02, 0.000, 0.000, 0.000, 15:47:35.324
90, 94976.31, 60985.91, -187500.02, -187500.02, -187500.02, -187500.02, -187500.02, -187500.02, -0.006, 0.272, -0.978, 15:47:35.324
91, 94814.27, 60667.50, -187500.02, -187500.02, -187500.02, -187500.02, -187500.02, -187500.02, 0.000, 0.000, 0.000, 15:47:35.324
92, 94349.13, 59933.96, -187500.02, -187500.02, -187500.02, -187500.02, -187500.02, -187500.02, 0.000, 0.000, 0.000, 15:47:35.324
93, 94014.70, 59533.00, -187500.02, -187500.02, -187500.02, -187500.02, -187500.02, -187500.02, 0.000, 0.000, 0.000, 15:47:35.324
94, 94615.40, 60571.26, -187500.02, -187500.02, -187500.02, -187500.02, -187500.02, -187500.02, 0.000, 0.000, 0.000, 15:47:35.325
95, 94980.60, 60992.99, -187500.02, -187500.02, -187500.02, -187500.02, -187500.02, -187500.02, 0.000, 0.000, 0.000, 15:47:35.325
96, 94814.98, 60670.99, -187500.02, -187500.02, -187500.02, -187500.02, -187500.02, -187500.02, 0.000, 0.000, 0.000, 15:47:35.325
97, 94349.13, 59943.60, -187500.02, -187500.02, -187500.02, -187500.02, -187500.02, -187500.02, 0.000, 0.000, 0.000, 15:47:35.325
98, 94010.34, 59532.02, -187500.02, -187500.02, -187500.02, -187500.02, -187500.02, -187500.02, 0.000, 0.000, 0.000, 15:47:35.325
99, 94615.29, 60573.76, -187500.02, -187500.02, -187500.02, -187500.02, -187500.02, -187500.02, 0.000, 0.000, 0.000, 15:47:35.325
100, 94968.40, 60986.57, -187500.02, -187500.02, -187500.02, -187500.02, -187500.02, -187500.02, 0.000, 0.270, -0.980, 15:47:35.325
101, 94799.73, 60661.05, -187500.02, -187500.02, -187500.02, -187500.02, -187500.02, -187500.02, 0.000, 0.000, 0.000, 15:47:35.325
102, 94349.15, 59942.64, -187500.02, -187500.02, -187500.02, -187500.02, -187500.02, -187500.02, 0.000, 0.000, 0.000, 15:47:35.325
103, 93997.73, 59524.86, -187500.02, -187500.02, -187500.02, -187500.02, -187500.02, -187500.02, 0.000, 0.000, 0.000, 15:47:35.326
104, 94599.98, 60577.43, -187500.02, -187500.02, -187500.02, -187500.02, -187500.02, -187500.02, 0.000, 0.000, 0.000, 15:47:35.326
105, 94969.48, 61001.89, -187500.02, -187500.02, -187500.02, -187500.02, -187500.02, -187500.02, 0.000, 0.000, 0.000, 15:47:35.326
106, 94795.98, 60666.41, -187500.02, -187500.02, -187500.02, -187500.02, -187500.02, -187500.02, 0.000, 0.000, 0.000, 15:47:35.326
107, 94327.17, 59933.90, -187500.02, -187500.02, -187500.02, -187500.02, -187500.02, -187500.02, 0.000, 0.000, 0.000, 15:47:35.326
108, 93978.80, 59519.61, -187500.02, -187500.02, -187500.02, -187500.02, -187500.02, -187500.02, 0.000, 0.000, 0.000, 15:47:35.326
109, 94583.26, 60557.73, -187500.02, -187500.02, -187500.02, -187500.02, -187500.02, -187500.02, 0.000, 0.000, 0.000, 15:47:35.326
110, 94941.04, 60980.63, -187500.02, -187500.02, -187500.02, -187500.02, -187500.02, -187500.02, -0.004, 0.272, -0.980, 15:47:35.326
111, 94773.30, 60657.47, -187500.02, -187500.02, -187500.02, -187500.02, -187500.02, -187500.02, 0.000, 0.000, 0.000, 15:47:35.327
112, 94310.86, 59928.73, -187500.02, -187500.02, -187500.02, -187500.02, -187500.02, -187500.02, 0.000, 0.000, 0.000, 15:47:35.327
113, 93961.34, 59506.29, -187500.02, -187500.02, -187500.02, -187500.02, -187500.02, -187500.02, 0.000, 0.000, 0.000, 15:47:35.327
114, 94553.71, 60539.16, -187500.02, -187500.02, -187500.02, -187500.02, -187500.02, -187500.02, 0.000, 0.000, 0.000, 15:47:35.327
115, 94933.40, 60980.72, -187500.02, -187500.02, -187500.02, -187500.02, -187500.02, -187500.02, 0.000, 0.000, 0.000, 15:47:35.327
116, 94777.30, 60664.09, -187500.02, -187500.02, -187500.02, -187500.02, -187500.02, -187500.02, 0.000, 0.000, 0.000, 15:47:35.327
117, 94315.64, 59941.30, -187500.02, -187500.02, -187500.02, -187500.02, -187500.02, -187500.02, 0.000, 0.000, 0.000, 15:47:35.327
118, 93966.53, 59530.67, -187500.02, -187500.02, -187500.02, -187500.02, -187500.02, -187500.02, 0.000, 0.000, 0.000, 15:47:35.327
119, 94555.34, 60556.44, -187500.02, -187500.02, -187500.02, -187500.02, -187500.02, -187500.02, 0.000, 0.000, 0.000, 15:47:35.328
120, 94926.31, 60988.23, -187500.02, -187500.02, -187500.02, -187500.02, -187500.02, -187500.02, 0.000, 0.270, -0.978, 15:47:35.328
121, 94774.03, 60675.75, -187500.02, -187500.02, -187500.02, -187500.02, -187500.02, -187500.02, 0.000, 0.000, 0.000, 15:47:35.328
122, 94305.96, 59938.41, -187500.02, -187500.02, -187500.02, -187500.02, -187500.02, -187500.02, 0.000, 0.000, 0.000, 15:47:35.328
123, 93952.49, 59506.73, -187500.02, -187500.02, -187500.02, -187500.02, -187500.02, -187500.02, 0.000, 0.000, 0.000, 15:47:35.328
124, 94557.91, 60555.19, -187500.02, -187500.02, -187500.02, -187500.02, -187500.02, -187500.02, 0.000, 0.000, 0.000, 15:47:35.328
125, 94926.65, 60986.69, -187500.02, -187500.02, -187500.02, -187500.02, -187500.02, -187500.02, 0.000, 0.000, 0.000, 15:47:35.328
126, 94756.46, 60652.73, -187500.02, -187500.02, -187500.02, -187500.02, -187500.02, -187500.02, 0.000, 0.000, 0.000, 15:47:35.328
127, 94296.51, 59933.09, -187500.02, -187500.02, -187500.02, -187500.02, -187500.02, -187500.02, 0.000, 0.000, 0.000, 15:47:35.329
128, 93950.99, 59511.94, -187500.02, -187500.02, -187500.02, -187500.02, -187500.02, -187500.02, 0.000, 0.000, 0.000, 15:47:35.329
129, 94538.22, 60531.61, -187500.02, -187500.02, -187500.02, -187500.02, -187500.02, -187500.02, 0.000, 0.000, 0.000, 15:47:35.329
130, 94908.52, 60964.00, -187500.02, -187500.02, -187500.02, -187500.02, -187500.02, -187500.02, -0.006, 0.278, -0.976, 15:47:35.329
131, 94744.62, 60644.21, -187500.02, -187500.02, -187500.02, -187500.02, -187500.02, -187500.02, 0.000, 0.000, 0.000, 15:47:35.329
132, 94280.86, 59923.28, -187500.02, -187500.02, -187500.02, -187500.02, -187500.02, -187500.02, 0.000, 0.000, 0.000, 15:47:35.329
133, 93936.20, 59498.29, -187500.02, -187500.02, -187500.02, -187500.02, -187500.02, -187500.02, 0.000, 0.000, 0.000, 15:47:35.329
134, 94522.33, 60516.74, -187500.02, -187500.02, -187500.02, -187500.02, -187500.02, -187500.02, 0.000, 0.000, 0.000, 15:47:35.329
135, 94895.52, 60958.77, -187500.02, -187500.02, -187500.02, -187500.02, -187500.02, -187500.02, 0.000, 0.000, 0.000, 15:47:35.330
136, 94734.16, 60641.00, -187500.02, -187500.02, -187500.02, -187500.02, -187500.02, -187500.02, 0.000, 0.000, 0.000, 15:47:35.330
137, 94268.39, 59912.08, -187500.02, -187500.02, -187500.02, -187500.02, -187500.02, -187500.02, 0.000, 0.000, 0.000, 15:47:35.330
138, 93925.40, 59486.39, -187500.02, -187500.02, -187500.02, -187500.02, -187500.02, -187500.02, 0.000, 0.000, 0.000, 15:47:35.330
139, 94512.00, 60512.23, -187500.02, -187500.02, -187500.02, -187500.02, -187500.02, -187500.02, 0.000, 0.000, 0.000, 15:47:35.330
140, 94893.61, 60961.21, -187500.02, -187500.02, -187500.02, -187500.02, -187500.02, -187500.02, -0.002, 0.272, -0.980, 15:47:35.330
141, 94737.59, 60642.54, -187500.02, -187500.02, -187500.02, -187500.02, -187500.02, -187500.02, 0.000, 0.000, 0.000, 15:47:35.330
142, 94267.27, 59912.22, -187500.02, -187500.02, -187500.02, -187500.02, -187500.02, -187500.02, 0.000, 0.000, 0.000, 15:47:35.330
143, 93920.73, 59485.79, -187500.02, -187500.02, -187500.02, -187500.02, -187500.02, -187500.02, 0.000, 0.000, 0.000, 15:47:35.331
144, 94512.02, 60521.30, -187500.02, -187500.02, -187500.02, -187500.02, -187500.02, -187500.02, 0.000, 0.000, 0.000, 15:47:35.331
145, 94894.22, 60972.11, -187500.02, -187500.02, -187500.02, -187500.02, -187500.02, -187500.02, 0.000, 0.000, 0.000, 15:47:35.331
146, 94733.80, 60645.27, -187500.02, -187500.02, -187500.02, -187500.02, -187500.02, -187500.02, 0.000, 0.000, 0.000, 15:47:35.331
147, 94271.59, 59923.57, -187500.02, -187500.02, -187500.02, -187500.02, -187500.02, -187500.02, 0.000, 0.000, 0.000, 15:47:35.331
148, 93911.73, 59476.87, -187500.02, -187500.02, -187500.02, -187500.02, -187500.02, -187500.02, 0.000, 0.000, 0.000, 15:47:35.331
149, 94500.69, 60504.58, -187500.02, -187500.02, -187500.02, -187500.02, -187500.02, -187500.02, 0.000, 0.274, -0.980, 15:47:35.331
150, 94878.44, 60956.87, -187500.02, -187500.02, -187500.02, -187500.02, -187500.02, -187500.02, 0.000, 0.000, 0.000, 15:47:35.331
151, 94718.17, 60628.68, -187500.02, -187500.02, -187500.02, -187500.02, -187500.02, -187500.02, 0.000, 0.000, 0.000, 15:47:35.331
152, 94258.84, 59911.70, -187500.02, -187500.02, -187500.02, -187500.02, -187500.02, -187500.02, 0.000, 0.000, 0.000, 15:47:35.332
153, 93902.34, 59474.59, -187500.02, -187500.02, -187500.02, -187500.02, -187500.02, -187500.02, 0.000, 0.000, 0.000, 15:47:35.332
154, 94487.28, 60493.18, -187500.02, -187500.02, -187500.02, -187500.02, -187500.02, -187500.02, 0.000, 0.000, 0.000, 15:47:35.332
155, 94872.78, 60943.10, -187500.02, -187500.02, -187500.02, -187500.02, -187500.02, -187500.02, 0.000, 0.000, 0.000, 15:47:35.332
156, 94708.20, 60624.95, -187500.02, -187500.02, -187500.02, -187500.02, -187500.02, -187500.02, 0.000, 0.000, 0.000, 15:47:35.332
157, 94250.69, 59909.58, -187500.02, -187500.02, -187500.02, -187500.02, -187500.02, -187500.02, 0.000, 0.000, 0.000, 15:47:35.332
158, 93890.60, 59463.91, -187500.02, -187500.02, -187500.02, -187500.02, -187500.02, -187500.02, 0.000, 0.000, 0.000, 15:47:35.332
159, 94467.16, 60478.57, -187500.02, -187500.02, -187500.02, -187500.02, -187500.02, -187500.02, 0.002, 0.274, -0.984, 15:47:35.332
160, 94850.63, 60931.66, -187500.02, -187500.02, -187500.02, -187500.02, -187500.02, -187500.02, 0.000, 0.000, 0.000, 15:47:35.333
161, 94692.78, 60614.55, -187500.02, -187500.02, -187500.02, -187500.02, -187500.02, -187500.02, 0.000, 0.000, 0.000, 15:47:35.333
162, 94227.11, 59894.47, -187500.02, -187500.02, -187500.02, -187500.02, -187500.02, -187500.02, 0.000, 0.000, 0.000, 15:47:35.333
163, 93871.49, 59459.19, -187500.02, -187500.02, -187500.02, -187500.02, -187500.02, -187500.02, 0.000, 0.000, 0.000, 15:47:35.333
164, 94455.43, 60475.82, -187500.02, -187500.02, -187500.02, -187500.02, -187500.02, -187500.02, 0.000, 0.000, 0.000, 15:47:35.333
165, 94837.91, 60928.91, -187500.02, -187500.02, -187500.02, -187500.02, -187500.02, -187500.02, 0.000, 0.000, 0.000, 15:47:35.333
166, 94680.45, 60612.25, -187500.02, -187500.02, -187500.02, -187500.02, -187500.02, -187500.02, 0.000, 0.000, 0.000, 15:47:35.333
167, 94227.22, 59897.71, -187500.02, -187500.02, -187500.02, -187500.02, -187500.02, -187500.02, 0.000, 0.000, 0.000, 15:47:35.333
168, 93857.85, 59445.94, -187500.02, -187500.02, -187500.02, -187500.02, -187500.02, -187500.02, 0.000, 0.000, 0.000, 15:47:35.334
169, 94448.95, 60477.76, -187500.02, -187500.02, -187500.02, -187500.02, -187500.02, -187500.02, -0.008, 0.276, -0.978, 15:47:35.334
170, 94845.73, 60942.27, -187500.02, -187500.02, -187500.02, -187500.02, -187500.02, -187500.02, 0.000, 0.000, 0.000, 15:47:35.334
171, 94686.28, 60623.29, -187500.02, -187500.02, -187500.02, -187500.02, -187500.02, -187500.02, 0.000, 0.000, 0.000, 15:47:35.334
172, 94225.25, 59903.43, -187500.02, -187500.02, -187500.02, -187500.02, -187500.02, -187500.02, 0.000, 0.000, 0.000, 15:47:35.334
173, 93865.08, 59454.43, -187500.02, -187500.02, -187500.02, -187500.02, -187500.02, -187500.02, 0.000, 0.000, 0.000, 15:47:35.334
174, 94456.10, 60481.54, -187500.02, -187500.02, -187500.02, -187500.02, -187500.02, -187500.02, 0.000, 0.000, 0.000, 15:47:35.334
175, 94845.73, 60948.60, -187500.02, -187500.02, -187500.02, -187500.02, -187500.02, -187500.02, 0.000, 0.000, 0.000, 15:47:35.335
176, 94687.48, 60627.59, -187500.02, -187500.02, -187500.02, -187500.02, -187500.02, -187500.02, 0.000, 0.000, 0.000, 15:47:35.335
177, 94227.82, 59906.38, -187500.02, -187500.02, -187500.02, -187500.02, -187500.02, -187500.02, 0.000, 0.000, 0.000, 15:47:35.335
178, 93860.98, 59452.00, -187500.02, -187500.02, -187500.02, -187500.02, -187500.02, -187500.02, 0.000, 0.000, 0.000, 15:47:35.335
179, 94449.08, 60477.70, -187500.02, -187500.02, -187500.02, -187500.02, -187500.02, -187500.02, -0.006, 0.274, -0.976, 15:47:35.335
180, 94833.82, 60933.85, -187500.02, -187500.02, -187500.02, -187500.02, -187500.02, -187500.02, 0.000, 0.000, 0.000, 15:47:35.335
181, 94668.77, 60613.04, -187500.02, -187500.02, -187500.02, -187500.02, -187500.02, -187500.02, 0.000, 0.000, 0.000, 15:47:35.335
182, 94200.80, 59892.88, -187500.02, -187500.02, -187500.02, -187500.02, -187500.02, -187500.02, 0.000, 0.000, 0.000, 15:47:35.335
183, 93829.96, 59436.30, -187500.02, -187500.02, -187500.02, -187500.02, -187500.02, -187500.02, 0.000, 0.000, 0.000, 15:47:35.336
184, 94418.93, 60455.70, -187500.02, -187500.02, -187500.02, -187500.02, -187500.02, -187500.02, 0.000, 0.000, 0.000, 15:47:35.336
185, 94805.48, 60919.30, -187500.02, -187500.02, -187500.02, -187500.02, -187500.02, -187500.02, 0.000, 0.000, 0.000, 15:47:35.336
186, 94648.10, 60603.91, -187500.02, -187500.02, -187500.02, -187500.02, -187500.02, -187500.02, 0.000, 0.000, 0.000, 15:47:35.336
187, 94189.84, 59886.65, -187500.02, -187500.02, -187500.02, -187500.02, -187500.02, -187500.02, 0.000, 0.000, 0.000, 15:47:35.336
188, 93818.90, 59425.78, -187500.02, -187500.02, -187500.02, -187500.02, -187500.02, -187500.02, 0.000, 0.000, 0.000, 15:47:35.336
189, 94401.38, 60448.46, -187500.02, -187500.02, -187500.02, -187500.02, -187500.02, -187500.02, -0.002, 0.272, -0.978, 15:47:35.337
190, 94792.16, 60917.35, -187500.02, -187500.02, -187500.02, -187500.02, -187500.02, -187500.02, 0.000, 0.000, 0.000, 15:47:35.337
191, 94642.63, 60602.26, -187500.02, -187500.02, -187500.02, -187500.02, -187500.02, -187500.02, 0.000, 0.000, 0.000, 15:47:35.337
192, 94186.36, 59891.27, -187500.02, -187500.02, -187500.02, -187500.02, -187500.02, -187500.02, 0.000, 0.000, 0.000, 15:47:35.337
193, 93820.69, 59435.23, -187500.02, -187500.02, -187500.02, -187500.02, -187500.02, -187500.02, 0.000, 0.000, 0.000, 15:47:35.337
194, 94404.55, 60454.23, -187500.02, -187500.02, -187500.02, -187500.02, -187500.02, -187500.02, 0.000, 0.000, 0.000, 15:47:35.337
195, 94800.65, 60929.42, -187500.02, -187500.02, -187500.02, -187500.02, -187500.02, -187500.02, 0.000, 0.000, 0.000, 15:47:35.337
196, 94641.51, 60611.47, -187500.02, -187500.02, -187500.02, -187500.02, -187500.02, -187500.02, 0.000, 0.000, 0.000, 15:47:35.337
197, 94186.31, 59898.27, -187500.02, -187500.02, -187500.02, -187500.02, -187500.02, -187500.02, 0.000, 0.000, 0.000, 15:47:35.337
198, 93818.23, 59438.83, -187500.02, -187500.02, -187500.02, -187500.02, -187500.02, -187500.02, 0.000, 0.000, 0.000, 15:47:35.338
199, 94400.48, 60455.79, -187500.02, -187500.02, -187500.02, -187500.02, -187500.02, -187500.02, 0.002, 0.274, -0.976, 15:47:35.338
200, 94791.42, 60920.50, -187500.02, -187500.02, -187500.02, -187500.02, -187500.02, -187500.02, 0.000, 0.000, 0.000, 15:47:35.338
201, 94637.35, 60605.66, -187500.02, -187500.02, -187500.02, -187500.02, -187500.02, -187500.02, 0.000, 0.000, 0.000, 15:47:35.338
202, 94181.55, 59895.86, -187500.02, -187500.02, -187500.02, -187500.02, -187500.02, -187500.02, 0.000, 0.000, 0.000, 15:47:35.338
203, 93819.45, 59439.46, -187500.02, -187500.02, -187500.02, -187500.02, -187500.02, -187500.02, 0.000, 0.000, 0.000, 15:47:35.338
204, 94389.45, 60448.08, -187500.02, -187500.02, -187500.02, -187500.02, -187500.02, -187500.02, 0.000, 0.000, 0.000, 15:47:35.338
205, 94774.43, 60913.48, -187500.02, -187500.02, -187500.02, -187500.02, -187500.02, -187500.02, 0.000, 0.000, 0.000, 15:47:35.338
206, 94617.59, 60600.58, -187500.02, -187500.02, -187500.02, -187500.02, -187500.02, -187500.02, 0.000, 0.000, 0.000, 15:47:35.339
207, 94159.27, 59888.57, -187500.02, -187500.02, -187500.02, -187500.02, -187500.02, -187500.02, 0.000, 0.000, 0.000, 15:47:35.339
208, 93778.02, 59414.55, -187500.02, -187500.02, -187500.02, -187500.02, -187500.02, -187500.02, 0.000, 0.000, 0.000, 15:47:35.339
209, 94349.93, 60417.79, -187500.02, -187500.02, -187500.02, -187500.02, -187500.02, -187500.02, 0.002, 0.270, -0.984, 15:47:35.804
210, 94748.28, 60898.15, -187500.02, -187500.02, -187500.02, -187500.02, -187500.02, -187500.02, 0.000, 0.000, 0.000, 15:47:35.804
211, 94605.97, 60598.39, -187500.02, -187500.02, -187500.02, -187500.02, -187500.02, -187500.02, 0.000, 0.000, 0.000, 15:47:35.805
212, 94152.65, 59887.54, -187500.02, -187500.02, -187500.02, -187500.02, -187500.02, -187500.02, 0.000, 0.000, 0.000, 15:47:35.805
213, 93778.84, 59420.57, -187500.02, -187500.02, -187500.02, -187500.02, -187500.02, -187500.02, 0.000, 0.000, 0.000, 15:47:35.805
214, 94339.76, 60420.07, -187500.02, -187500.02, -187500.02, -187500.02, -187500.02, -187500.02, 0.000, 0.000, 0.000, 15:47:35.805
215, 94740.30, 60896.70, -187500.02, -187500.02, -187500.02, -187500.02, -187500.02, -187500.02, 0.000, 0.000, 0.000, 15:47:35.805
216, 94598.99, 60597.07, -187500.02, -187500.02, -187500.02, -187500.02, -187500.02, -187500.02, 0.000, 0.000, 0.000, 15:47:35.805
217, 94145.37, 59887.27, -187500.02, -187500.02, -187500.02, -187500.02, -187500.02, -187500.02, 0.000, 0.000, 0.000, 15:47:35.805
218, 93783.85, 59429.93, -187500.02, -187500.02, -187500.02, -187500.02, -187500.02, -187500.02, 0.000, 0.000, 0.000, 15:47:35.805
219, 94352.48, 60430.87, -187500.02, -187500.02, -187500.02, -187500.02, -187500.02, -187500.02, 0.002, 0.268, -0.982, 15:47:35.805
220, 94764.20, 60921.78, -187500.02, -187500.02, -187500.02, -187500.02, -187500.02, -187500.02, 0.000, 0.000, 0.000, 15:47:35.806
221, 94614.17, 60611.07, -187500.02, -187500.02, -187500.02, -187500.02, -187500.02, -187500.02, 0.000, 0.000, 0.000, 15:47:35.806
222, 94162.35, 59909.78, -187500.02, -187500.02, -187500.02, -187500.02, -187500.02, -187500.02, 0.000, 0.000, 0.000, 15:47:35.806
223, 93782.73, 59432.19, -187500.02, -187500.02, -187500.02, -187500.02, -187500.02, -187500.02, 0.000, 0.000, 0.000, 15:47:35.806
224, 94362.05, 60435.38, -187500.02, -187500.02, -187500.02, -187500.02, -187500.02, -187500.02, 0.000, 0.000, 0.000, 15:47:35.806
225, 94763.84, 60924.10, -187500.02, -187500.02, -187500.02, -187500.02, -187500.02, -187500.02, 0.000, 0.000, 0.000, 15:47:35.806
226, 94607.91, 60610.80, -187500.02, -187500.02, -187500.02, -187500.02, -187500.02, -187500.02, 0.000, 0.000, 0.000, 15:47:35.806
227, 94154.51, 59900.73, -187500.02, -187500.02, -187500.02, -187500.02, -187500.02, -187500.02, 0.000, 0.000, 0.000, 15:47:35.806
228, 93776.09, 59421.44, -187500.02, -187500.02, -187500.02, -187500.02, -187500.02, -187500.02, 0.000, 0.000, 0.000, 15:47:35.807
229, 94345.44, 60427.58, -187500.02, -187500.02, -187500.02, -187500.02, -187500.02, -187500.02, 0.006, 0.268, -0.980, 15:47:35.807
230, 94734.58, 60900.07, -187500.02, -187500.02, -187500.02, -187500.02, -187500.02, -187500.02, 0.000, 0.000, 0.000, 15:47:35.807
231, 94585.63, 60588.20, -187500.02, -187500.02, -187500.02, -187500.02, -187500.02, -187500.02, 0.000, 0.000, 0.000, 15:47:35.807
232, 94140.09, 59889.31, -187500.02, -187500.02, -187500.02, -187500.02, -187500.02, -187500.02, 0.000, 0.000, 0.000, 15:47:35.807
233, 93760.34, 59404.92, -187500.02, -187500.02, -187500.02, -187500.02, -187500.02, -187500.02, 0.000, 0.000, 0.000, 15:47:35.807
234, 94323.46, 60401.52, -187500.02, -187500.02, -187500.02, -187500.02, -187500.02, -187500.02, 0.000, 0.000, 0.000, 15:47:35.807
235, 94740.01, 60903.07, -187500.02, -187500.02, -187500.02, -187500.02, -187500.02, -187500.02, 0.000, 0.000, 0.000, 15:47:35.807
236, 94583.62, 60596.45, -187500.02, -187500.02, -187500.02, -187500.02, -187500.02, -187500.02, 0.000, 0.000, 0.000, 15:47:35.808
237, 94143.55, 59905.94, -187500.02, -187500.02, -187500.02, -187500.02, -187500.02, -187500.02, 0.000, 0.000, 0.000, 15:47:35.808
238, 93760.67, 59419.61, -187500.02, -187500.02, -187500.02, -187500.02, -187500.02, -187500.02, 0.000, 0.000, 0.000, 15:47:35.808
239, 94325.88, 60414.57, -187500.02, -187500.02, -187500.02, -187500.02, -187500.02, -187500.02, 0.004, 0.266, -0.978, 15:47:35.808
240, 94727.41, 60909.35, -187500.02, -187500.02, -187500.02, -187500.02, -187500.02, -187500.02, 0.000, 0.000, 0.000, 15:47:35.808
241, 94573.67, 60599.02, -187500.02, -187500.02, -187500.02, -187500.02, -187500.02, -187500.02, 0.000, 0.000, 0.000, 15:47:35.808
242, 94131.93, 59904.64, -187500.02, -187500.02, -187500.02, -187500.02, -187500.02, -187500.02, 0.000, 0.000, 0.000, 15:47:35.808
243, 93747.44, 59414.02, -187500.02, -187500.02, -187500.02, -187500.02, -187500.02, -187500.02, 0.000, 0.000, 0.000, 15:47:35.808
244, 94309.31, 60406.10, -187500.02, -187500.02, -187500.02, -187500.02, -187500.02, -187500.02, 0.000, 0.000, 0.000, 15:47:35.809
245, 94716.45, 60903.76, -187500.02, -187500.02, -187500.02, -187500.02, -187500.02, -187500.02, 0.000, 0.000, 0.000, 15:47:35.809
246, 94568.69, 60598.89, -187500.02, -187500.02, -187500.02, -187500.02, -187500.02, -187500.02, 0.000, 0.000, 0.000, 15:47:35.809
247, 94119.28, 59897.55, -187500.02, -187500.02, -187500.02, -187500.02, -187500.02, -187500.02, 0.000, 0.000, 0.000, 15:47:35.809
248, 93734.41, 59406.20, -187500.02, -187500.02, -187500.02, -187500.02, -187500.02, -187500.02, 0.000, 0.000, 0.000, 15:47:35.809
249, 94302.56, 60406.70, -187500.02, -187500.02, -187500.02, -187500.02, -187500.02, -187500.02, -0.004, 0.274, -0.972, 15:47:35.809
250, 94708.72, 60898.36, -187500.02, -187500.02, -187500.02, -187500.02, -187500.02, -187500.02, 0.000, 0.000, 0.000, 15:47:35.809
251, 94555.23, 60589.48, -187500.02, -187500.02, -187500.02, -187500.02, -187500.02, -187500.02, 0.000, 0.000, 0.000, 15:47:35.809
252, 94103.05, 59892.04, -187500.02, -187500.02, -187500.02, -187500.02, -187500.02, -187500.02, 0.000, 0.000, 0.000, 15:47:35.810
253, 93716.19, 59400.45, -187500.02, -187500.02, -187500.02, -187500.02, -187500.02, -187500.02, 0.000, 0.000, 0.000, 15:47:35.810
254, 94277.60, 60393.94, -187500.02, -187500.02, -187500.02, -187500.02, -187500.02, -187500.02, 0.000, 0.000, 0.000, 15:47:35.810
255, 94681.18, 60887.67, -187500.02, -187500.02, -187500.02, -187500.02, -187500.02, -187500.02, 0.000, 0.000, 0.000, 15:47:35.810
0, 94531.56, 60574.48, -187500.02, -187500.02, -187500.02, -187500.02, -187500.02, -187500.02, 0.000, 0.000, 0.000, 15:47:35.810
1, 94095.09, 59882.87, -187500.02, -187500.02, -187500.02, -187500.02, -187500.02, -187500.02, 0.000, 0.000, 0.000, 15:47:35.810
2, 93709.69, 59386.86, -187500.02, -187500.02, -187500.02, -187500.02, -187500.02, -187500.02, 0.000, 0.000, 0.000, 15:47:35.810
3, 94270.18, 60381.78, -187500.02, -187500.02, -187500.02, -187500.02, -187500.02, -187500.02, 0.000, 0.276, -0.980, 15:47:35.810
4, 94675.80, 60888.41, -187500.02, -187500.02, -187500.02, -187500.02, -187500.02, -187500.02, 0.000, 0.000, 0.000, 15:47:35.810
5, 94527.11, 60580.07, -187500.02, -187500.02, -187500.02, -187500.02, -187500.02, -187500.02, 0.000, 0.000, 0.000, 15:47:35.811
6, 94092.64, 59891.39, -187500.02, -187500.02, -187500.02, -187500.02, -187500.02, -187500.02, 0.000, 0.000, 0.000, 15:47:35.811
7, 93703.78, 59394.48, -187500.02, -187500.02, -187500.02, -187500.02, -187500.02, -187500.02, 0.000, 0.000, 0.000, 15:47:35.811
8, 94267.38, 60389.70, -187500.02, -187500.02, -187500.02, -187500.02, -187500.02, -187500.02, 0.000, 0.000, 0.000, 15:47:35.811
9, 94681.12, 60896.45, -187500.02, -187500.02, -187500.02, -187500.02, -187500.02, -187500.02, 0.000, 0.000, 0.000, 15:47:35.811
10, 94532.30, 60590.82, -187500.02, -187500.02, -187500.02, -187500.02, -187500.02, -187500.02, 0.000, 0.000, 0.000, 15:47:35.811
11, 94089.95, 59893.02, -187500.02, -187500.02, -187500.02, -187500.02, -187500.02, -187500.02, 0.000, 0.000, 0.000, 15:47:35.811
12, 93699.13, 59392.67, -187500.02, -187500.02, -187500.02, -187500.02, -187500.02, -187500.02, 0.000, 0.000, 0.000, 15:47:35.812
13, 94259.52, 60387.21, -187500.02, -187500.02, -187500.02, -187500.02, -187500.02, -187500.02, -0.004, 0.272, -0.980, 15:47:35.812
14, 94667.01, 60884.94, -187500.02, -187500.02, -187500.02, -187500.02, -187500.02, -187500.02, 0.000, 0.000, 0.000, 15:47:35.812
15, 94523.58, 60585.77, -187500.02, -187500.02, -187500.02, -187500.02, -187500.02, -187500.02, 0.000, 0.000, 0.000, 15:47:35.812
16, 94087.41, 59894.98, -187500.02, -187500.02, -187500.02, -187500.02, -187500.02, -187500.02, 0.000, 0.000, 0.000, 15:47:35.812
17, 93699.70, 59398.02, -187500.02, -187500.02, -187500.02, -187500.02, -187500.02, -187500.02, 0.000, 0.000, 0.000, 15:47:35.812
18, 94252.74, 60381.80, -187500.02, -187500.02, -187500.02, -187500.02, -187500.02, -187500.02, 0.000, 0.000, 0.000, 15:47:35.813
19, 94669.54, 60892.16, -187500.02, -187500.02, -187500.02, -187500.02, -187500.02, -187500.02, 0.000, 0.000, 0.000, 15:47:35.813
20, 94521.84, 60589.83, -187500.02, -187500.02, -187500.02, -187500.02, -187500.02, -187500.02, 0.000, 0.000, 0.000, 15:47:35.813
21, 94075.65, 59890.63, -187500.02, -187500.02, -187500.02, -187500.02, -187500.02, -187500.02, 0.000, 0.000, 0.000, 15:47:35.813
22, 93687.34, 59391.09, -187500.02, -187500.02, -187500.02, -187500.02, -187500.02, -187500.02, -0.010, 0.266, -0.984, 15:47:35.813
23, 94237.27, 60371.57, -187500.02, -187500.02, -187500.02, -187500.02, -187500.02, -187500.02, 0.000, 0.000, 0.000, 15:47:35.813
24, 94654.54, 60880.07, -187500.02, -187500.02, -187500.02, -187500.02, -187500.02, -187500.02, 0.000, 0.000, 0.000, 15:47:35.814
25, 94515.22, 60584.34, -187500.02, -187500.02, -187500.02, -187500.02, -187500.02, -187500.02, 0.000, 0.000, 0.000, 15:47:35.814
26, 94062.64, 59884.97, -187500.02, -187500.02, -187500.02, -187500.02, -187500.02, -187500.02, 0.000, 0.000, 0.000, 15:47:35.814
27, 93667.89, 59374.93, -187500.02, -187500.02, -187500.02, -187500.02, -187500.02, -187500.02, 0.000, 0.000, 0.000, 15:47:35.814
28, 94216.98, 60353.22, -187500.02, -187500.02, -187500.02, -187500.02, -187500.02, -187500.02, 0.000, 0.000, 0.000, 15:47:35.814
29, 94636.43, 60872.63, -187500.02, -187500.02, -187500.02, -187500.02, -187500.02, -187500.02, 0.000, 0.000, 0.000, 15:47:35.815
30, 94492.35, 60564.02, -187500.02, -187500.02, -187500.02, -187500.02, -187500.02, -187500.02, 0.000, 0.000, 0.000, 15:47:35.815
31, 94056.98, 59886.98, -187500.02, -187500.02, -187500.02, -187500.02, -187500.02, -187500.02, 0.000, 0.000, 0.000, 15:47:35.815
32, 93659.75, 59382.39, -187500.02, -187500.02, -187500.02, -187500.02, -187500.02, -187500.02, -0.008, 0.270, -0.978, 15:47:35.815
33, 94208.76, 60358.00, -187500.02, -187500.02, -187500.02, -187500.02, -187500.02, -187500.02, 0.000, 0.000, 0.000, 15:47:35.815
34, 94628.92, 60879.80, -187500.02, -187500.02, -187500.02, -187500.02, -187500.02, -187500.02, 0.000, 0.000, 0.000, 15:47:35.815
35, 94492.31, 60582.77, -187500.02, -187500.02, -187500.02, -187500.02, -187500.02, -187500.02, 0.000, 0.000, 0.000, 15:47:35.816
36, 94053.12, 59891.07, -187500.02, -187500.02, -187500.02, -187500.02, -187500.02, -187500.02, 0.000, 0.000, 0.000, 15:47:35.816
37, 93651.99, 59369.63, -187500.02, -187500.02, -187500.02, -187500.02, -187500.02, -187500.02, 0.000, 0.000, 0.000, 15:47:35.816
38, 94217.09, 60361.04, -187500.02, -187500.02, -187500.02, -187500.02, -187500.02, -187500.02, 0.000, 0.000, 0.000, 15:47:35.816
39, 94642.85, 60889.12, -187500.02, -187500.02, -187500.02, -187500.02, -187500.02, -187500.02, 0.000, 0.000, 0.000, 15:47:35.816
40, 94492.11, 60582.79, -187500.02, -187500.02, -187500.02, -187500.02, -187500.02, -187500.02, 0.000, 0.000, 0.000, 15:47:35.817
41, 94038.08, 59880.68, -187500.02, -187500.02, -187500.02, -187500.02, -187500.02, -187500.02, 0.000, 0.000, 0.000, 15:47:35.817
42, 93638.59, 59368.49, -187500.02, -187500.02, -187500.02, -187500.02, -187500.02, -187500.02, -0.008, 0.268, -0.974, 15:47:35.817
43, 94202.72, 60356.12, -187500.02, -187500.02, -187500.02, -187500.02, -187500.02, -187500.02, 0.000, 0.000, 0.000, 15:47:35.817
44, 94632.73, 60882.08, -187500.02, -187500.02, -187500.02, -187500.02, -187500.02, -187500.02, 0.000, 0.000, 0.000, 15:47:35.818
45, 94495.08, 60581.63, -187500.02, -187500.02, -187500.02, -187500.02, -187500.02, -187500.02, 0.000, 0.000, 0.000, 15:47:35.818
46, 94058.55, 59894.94, -187500.02, -187500.02, -187500.02, -187500.02, -187500.02, -187500.02, 0.000, 0.000, 0.000, 15:47:35.818
47, 93657.25, 59380.89, -187500.02, -187500.02, -187500.02, -187500.02, -187500.02, -187500.02, 0.000, 0.000, 0.000, 15:47:35.818
48, 94199.21, 60356.66, -187500.02, -187500.02, -187500.02, -187500.02, -187500.02, -187500.02, 0.000, 0.000, 0.000, 15:47:35.818
49, 94621.93, 60885.28, -187500.02, -187500.02, -187500.02, -187500.02, -187500.02, -187500.02, 0.000, 0.000, 0.000, 15:47:35.819
50, 94478.09, 60579.55, -187500.02, -187500.02, -187500.02, -187500.02, -187500.02, -187500.02, 0.000, 0.000, 0.000, 15:47:35.819
51, 94036.05, 59888.19, -187500.02, -187500.02, -187500.02, -187500.02, -187500.02, -187500.02, 0.000, 0.000, 0.000, 15:47:35.819
52, 93630.36, 59363.23, -187500.02, -187500.02, -187500.02, -187500.02, -187500.02, -187500.02, -0.008, 0.268, -0.976, 15:47:35.819
53, 94183.97, 60340.45, -187500.02, -187500.02, -187500.02, -187500.02, -187500.02, -187500.02, 0.000, 0.000, 0.000, 15:47:35.819
54, 94614.39, 60870.70, -187500.02, -187500.02, -187500.02, -187500.02, -187500.02, -187500.02, 0.000, 0.000, 0.000, 15:47:35.819
55, 94469.11, 60564.87, -187500.02, -187500.02, -187500.02, -187500.02, -187500.02, -187500.02, 0.000, 0.000, 0.000, 15:47:35.819
56, 94030.92, 59876.66, -187500.02, -187500.02, -187500.02, -187500.02, -187500.02, -187500.02, 0.000, 0.000, 0.000, 15:47:35.819
57, 93634.13, 59361.78, -187500.02, -187500.02, -187500.02, -187500.02, -187500.02, -187500.02, 0.000, 0.000, 0.000, 15:47:35.820
58, 94189.33, 60339.54, -187500.02, -187500.02, -187500.02, -187500.02, -187500.02, -187500.02, 0.000, 0.000, 0.000, 15:47:35.820
59, 94624.30, 60875.67, -187500.02, -187500.02, -187500.02, -187500.02, -187500.02, -187500.02, 0.000, 0.000, 0.000, 15:47:35.820
60, 94473.02, 60571.32, -187500.02, -187500.02, -187500.02, -187500.02, -187500.02, -187500.02, 0.000, 0.000, 0.000, 15:47:35.820
61, 94035.71, 59884.79, -187500.02, -187500.02, -187500.02, -187500.02, -187500.02, -187500.02, 0.000, 0.000, 0.000, 15:47:35.820
62, 93634.98, 59363.06, -187500.02, -187500.02, -187500.02, -187500.02, -187500.02, -187500.02, -0.008, 0.264, -0.978, 15:47:35.820
63, 94178.09, 60327.96, -187500.02, -187500.02, -187500.02, -187500.02, -187500.02, -187500.02, 0.000, 0.000, 0.000, 15:47:35.820
64, 94605.16, 60860.04, -187500.02, -187500.02, -187500.02, -187500.02, -187500.02, -187500.02, 0.000, 0.000, 0.000, 15:47:35.820
65, 94477.13, 60577.76, -187500.02, -187500.02, -187500.02, -187500.02, -187500.02, -187500.02, 0.000, 0.000, 0.000, 15:47:35.820
66, 94049.97, 59904.80, -187500.02, -187500.02, -187500.02, -187500.02, -187500.02, -187500.02, 0.000, 0.000, 0.000, 15:47:35.821
67, 93632.64, 59363.75, -187500.02, -187500.02, -187500.02, -187500.02, -187500.02, -187500.02, 0.000, 0.000, 0.000, 15:47:35.821
68, 94171.18, 60328.25, -187500.02, -187500.02, -187500.02, -187500.02, -187500.02, -187500.02, 0.000, 0.000, 0.000, 15:47:35.821
69, 94604.49, 60869.16, -187500.02, -187500.02, -187500.02, -187500.02, -187500.02, -187500.02, 0.000, 0.000, 0.000, 15:47:35.821
70, 94464.05, 60569.52, -187500.02, -187500.02, -187500.02, -187500.02, -187500.02, -187500.02, 0.000, 0.000, 0.000, 15:47:35.821
71, 94030.03, 59891.00, -187500.02, -187500.02, -187500.02, -187500.02, -187500.02, -187500.02, 0.000, 0.000, 0.000, 15:47:35.821
72, 93622.52, 59358.07, -187500.02, -187500.02, -187500.02, -187500.02, -187500.02, -187500.02, -0.008, 0.270, -0.978, 15:47:35.821
73, 94165.68, 60328.38, -187500.02, -187500.02, -187500.02, -187500.02, -187500.02, -187500.02, 0.000, 0.000, 0.000, 15:47:36.284
74, 94598.15, 60866.23, -187500.02, -187500.02, -187500.02, -187500.02, -187500.02, -187500.02, 0.000, 0.000, 0.000, 15:47:36.284
75, 94458.85, 60566.77, -187500.02, -187500.02, -187500.02, -187500.02, -187500.02, -187500.02, 0.000, 0.000, 0.000, 15:47:36.284
76, 94022.92, 59877.66, -187500.02, -187500.02, -187500.02, -187500.02, -187500.02, -187500.02, 0.000, 0.000, 0.000, 15:47:36.284
77, 93608.41, 59342.80, -187500.02, -187500.02, -187500.02, -187500.02, -187500.02, -187500.02, 0.000, 0.000, 0.000, 15:47:36.284
78, 94142.51, 60311.66, -187500.02, -187500.02, -187500.02, -187500.02, -187500.02, -187500.02, 0.000, 0.000, 0.000, 15:47:36.284
79, 94584.78, 60860.24, -187500.02, -187500.02, -187500.02, -187500.02, -187500.02, -187500.02, 0.000, 0.000, 0.000, 15:47:36.285
80, 94449.93, 60569.63, -187500.02, -187500.02, -187500.02, -187500.02, -187500.02, -187500.02, 0.000, 0.000, 0.000, 15:47:36.285
81, 94019.37, 59888.39, -187500.02, -187500.02, -187500.02, -187500.02, -187500.02, -187500.02, 0.000, 0.000, 0.000, 15:47:36.285
82, 93609.80, 59354.79, -187500.02, -187500.02, -187500.02, -187500.02, -187500.02, -187500.02, -0.002, 0.276, -0.974, 15:47:36.285
83, 94152.16, 60327.60, -187500.02, -187500.02, -187500.02, -187500.02, -187500.02, -187500.02, 0.000, 0.000, 0.000, 15:47:36.285
84, 94591.62, 60874.55, -187500.02, -187500.02, -187500.02, -187500.02, -187500.02, -187500.02, 0.000, 0.000, 0.000, 15:47:36.285
85, 94462.09, 60588.76, -187500.02, -187500.02, -187500.02, -187500.02, -187500.02, -187500.02, 0.000, 0.000, 0.000, 15:47:36.285
86, 94033.67, 59911.64, -187500.02, -187500.02, -187500.02, -187500.02, -187500.02, -187500.02, 0.000, 0.000, 0.000, 15:47:36.285
87, 93623.43, 59373.77, -187500.02, -187500.02, -187500.02, -187500.02, -187500.02, -187500.02, 0.000, 0.000, 0.000, 15:47:36.286
88, 94153.55, 60332.23, -187500.02, -187500.02, -187500.02, -187500.02, -187500.02, -187500.02, 0.000, 0.000, 0.000, 15:47:36.286
89, 94593.95, 60877.52, -187500.02, -187500.02, -187500.02, -187500.02, -187500.02, -187500.02, 0.000, 0.000, 0.000, 15:47:36.286
90, 94455.88, 60584.76, -187500.02, -187500.02, -187500.02, -187500.02, -187500.02, -187500.02, 0.000, 0.000, 0.000, 15:47:36.286
91, 94034.75, 59923.37, -187500.02, -187500.02, -187500.02, -187500.02, -187500.02, -187500.02, 0.000, 0.000, 0.000, 15:47:36.286
92, 93613.95, 59370.05, -187500.02, -187500.02, -187500.02, -187500.02, -187500.02, -187500.02, -0.004, 0.276, -0.980, 15:47:36.286
93, 94143.17, 60322.39, -187500.02, -187500.02, -187500.02, -187500.02, -187500.02, -187500.02, 0.000, 0.000, 0.000, 15:47:36.286
94, 94584.89, 60874.53, -187500.02, -187500.02, -187500.02, -187500.02, -187500.02, -187500.02, 0.000, 0.000, 0.000, 15:47:36.286
95, 94451.16, 60584.09, -187500.02, -187500.02, -187500.02, -187500.02, -187500.02, -187500.02, 0.000, 0.000, 0.000, 15:47:36.287
96, 94012.35, 59902.65, -187500.02, -187500.02, -187500.02, -187500.02, -187500.02, -187500.02, 0.000, 0.000, 0.000, 15:47:36.287
97, 93602.15, 59361.85, -187500.02, -187500.02, -187500.02, -187500.02, -187500.02, -187500.02, 0.000, 0.000, 0.000, 15:47:36.287
98, 94137.07, 60325.01, -187500.02, -187500.02, -187500.02, -187500.02, -187500.02, -187500.02, 0.000, 0.000, 0.000, 15:47:36.287
99, 94571.97, 60871.62, -187500.02, -187500.02, -187500.02, -187500.02, -187500.02, -187500.02, 0.000, 0.000, 0.000, 15:47:36.287
100, 94435.85, 60575.44, -187500.02, -187500.02, -187500.02, -187500.02, -187500.02, -187500.02, 0.000, 0.000, 0.000, 15:47:36.287
101, 94001.73, 59898.11, -187500.02, -187500.02, -187500.02, -187500.02, -187500.02, -187500.02, 0.000, 0.000, 0.000, 15:47:36.287
102, 93588.52, 59350.54, -187500.02, -187500.02, -187500.02, -187500.02, -187500.02, -187500.02, -0.006, 0.274, -0.976, 15:47:36.287
103, 94119.93, 60306.55, -187500.02, -187500.02, -187500.02, -187500.02, -187500.02, -187500.02, 0.000, 0.000, 0.000, 15:47:36.287
104, 94567.57, 60864.78, -187500.02, -187500.02, -187500.02, -187500.02, -187500.02, -187500.02, 0.000, 0.000, 0.000, 15:47:36.288
105, 94434.71, 60580.38, -187500.02, -187500.02, -187500.02, -187500.02, -187500.02, -187500.02, 0.000, 0.000, 0.000, 15:47:36.288
106, 94010.38, 59909.25, -187500.02, -187500.02, -187500.02, -187500.02, -187500.02, -187500.02, 0.000, 0.000, 0.000, 15:47:36.288
107, 93596.56, 59364.31, -187500.02, -187500.02, -187500.02, -187500.02, -187500.02, -187500.02, 0.000, 0.000, 0.000, 15:47:36.288
108, 94133.56, 60326.75, -187500.02, -187500.02, -187500.02, -187500.02, -187500.02, -187500.02, 0.000, 0.000, 0.000, 15:47:36.288
109, 94570.79, 60875.27, -187500.02, -187500.02, -187500.02, -187500.02, -187500.02, -187500.02, 0.000, 0.000, 0.000, 15:47:36.288
110, 94431.24, 60581.32, -187500.02, -187500.02, -187500.02, -187500.02, -187500.02, -187500.02, 0.000, 0.000, 0.000, 15:47:36.288
111, 94013.83, 59919.01, -187500.02, -187500.02, -187500.02, -187500.02, -187500.02, -187500.02, 0.000, 0.000, 0.000, 15:47:36.288
112, 93602.11, 59377.77, -187500.02, -187500.02, -187500.02, -187500.02, -187500.02, -187500.02, -0.008, 0.276, -0.980, 15:47:36.289
113, 94123.55, 60322.30, -187500.02, -187500.02, -187500.02, -187500.02, -187500.02, -187500.02, 0.000, 0.000, 0.000, 15:47:36.289
114, 94564.75, 60880.74, -187500.02, -187500.02, -187500.02, -187500.02, -187500.02, -187500.02, 0.000, 0.000, 0.000, 15:47:36.289
115, 94435.91, 60586.73, -187500.02, -187500.02, -187500.02, -187500.02, -187500.02, -187500.02, 0.000, 0.000, 0.000, 15:47:36.289
116, 93996.66, 59905.29, -187500.02, -187500.02, -187500.02, -187500.02, -187500.02, -187500.02, 0.000, 0.000, 0.000, 15:47:36.289
117, 93582.80, 59361.83, -187500.02, -187500.02, -187500.02, -187500.02, -187500.02, -187500.02, 0.000, 0.000, 0.000, 15:47:36.289
118, 94109.80, 60311.02, -187500.02, -187500.02, -187500.02, -187500.02, -187500.02, -187500.02, 0.000, 0.000, 0.000, 15:47:36.289
119, 94555.48, 60867.22, -187500.02, -187500.02, -187500.02, -187500.02, -187500.02, -187500.02, 0.000, 0.000, 0.000, 15:47:36.289
120, 94424.07, 60580.51, -187500.02, -187500.02, -187500.02, -187500.02, -187500.02, -187500.02, 0.000, 0.000, 0.000, 15:47:36.290
121, 93987.65, 59900.86, -187500.02, -187500.02, -187500.02, -187500.02, -187500.02, -187500.02, 0.000, 0.000, 0.000, 15:47:36.290
122, 93566.50, 59348.53, -187500.02, -187500.02, -187500.02, -187500.02, -187500.02, -187500.02, -0.008, 0.270, -0.982, 15:47:36.290
123, 94093.91, 60293.88, -187500.02, -187500.02, -187500.02, -187500.02, -187500.02, -187500.02, 0.000, 0.000, 0.000, 15:47:36.290
124, 94536.92, 60849.74, -187500.02, -187500.02, -187500.02, -187500.02, -187500.02, -187500.02, 0.000, 0.000, 0.000, 15:47:36.290
125, 94402.23, 60562.83, -187500.02, -187500.02, -187500.02, -187500.02, -187500.02, -187500.02, 0.000, 0.000, 0.000, 15:47:36.290
126, 93971.73, 59887.43, -187500.02, -187500.02, -187500.02, -187500.02, -187500.02, -187500.02, 0.000, 0.000, 0.000, 15:47:36.290
127, 93565.20, 59345.58, -187500.02, -187500.02, -187500.02, -187500.02, -187500.02, -187500.02, 0.000, 0.000, 0.000, 15:47:36.290
128, 94093.45, 60294.01, -187500.02, -187500.02, -187500.02, -187500.02, -187500.02, -187500.02, 0.000, 0.000, 0.000, 15:47:36.290
129, 94537.55, 60852.29, -187500.02, -187500.02, -187500.02, -187500.02, -187500.02, -187500.02, 0.000, 0.000, 0.000, 15:47:36.291
130, 94406.37, 60564.04, -187500.02, -187500.02, -187500.02, -187500.02, -187500.02, -187500.02, 0.000, 0.000, 0.000, 15:47:36.291
131, 93988.32, 59896.64, -187500.02, -187500.02, -187500.02, -187500.02, -187500.02, -187500.02, 0.000, 0.000, 0.000, 15:47:36.291
132, 93575.30, 59345.67, -187500.02, -187500.02, -187500.02, -187500.02, -187500.02, -187500.02, -0.006, 0.274, -0.980, 15:47:36.291
133, 94107.62, 60301.14, -187500.02, -187500.02, -187500.02, -187500.02, -187500.02, -187500.02, 0.000, 0.000, 0.000, 15:47:36.291
134, 94554.09, 60866.32, -187500.02, -187500.02, -187500.02, -187500.02, -187500.02, -187500.02, 0.000, 0.000, 0.000, 15:47:36.291
135, 94418.88, 60573.07, -187500.02, -187500.02, -187500.02, -187500.02, -187500.02, -187500.02, 0.000, 0.000, 0.000, 15:47:36.291
136, 94001.40, 59907.01, -187500.02, -187500.02, -187500.02, -187500.02, -187500.02, -187500.02, 0.000, 0.000, 0.000, 15:47:36.291
137, 93586.48, 59363.04, -187500.02, -187500.02, -187500.02, -187500.02, -187500.02, -187500.02, 0.000, 0.000, 0.000, 15:47:36.292
138, 94112.48, 60308.40, -187500.02, -187500.02, -187500.02, -187500.02, -187500.02, -187500.02, 0.000, 0.000, 0.000, 15:47:36.292
139, 94551.70, 60853.83, -187500.02, -187500.02, -187500.02, -187500.02, -187500.02, -187500.02, 0.000, 0.000, 0.000, 15:47:36.292
140, 94418.62, 60564.60, -187500.02, -187500.02, -187500.02, -187500.02, -187500.02, -187500.02, 0.000, 0.000, 0.000, 15:47:36.292
141, 93992.13, 59896.26, -187500.02, -187500.02, -187500.02, -187500.02, -187500.02, -187500.02, 0.000, 0.000, 0.000, 15:47:36.292
142, 93582.91, 59359.53, -187500.02, -187500.02, -187500.02, -187500.02, -187500.02, -187500.02, -0.002, 0.274, -0.982, 15:47:36.292
143, 94103.66, 60303.75, -187500.02, -187500.02, -187500.02, -187500.02, -187500.02, -187500.02, 0.000, 0.000, 0.000, 15:47:36.292
144, 94546.60, 60850.59, -187500.02, -187500.02, -187500.02, -187500.02, -187500.02, -187500.02, 0.000, 0.000, 0.000, 15:47:36.292
145, 94411.62, 60553.67, -187500.02, -187500.02, -187500.02, -187500.02, -187500.02, -187500.02, 0.000, 0.000, 0.000, 15:47:36.293
146, 93985.22, 59885.20, -187500.02, -187500.02, -187500.02, -187500.02, -187500.02, -187500.02, 0.000, 0.000, 0.000, 15:47:36.293
147, 93571.53, 59353.65, -187500.02, -187500.02, -187500.02, -187500.02, -187500.02, -187500.02, 0.000, 0.000, 0.000, 15:47:36.293
