%OpenBCI Raw EEG Data
%
%Sample Rate = 250.0 Hz
%First Column = SampleIndex
%Last Column = Timestamp 
%Other Columns = EEG data in microvolts followed by Accel Data (in G) interleaved with Aux Data
0, 50464.02, 45048.66, 187500.00, -187500.02, -150422.92, -187500.02, -187500.02, -187500.02, 0.002, -0.014, 1.022, 17:38:04.028
1, 50333.09, 44935.01, 187500.00, -187500.02, -150247.19, -187500.02, -187500.02, -187500.02, 0.000, 0.000, 0.000, 17:38:04.029
2, 50243.12, 44849.18, 187500.00, -187500.02, -150079.31, -187500.02, -187500.02, -187500.02, 0.000, 0.000, 0.000, 17:38:04.029
3, 50445.63, 45015.03, 187500.00, -187500.02, -150246.55, -187500.02, -187500.02, -187500.02, 0.000, 0.000, 0.000, 17:38:04.029
4, 50576.25, 45140.31, 187500.00, -187500.02, -150487.08, -187500.02, -187500.02, -187500.02, 0.000, 0.000, 0.000, 17:38:04.029
5, 50467.24, 45055.04, 187500.00, -187500.02, -150499.81, -187500.02, -187500.02, -187500.02, 0.000, 0.000, 0.000, 17:38:04.029
6, 50325.00, 44931.12, 187500.00, -187500.02, -150305.39, -187500.02, -187500.02, -187500.02, 0.000, 0.000, 0.000, 17:38:04.029
7, 50225.73, 44834.94, 187500.00, -187500.02, -150041.75, -187500.02, -187500.02, -187500.02, 0.000, -0.016, 1.044, 17:38:04.029
8, 50428.06, 45003.29, 187500.00, -187500.02, -150202.13, -187500.02, -187500.02, -187500.02, 0.000, 0.000, 0.000, 17:38:04.030
9, 50568.32, 45139.32, 187500.00, -187500.02, -150449.63, -187500.02, -187500.02, -187500.02, 0.000, 0.000, 0.000, 17:38:04.030
10, 50469.19, 45062.93, 187500.00, -187500.02, -150443.31, -187500.02, -187500.02, -187500.02, 0.000, 0.000, 0.000, 17:38:04.030
11, 50332.21, 44938.98, 187500.00, -187500.02, -150257.58, -187500.02, -187500.02, -187500.02, 0.000, 0.000, 0.000, 17:38:04.030
12, 50236.62, 44847.79, 187500.00, -187500.02, -150028.53, -187500.02, -187500.02, -187500.02, 0.000, 0.000, 0.000, 17:38:04.030
13, 50441.22, 45015.36, 187500.00, -187500.02, -150186.58, -187500.02, -187500.02, -187500.02, 0.000, 0.000, 0.000, 17:38:04.030
14, 50581.06, 45147.88, 187500.00, -187500.02, -150438.77, -187500.02, -187500.02, -187500.02, 0.000, 0.000, 0.000, 17:38:04.030
15, 50483.85, 45071.57, 187500.00, -187500.02, -150468.73, -187500.02, -187500.02, -187500.02, 0.000, 0.000, 0.000, 17:38:04.030
16, 50341.00, 44941.18, 187500.00, -187500.02, -150321.83, -187500.02, -187500.02, -187500.02, 0.000, 0.000, 0.000, 17:38:04.030
17, 50236.44, 44841.09, 187500.00, -187500.02, -150104.70, -187500.02, -187500.02, -187500.02, 0.006, -0.014, 1.034, 17:38:04.031
18, 50435.79, 45011.45, 187500.00, -187500.02, -150256.67, -187500.02, -187500.02, -187500.02, 0.000, 0.000, 0.000, 17:38:04.031
19, 50571.56, 45142.05, 187500.00, -187500.02, -150488.95, -187500.02, -187500.02, -187500.02, 0.000, 0.000, 0.000, 17:38:04.031
20, 50469.23, 45057.09, 187500.00, -187500.02, -150521.67, -187500.02, -187500.02, -187500.02, 0.000, 0.000, 0.000, 17:38:04.031
21, 50328.71, 44931.61, 187500.00, -187500.02, -150333.52, -187500.02, -187500.02, -187500.02, 0.000, 0.000, 0.000, 17:38:04.031
22, 50225.13, 44833.46, 187500.00, -187500.02, -150093.23, -187500.02, -187500.02, -187500.02, 0.000, 0.000, 0.000, 17:38:04.031
23, 50427.10, 45000.30, 187500.00, -187500.02, -150228.45, -187500.02, -187500.02, -187500.02, 0.000, 0.000, 0.000, 17:38:04.032
24, 50579.85, 45142.81, 187500.00, -187500.02, -150477.33, -187500.02, -187500.02, -187500.02, 0.000, 0.000, 0.000, 17:38:04.032
25, 50480.39, 45066.26, 187500.00, -187500.02, -150512.08, -187500.02, -187500.02, -187500.02, 0.000, 0.000, 0.000, 17:38:04.032
26, 50342.50, 44945.13, 187500.00, -187500.02, -150330.83, -187500.02, -187500.02, -187500.02, 0.000, 0.000, 0.000, 17:38:04.032
27, 50230.63, 44839.12, 187500.00, -187500.02, -150078.06, -187500.02, -187500.02, -187500.02, 0.006, -0.016, 1.030, 17:38:04.032
28, 50438.63, 45013.15, 187500.00, -187500.02, -150220.39, -187500.02, -187500.02, -187500.02, 0.000, 0.000, 0.000, 17:38:04.032
29, 50584.81, 45148.09, 187500.00, -187500.02, -150477.81, -187500.02, -187500.02, -187500.02, 0.000, 0.000, 0.000, 17:38:04.032
30, 50488.25, 45072.43, 187500.00, -187500.02, -150525.72, -187500.02, -187500.02, -187500.02, 0.000, 0.000, 0.000, 17:38:04.033
31, 50348.51, 44949.98, 187500.00, -187500.02, -150371.94, -187500.02, -187500.02, -187500.02, 0.000, 0.000, 0.000, 17:38:04.033
32, 50245.65, 44848.48, 187500.00, -187500.02, -150141.72, -187500.02, -187500.02, -187500.02, 0.000, 0.000, 0.000, 17:38:04.033
33, 50439.46, 45004.72, 187500.00, -187500.02, -150289.08, -187500.02, -187500.02, -187500.02, 0.000, 0.000, 0.000, 17:38:04.033
34, 50582.73, 45144.33, 187500.00, -187500.02, -150540.09, -187500.02, -187500.02, -187500.02, 0.000, 0.000, 0.000, 17:38:04.033
35, 50486.91, 45072.98, 187500.00, -187500.02, -150580.77, -187500.02, -187500.02, -187500.02, 0.000, 0.000, 0.000, 17:38:04.033
36, 50342.45, 44945.64, 187500.00, -187500.02, -150369.95, -187500.02, -187500.02, -187500.02, 0.014, -0.018, 1.034, 17:38:04.034
37, 50231.45, 44842.29, 187500.00, -187500.02, -150120.95, -187500.02, -187500.02, -187500.02, 0.000, 0.000, 0.000, 17:38:04.034
38, 50421.22, 45001.97, 187500.00, -187500.02, -150232.80, -187500.02, -187500.02, -187500.02, 0.000, 0.000, 0.000, 17:38:04.034
39, 50577.14, 45152.15, 187500.00, -187500.02, -150473.50, -187500.02, -187500.02, -187500.02, 0.000, 0.000, 0.000, 17:38:04.034
40, 50477.64, 45075.93, 187500.00, -187500.02, -150492.14, -187500.02, -187500.02, -187500.02, 0.000, 0.000, 0.000, 17:38:04.034
41, 50332.73, 44943.72, 187500.00, -187500.02, -150317.84, -187500.02, -187500.02, -187500.02, 0.000, 0.000, 0.000, 17:38:04.034
42, 50227.03, 44844.26, 187500.00, -187500.02, -150039.52, -187500.02, -187500.02, -187500.02, 0.000, 0.000, 0.000, 17:38:04.035
43, 50423.70, 45008.61, 187500.00, -187500.02, -150184.86, -187500.02, -187500.02, -187500.02, 0.000, 0.000, 0.000, 17:38:04.035
44, 50576.65, 45151.15, 187500.00, -187500.02, -150447.16, -187500.02, -187500.02, -187500.02, 0.000, 0.000, 0.000, 17:38:04.035
45, 50481.03, 45077.88, 187500.00, -187500.02, -150497.06, -187500.02, -187500.02, -187500.02, 0.000, 0.000, 0.000, 17:38:04.035
46, 50342.43, 44953.74, 187500.00, -187500.02, -150334.66, -187500.02, -187500.02, -187500.02, 0.010, -0.014, 1.030, 17:38:04.035
47, 50240.93, 44860.38, 187500.00, -187500.02, -150109.38, -187500.02, -187500.02, -187500.02, 0.000, 0.000, 0.000, 17:38:04.035
48, 50435.88, 45020.95, 187500.00, -187500.02, -150305.75, -187500.02, -187500.02, -187500.02, 0.000, 0.000, 0.000, 17:38:04.036
49, 50577.37, 45152.98, 187500.00, -187500.02, -150562.33, -187500.02, -187500.02, -187500.02, 0.000, 0.000, 0.000, 17:38:04.036
50, 50472.25, 45071.69, 187500.00, -187500.02, -150581.11, -187500.02, -187500.02, -187500.02, 0.000, 0.000, 0.000, 17:38:04.036
51, 50332.77, 44947.43, 187500.00, -187500.02, -150377.77, -187500.02, -187500.02, -187500.02, 0.000, 0.000, 0.000, 17:38:04.036
52, 50222.69, 44842.25, 187500.00, -187500.02, -150103.31, -187500.02, -187500.02, -187500.02, 0.000, 0.000, 0.000, 17:38:04.036
53, 50408.61, 44997.77, 187500.00, -187500.02, -150204.02, -187500.02, -187500.02, -187500.02, 0.000, 0.000, 0.000, 17:38:04.036
54, 50557.83, 45139.59, 187500.00, -187500.02, -150424.55, -187500.02, -187500.02, -187500.02, 0.000, 0.000, 0.000, 17:38:04.037
55, 50471.69, 45072.61, 187500.00, -187500.02, -150470.27, -187500.02, -187500.02, -187500.02, 0.000, 0.000, 0.000, 17:38:04.037
56, 50335.34, 44949.49, 187500.00, -187500.02, -150311.77, -187500.02, -187500.02, -187500.02, 0.012, -0.010, 1.028, 17:38:04.037
57, 50222.42, 44844.41, 187500.00, -187500.02, -150053.00, -187500.02, -187500.02, -187500.02, 0.000, 0.000, 0.000, 17:38:04.037
58, 50427.90, 45016.32, 187500.00, -187500.02, -150208.67, -187500.02, -187500.02, -187500.02, 0.000, 0.000, 0.000, 17:38:04.037
59, 50578.57, 45158.48, 187500.00, -187500.02, -150485.30, -187500.02, -187500.02, -187500.02, 0.000, 0.000, 0.000, 17:38:04.037
60, 50483.22, 45082.98, 187500.00, -187500.02, -150545.44, -187500.02, -187500.02, -187500.02, 0.000, 0.000, 0.000, 17:38:04.038
61, 50342.88, 44955.57, 187500.00, -187500.02, -150368.45, -187500.02, -187500.02, -187500.02, 0.000, 0.000, 0.000, 17:38:04.038
62, 50232.10, 44852.53, 187500.00, -187500.02, -150113.97, -187500.02, -187500.02, -187500.02, 0.000, 0.000, 0.000, 17:38:04.038
63, 50419.66, 45009.62, 187500.00, -187500.02, -150279.53, -187500.02, -187500.02, -187500.02, 0.000, 0.000, 0.000, 17:38:04.038
64, 50568.74, 45149.81, 187500.00, -187500.02, -150545.86, -187500.02, -187500.02, -187500.02, 0.000, 0.000, 0.000, 17:38:04.039
65, 50479.04, 45077.39, 187500.00, -187500.02, -150595.08, -187500.02, -187500.02, -187500.02, 0.000, 0.000, 0.000, 17:38:04.039
66, 50343.26, 44954.88, 187500.00, -187500.02, -150434.59, -187500.02, -187500.02, -187500.02, 0.006, -0.006, 1.026, 17:38:04.039
67, 50218.76, 44838.40, 187500.00, -187500.02, -150140.84, -187500.02, -187500.02, -187500.02, 0.000, 0.000, 0.000, 17:38:04.039
68, 50397.77, 44984.23, 187500.00, -187500.02, -150259.50, -187500.02, -187500.02, -187500.02, 0.000, 0.000, 0.000, 17:38:04.040
69, 50553.70, 45131.93, 187500.00, -187500.02, -150501.98, -187500.02, -187500.02, -187500.02, 0.000, 0.000, 0.000, 17:38:04.040
70, 50462.95, 45067.87, 187500.00, -187500.02, -150530.13, -187500.02, -187500.02, -187500.02, 0.000, 0.000, 0.000, 17:38:04.040
71, 50328.75, 44946.65, 187500.00, -187500.02, -150353.09, -187500.02, -187500.02, -187500.02, 0.000, 0.000, 0.000, 17:38:04.040
72, 50215.85, 44836.46, 187500.00, -187500.02, -150106.20, -187500.02, -187500.02, -187500.02, 0.000, 0.000, 0.000, 17:38:04.040
73, 50399.63, 44985.61, 187500.00, -187500.02, -150240.89, -187500.02, -187500.02, -187500.02, 0.000, 0.000, 0.000, 17:38:04.040
74, 50562.04, 45137.76, 187500.00, -187500.02, -150503.09, -187500.02, -187500.02, -187500.02, 0.000, 0.000, 0.000, 17:38:04.041
75, 50470.66, 45067.13, 187500.00, -187500.02, -150549.95, -187500.02, -187500.02, -187500.02, 0.000, 0.000, 0.000, 17:38:04.041
76, 50331.61, 44947.41, 187500.00, -187500.02, -150401.47, -187500.02, -187500.02, -187500.02, 0.006, -0.010, 1.032, 17:38:04.041
77, 50220.41, 44846.96, 187500.00, -187500.02, -150155.30, -187500.02, -187500.02, -187500.02, 0.000, 0.000, 0.000, 17:38:04.041
78, 50404.25, 44995.65, 187500.00, -187500.02, -150287.45, -187500.02, -187500.02, -187500.02, 0.000, 0.000, 0.000, 17:38:04.041
79, 50560.94, 45139.26, 187500.00, -187500.02, -150577.33, -187500.02, -187500.02, -187500.02, 0.000, 0.000, 0.000, 17:38:04.041
80, 50467.96, 45067.22, 187500.00, -187500.02, -150642.27, -187500.02, -187500.02, -187500.02, 0.000, 0.000, 0.000, 17:38:04.042
81, 50325.00, 44938.98, 187500.00, -187500.02, -150444.02, -187500.02, -187500.02, -187500.02, 0.000, 0.000, 0.000, 17:38:04.042
82, 50203.25, 44824.23, 187500.00, -187500.02, -150158.33, -187500.02, -187500.02, -187500.02, 0.000, 0.000, 0.000, 17:38:04.042
83, 50380.67, 44969.32, 187500.00, -187500.02, -150262.13, -187500.02, -187500.02, -187500.02, 0.000, 0.000, 0.000, 17:38:04.042
84, 50538.52, 45115.68, 187500.00, -187500.02, -150461.02, -187500.02, -187500.02, -187500.02, 0.000, 0.000, 0.000, 17:38:04.042
85, 50453.43, 45051.19, 187500.00, -187500.02, -150485.91, -187500.02, -187500.02, -187500.02, 0.000, 0.000, 0.000, 17:38:04.042
86, 50320.84, 44934.94, 187500.00, -187500.02, -150323.81, -187500.02, -187500.02, -187500.02, 0.012, -0.008, 1.032, 17:38:04.043
87, 50208.79, 44827.94, 187500.00, -187500.02, -150079.53, -187500.02, -187500.02, -187500.02, 0.000, 0.000, 0.000, 17:38:04.043
88, 50385.39, 44970.52, 187500.00, -187500.02, -150199.45, -187500.02, -187500.02, -187500.02, 0.000, 0.000, 0.000, 17:38:04.043
89, 50550.12, 45126.00, 187500.00, -187500.02, -150460.77, -187500.02, -187500.02, -187500.02, 0.000, 0.000, 0.000, 17:38:04.043
90, 50463.96, 45059.37, 187500.00, -187500.02, -150513.56, -187500.02, -187500.02, -187500.02, 0.000, 0.000, 0.000, 17:38:04.043
91, 50330.94, 44941.38, 187500.00, -187500.02, -150392.80, -187500.02, -187500.02, -187500.02, 0.000, 0.000, 0.000, 17:38:04.044
92, 50211.72, 44830.29, 187500.00, -187500.02, -150187.25, -187500.02, -187500.02, -187500.02, 0.000, 0.000, 0.000, 17:38:04.044
93, 50391.02, 44973.63, 187500.00, -187500.02, -150317.98, -187500.02, -187500.02, -187500.02, 0.000, 0.000, 0.000, 17:38:04.044
94, 50554.57, 45123.19, 187500.00, -187500.02, -150575.97, -187500.02, -187500.02, -187500.02, 0.000, 0.000, 0.000, 17:38:04.044
95, 50461.97, 45051.44, 187500.00, -187500.02, -150612.11, -187500.02, -187500.02, -187500.02, 0.000, 0.000, 0.000, 17:38:04.044
96, 50332.73, 44938.92, 187500.00, -187500.02, -150431.66, -187500.02, -187500.02, -187500.02, 0.012, -0.016, 1.024, 17:38:04.044
97, 50213.26, 44826.69, 187500.00, -187500.02, -150179.59, -187500.02, -187500.02, -187500.02, 0.000, 0.000, 0.000, 17:38:04.044
98, 50384.59, 44963.04, 187500.00, -187500.02, -150305.95, -187500.02, -187500.02, -187500.02, 0.000, 0.000, 0.000, 17:38:04.045
99, 50542.14, 45110.29, 187500.00, -187500.02, -150518.78, -187500.02, -187500.02, -187500.02, 0.000, 0.000, 0.000, 17:38:04.045
100, 50462.05, 45052.38, 187500.00, -187500.02, -150552.78, -187500.02, -187500.02, -187500.02, 0.000, 0.000, 0.000, 17:38:04.045
101, 50332.06, 44938.16, 187500.00, -187500.02, -150380.88, -187500.02, -187500.02, -187500.02, 0.000, 0.000, 0.000, 17:38:04.045
102, 50216.39, 44834.69, 187500.00, -187500.02, -150129.88, -187500.02, -187500.02, -187500.02, 0.000, 0.000, 0.000, 17:38:04.045
103, 50387.85, 44977.81, 187500.00, -187500.02, -150274.03, -187500.02, -187500.02, -187500.02, 0.000, 0.000, 0.000, 17:38:04.045
104, 50557.39, 45129.49, 187500.00, -187500.02, -150534.34, -187500.02, -187500.02, -187500.02, 0.000, 0.000, 0.000, 17:38:04.046
105, 50472.61, 45065.30, 187500.00, -187500.02, -150566.06, -187500.02, -187500.02, -187500.02, 0.000, 0.000, 0.000, 17:38:04.046
106, 50340.84, 44951.17, 187500.00, -187500.02, -150419.03, -187500.02, -187500.02, -187500.02, 0.008, -0.018, 1.018, 17:38:04.046
107, 50224.05, 44843.88, 187500.00, -187500.02, -150186.50, -187500.02, -187500.02, -187500.02, 0.000, 0.000, 0.000, 17:38:04.046
108, 50394.15, 44984.32, 187500.00, -187500.02, -150332.44, -187500.02, -187500.02, -187500.02, 0.000, 0.000, 0.000, 17:38:04.046
109, 50554.73, 45132.86, 187500.00, -187500.02, -150595.14, -187500.02, -187500.02, -187500.02, 0.000, 0.000, 0.000, 17:38:04.046
110, 50467.02, 45064.67, 187500.00, -187500.02, -150633.41, -187500.02, -187500.02, -187500.02, 0.000, 0.000, 0.000, 17:38:04.047
111, 50328.86, 44939.88, 187500.00, -187500.02, -150448.73, -187500.02, -187500.02, -187500.02, 0.000, 0.000, 0.000, 17:38:04.047
112, 50211.58, 44829.20, 187500.00, -187500.02, -150183.27, -187500.02, -187500.02, -187500.02, 0.000, 0.000, 0.000, 17:38:04.047
113, 50381.50, 44968.76, 187500.00, -187500.02, -150280.67, -187500.02, -187500.02, -187500.02, 0.000, 0.000, 0.000, 17:38:04.047
114, 50554.01, 45129.15, 187500.00, -187500.02, -150547.69, -187500.02, -187500.02, -187500.02, 0.000, 0.000, 0.000, 17:38:04.047
115, 50467.42, 45061.65, 187500.00, -187500.02, -150587.20, -187500.02, -187500.02, -187500.02, 0.000, 0.000, 0.000, 17:38:04.047
116, 50326.98, 44937.82, 187500.00, -187500.02, -150416.53, -187500.02, -187500.02, -187500.02, 0.006, -0.010, 1.018, 17:38:04.048
117, 50204.30, 44823.70, 187500.00, -187500.02, -150123.41, -187500.02, -187500.02, -187500.02, 0.000, 0.000, 0.000, 17:38:04.048
118, 50374.37, 44961.07, 187500.00, -187500.02, -150229.69, -187500.02, -187500.02, -187500.02, 0.000, 0.000, 0.000, 17:38:04.048
119, 50549.61, 45120.53, 187500.00, -187500.02, -150522.83, -187500.02, -187500.02, -187500.02, 0.000, 0.000, 0.000, 17:38:04.048
120, 50476.47, 45069.68, 187500.00, -187500.02, -150622.28, -187500.02, -187500.02, -187500.02, 0.000, 0.000, 0.000, 17:38:04.510
121, 50340.42, 44953.07, 187500.00, -187500.02, -150520.06, -187500.02, -187500.02, -187500.02, 0.000, 0.000, 0.000, 17:38:04.510
122, 50210.75, 44831.74, 187500.00, -187500.02, -150255.42, -187500.02, -187500.02, -187500.02, 0.000, 0.000, 0.000, 17:38:04.510
123, 50372.71, 44960.60, 187500.00, -187500.02, -150343.45, -187500.02, -187500.02, -187500.02, 0.000, 0.000, 0.000, 17:38:04.510
124, 50548.31, 45122.83, 187500.00, -187500.02, -150614.14, -187500.02, -187500.02, -187500.02, 0.000, 0.000, 0.000, 17:38:04.511
125, 50467.87, 45063.44, 187500.00, -187500.02, -150682.61, -187500.02, -187500.02, -187500.02, 0.000, 0.000, 0.000, 17:38:04.511
126, 50328.04, 44935.54, 187500.00, -187500.02, -150518.92, -187500.02, -187500.02, -187500.02, 0.006, -0.006, 1.018, 17:38:04.511
127, 50209.19, 44826.87, 187500.00, -187500.02, -150244.48, -187500.02, -187500.02, -187500.02, 0.000, 0.000, 0.000, 17:38:04.511
128, 50368.96, 44955.13, 187500.00, -187500.02, -150318.77, -187500.02, -187500.02, -187500.02, 0.000, 0.000, 0.000, 17:38:04.511
129, 50541.50, 45114.27, 187500.00, -187500.02, -150556.77, -187500.02, -187500.02, -187500.02, 0.000, 0.000, 0.000, 17:38:04.512
130, 50463.78, 45056.93, 187500.00, -187500.02, -150609.63, -187500.02, -187500.02, -187500.02, 0.000, 0.000, 0.000, 17:38:04.512
131, 50330.89, 44938.85, 187500.00, -187500.02, -150448.52, -187500.02, -187500.02, -187500.02, 0.000, 0.000, 0.000, 17:38:04.512
132, 50205.88, 44827.34, 187500.00, -187500.02, -150181.59, -187500.02, -187500.02, -187500.02, 0.000, 0.000, 0.000, 17:38:04.512
133, 50368.07, 44958.75, 187500.00, -187500.02, -150308.34, -187500.02, -187500.02, -187500.02, 0.000, 0.000, 0.000, 17:38:04.512
134, 50550.10, 45122.61, 187500.00, -187500.02, -150610.39, -187500.02, -187500.02, -187500.02, 0.000, 0.000, 0.000, 17:38:04.512
135, 50470.13, 45061.70, 187500.00, -187500.02, -150669.55, -187500.02, -187500.02, -187500.02, 0.000, 0.000, 0.000, 17:38:04.513
136, 50333.36, 44943.81, 187500.00, -187500.02, -150499.08, -187500.02, -187500.02, -187500.02, 0.010, -0.004, 1.020, 17:38:04.513
137, 50210.11, 44831.00, 187500.00, -187500.02, -150256.63, -187500.02, -187500.02, -187500.02, 0.000, 0.000, 0.000, 17:38:04.513
138, 50369.70, 44960.67, 187500.00, -187500.02, -150361.61, -187500.02, -187500.02, -187500.02, 0.000, 0.000, 0.000, 17:38:04.513
139, 50543.13, 45118.74, 187500.00, -187500.02, -150642.30, -187500.02, -187500.02, -187500.02, 0.000, 0.000, 0.000, 17:38:04.513
140, 50458.32, 45051.57, 187500.00, -187500.02, -150684.44, -187500.02, -187500.02, -187500.02, 0.000, 0.000, 0.000, 17:38:04.513
141, 50321.24, 44929.55, 187500.00, -187500.02, -150524.11, -187500.02, -187500.02, -187500.02, 0.000, 0.000, 0.000, 17:38:04.514
142, 50189.25, 44811.16, 187500.00, -187500.02, -150203.61, -187500.02, -187500.02, -187500.02, 0.000, 0.000, 0.000, 17:38:04.514
143, 50351.64, 44942.20, 187500.00, -187500.02, -150275.06, -187500.02, -187500.02, -187500.02, 0.000, 0.000, 0.000, 17:38:04.514
144, 50531.13, 45108.14, 187500.00, -187500.02, -150566.83, -187500.02, -187500.02, -187500.02, 0.000, 0.000, 0.000, 17:38:04.514
145, 50459.46, 45057.74, 187500.00, -187500.02, -150639.22, -187500.02, -187500.02, -187500.02, 0.000, 0.000, 0.000, 17:38:04.514
146, 50320.35, 44935.16, 187500.00, -187500.02, -150470.33, -187500.02, -187500.02, -187500.02, 0.004, -0.014, 1.020, 17:38:04.514
147, 50191.78, 44815.20, 187500.00, -187500.02, -150208.03, -187500.02, -187500.02, -187500.02, 0.000, 0.000, 0.000, 17:38:04.515
148, 50349.16, 44936.44, 187500.00, -187500.02, -150292.86, -187500.02, -187500.02, -187500.02, 0.000, 0.000, 0.000, 17:38:04.515
149, 50537.09, 45111.09, 187500.00, -187500.02, -150567.45, -187500.02, -187500.02, -187500.02, 0.000, 0.000, 0.000, 17:38:04.515
150, 50462.77, 45057.96, 187500.00, -187500.02, -150639.63, -187500.02, -187500.02, -187500.02, 0.000, 0.000, 0.000, 17:38:04.515
151, 50328.86, 44937.98, 187500.00, -187500.02, -150502.31, -187500.02, -187500.02, -187500.02, 0.000, 0.000, 0.000, 17:38:04.515
152, 50204.34, 44827.29, 187500.00, -187500.02, -150227.13, -187500.02, -187500.02, -187500.02, 0.000, 0.000, 0.000, 17:38:04.515
153, 50352.02, 44946.56, 187500.00, -187500.02, -150301.19, -187500.02, -187500.02, -187500.02, 0.000, 0.000, 0.000, 17:38:04.516
154, 50532.46, 45110.51, 187500.00, -187500.02, -150579.78, -187500.02, -187500.02, -187500.02, 0.000, 0.000, 0.000, 17:38:04.516
155, 50465.54, 45064.07, 187500.00, -187500.02, -150636.61, -187500.02, -187500.02, -187500.02, 0.006, -0.008, 1.026, 17:38:04.516
156, 50333.89, 44946.52, 187500.00, -187500.02, -150485.73, -187500.02, -187500.02, -187500.02, 0.000, 0.000, 0.000, 17:38:04.516
157, 50205.91, 44827.92, 187500.00, -187500.02, -150219.25, -187500.02, -187500.02, -187500.02, 0.000, 0.000, 0.000, 17:38:04.516
158, 50351.68, 44941.38, 187500.00, -187500.02, -150286.38, -187500.02, -187500.02, -187500.02, 0.000, 0.000, 0.000, 17:38:04.516
159, 50531.39, 45106.24, 187500.00, -187500.02, -150546.39, -187500.02, -187500.02, -187500.02, 0.000, 0.000, 0.000, 17:38:04.517
160, 50457.59, 45052.69, 187500.00, -187500.02, -150593.23, -187500.02, -187500.02, -187500.02, 0.000, 0.000, 0.000, 17:38:04.517
161, 50326.67, 44935.41, 187500.00, -187500.02, -150451.80, -187500.02, -187500.02, -187500.02, 0.000, 0.000, 0.000, 17:38:04.517
162, 50200.59, 44818.44, 187500.00, -187500.02, -150207.03, -187500.02, -187500.02, -187500.02, 0.000, 0.000, 0.000, 17:38:04.517
163, 50346.50, 44940.46, 187500.00, -187500.02, -150282.48, -187500.02, -187500.02, -187500.02, 0.000, 0.000, 0.000, 17:38:04.517
164, 50534.10, 45113.69, 187500.00, -187500.02, -150578.25, -187500.02, -187500.02, -187500.02, 0.000, 0.000, 0.000, 17:38:04.517
165, 50463.35, 45059.77, 187500.00, -187500.02, -150654.44, -187500.02, -187500.02, -187500.02, 0.004, -0.006, 1.026, 17:38:04.518
166, 50328.71, 44938.70, 187500.00, -187500.02, -150521.02, -187500.02, -187500.02, -187500.02, 0.000, 0.000, 0.000, 17:38:04.518
167, 50200.05, 44819.11, 187500.00, -187500.02, -150266.81, -187500.02, -187500.02, -187500.02, 0.000, 0.000, 0.000, 17:38:04.518
168, 50349.45, 44940.15, 187500.00, -187500.02, -150362.55, -187500.02, -187500.02, -187500.02, 0.000, 0.000, 0.000, 17:38:04.518
169, 50528.22, 45102.73, 187500.00, -187500.02, -150643.22, -187500.02, -187500.02, -187500.02, 0.000, 0.000, 0.000, 17:38:04.518
170, 50456.36, 45050.63, 187500.00, -187500.02, -150706.13, -187500.02, -187500.02, -187500.02, 0.000, 0.000, 0.000, 17:38:04.518
171, 50321.96, 44932.73, 187500.00, -187500.02, -150564.72, -187500.02, -187500.02, -187500.02, 0.000, 0.000, 0.000, 17:38:04.519
172, 50186.55, 44810.13, 187500.00, -187500.02, -150275.89, -187500.02, -187500.02, -187500.02, 0.000, 0.000, 0.000, 17:38:04.519
173, 50332.44, 44928.48, 187500.00, -187500.02, -150328.44, -187500.02, -187500.02, -187500.02, 0.000, 0.000, 0.000, 17:38:04.519
174, 50527.97, 45103.45, 187500.00, -187500.02, -150599.98, -187500.02, -187500.02, -187500.02, 0.000, 0.000, 0.000, 17:38:04.519
175, 50462.88, 45057.88, 187500.00, -187500.02, -150665.89, -187500.02, -187500.02, -187500.02, 0.006, -0.008, 1.024, 17:38:04.519
176, 50324.37, 44935.36, 187500.00, -187500.02, -150496.61, -187500.02, -187500.02, -187500.02, 0.000, 0.000, 0.000, 17:38:04.520
177, 50194.15, 44817.44, 187500.00, -187500.02, -150218.31, -187500.02, -187500.02, -187500.02, 0.000, 0.000, 0.000, 17:38:04.520
178, 50338.45, 44931.05, 187500.00, -187500.02, -150316.66, -187500.02, -187500.02, -187500.02, 0.000, 0.000, 0.000, 17:38:04.520
179, 50533.89, 45108.41, 187500.00, -187500.02, -150610.11, -187500.02, -187500.02, -187500.02, 0.000, 0.000, 0.000, 17:38:04.520
180, 50471.96, 45064.87, 187500.00, -187500.02, -150707.53, -187500.02, -187500.02, -187500.02, 0.000, 0.000, 0.000, 17:38:04.520
181, 50340.51, 44949.71, 187500.00, -187500.02, -150563.00, -187500.02, -187500.02, -187500.02, 0.000, 0.000, 0.000, 17:38:04.521
182, 50200.65, 44824.97, 187500.00, -187500.02, -150290.80, -187500.02, -187500.02, -187500.02, 0.000, 0.000, 0.000, 17:38:04.521
183, 50339.95, 44932.61, 187500.00, -187500.02, -150372.88, -187500.02, -187500.02, -187500.02, 0.000, 0.000, 0.000, 17:38:04.521
184, 50527.50, 45102.15, 187500.00, -187500.02, -150609.89, -187500.02, -187500.02, -187500.02, 0.000, 0.000, 0.000, 17:38:04.521
185, 50460.31, 45058.41, 187500.00, -187500.02, -150679.34, -187500.02, -187500.02, -187500.02, 0.008, -0.010, 1.030, 17:38:04.521
186, 50323.92, 44942.38, 187500.00, -187500.02, -150532.67, -187500.02, -187500.02, -187500.02, 0.000, 0.000, 0.000, 17:38:04.521
187, 50191.55, 44820.34, 187500.00, -187500.02, -150290.08, -187500.02, -187500.02, -187500.02, 0.000, 0.000, 0.000, 17:38:04.522
188, 50329.51, 44926.91, 187500.00, -187500.02, -150327.48, -187500.02, -187500.02, -187500.02, 0.000, 0.000, 0.000, 17:38:04.522
189, 50529.00, 45104.28, 187500.00, -187500.02, -150572.25, -187500.02, -187500.02, -187500.02, 0.000, 0.000, 0.000, 17:38:04.522
190, 50467.36, 45057.74, 187500.00, -187500.02, -150661.75, -187500.02, -187500.02, -187500.02, 0.000, 0.000, 0.000, 17:38:04.522
191, 50334.43, 44942.72, 187500.00, -187500.02, -150520.75, -187500.02, -187500.02, -187500.02, 0.000, 0.000, 0.000, 17:38:04.522
192, 50203.43, 44824.16, 187500.00, -187500.02, -150254.95, -187500.02, -187500.02, -187500.02, 0.000, 0.000, 0.000, 17:38:04.523
193, 50334.85, 44927.07, 187500.00, -187500.02, -150294.28, -187500.02, -187500.02, -187500.02, 0.000, 0.000, 0.000, 17:38:04.523
194, 50534.10, 45108.81, 187500.00, -187500.02, -150562.84, -187500.02, -187500.02, -187500.02, 0.000, 0.000, 0.000, 17:38:04.523
195, 50474.93, 45070.93, 187500.00, -187500.02, -150640.45, -187500.02, -187500.02, -187500.02, 0.012, -0.014, 1.036, 17:38:04.523
196, 50344.00, 44958.70, 187500.00, -187500.02, -150522.25, -187500.02, -187500.02, -187500.02, 0.000, 0.000, 0.000, 17:38:04.523
197, 50209.14, 44835.43, 187500.00, -187500.02, -150274.59, -187500.02, -187500.02, -187500.02, 0.000, 0.000, 0.000, 17:38:04.523
198, 50343.79, 44941.82, 187500.00, -187500.02, -150355.48, -187500.02, -187500.02, -187500.02, 0.000, 0.000, 0.000, 17:38:04.524
199, 50537.72, 45117.71, 187500.00, -187500.02, -150646.19, -187500.02, -187500.02, -187500.02, 0.000, 0.000, 0.000, 17:38:04.524
200, 50468.54, 45064.87, 187500.00, -187500.02, -150702.58, -187500.02, -187500.02, -187500.02, 0.000, 0.000, 0.000, 17:38:04.524
201, 50325.09, 44940.28, 187500.00, -187500.02, -150484.33, -187500.02, -187500.02, -187500.02, 0.000, 0.000, 0.000, 17:38:04.524
202, 50197.77, 44828.99, 187500.00, -187500.02, -150247.69, -187500.02, -187500.02, -187500.02, 0.000, 0.000, 0.000, 17:38:04.524
203, 50320.14, 44926.45, 187500.00, -187500.02, -150301.27, -187500.02, -187500.02, -187500.02, 0.000, 0.000, 0.000, 17:38:04.525
204, 50511.95, 45101.30, 187500.00, -187500.02, -150544.20, -187500.02, -187500.02, -187500.02, 0.000, 0.000, 0.000, 17:38:04.525
205, 50458.12, 45062.59, 187500.00, -187500.02, -150640.52, -187500.02, -187500.02, -187500.02, 0.006, -0.016, 1.032, 17:38:04.525
206, 50323.57, 44942.98, 187500.00, -187500.02, -150489.84, -187500.02, -187500.02, -187500.02, 0.000, 0.000, 0.000, 17:38:04.525
207, 50193.68, 44826.27, 187500.00, -187500.02, -150220.19, -187500.02, -187500.02, -187500.02, 0.000, 0.000, 0.000, 17:38:04.525
208, 50328.75, 44931.88, 187500.00, -187500.02, -150272.36, -187500.02, -187500.02, -187500.02, 0.000, 0.000, 0.000, 17:38:04.525
209, 50524.53, 45113.89, 187500.00, -187500.02, -150543.00, -187500.02, -187500.02, -187500.02, 0.000, 0.000, 0.000, 17:38:04.525
210, 50472.52, 45082.13, 187500.00, -187500.02, -150676.81, -187500.02, -187500.02, -187500.02, 0.000, 0.000, 0.000, 17:38:04.525
211, 50335.46, 44961.61, 187500.00, -187500.02, -150574.89, -187500.02, -187500.02, -187500.02, 0.000, 0.000, 0.000, 17:38:04.526
212, 50198.02, 44834.04, 187500.00, -187500.02, -150299.20, -187500.02, -187500.02, -187500.02, 0.000, 0.000, 0.000, 17:38:04.526
213, 50329.69, 44933.35, 187500.00, -187500.02, -150385.97, -187500.02, -187500.02, -187500.02, 0.000, 0.000, 0.000, 17:38:04.526
214, 50530.36, 45112.99, 187500.00, -187500.02, -150674.11, -187500.02, -187500.02, -187500.02, 0.000, 0.000, 0.000, 17:38:04.526
215, 50472.96, 45072.58, 187500.00, -187500.02, -150736.03, -187500.02, -187500.02, -187500.02, 0.010, -0.012, 1.032, 17:38:04.526
216, 50338.99, 44954.65, 187500.00, -187500.02, -150610.19, -187500.02, -187500.02, -187500.02, 0.000, 0.000, 0.000, 17:38:04.526
217, 50196.65, 44825.08, 187500.00, -187500.02, -150314.69, -187500.02, -187500.02, -187500.02, 0.000, 0.000, 0.000, 17:38:04.526
218, 50319.09, 44922.60, 187500.00, -187500.02, -150344.25, -187500.02, -187500.02, -187500.02, 0.000, 0.000, 0.000, 17:38:04.526
219, 50518.20, 45102.78, 187500.00, -187500.02, -150603.92, -187500.02, -187500.02, -187500.02, 0.000, 0.000, 0.000, 17:38:04.526
220, 50459.69, 45064.16, 187500.00, -187500.02, -150707.28, -187500.02, -187500.02, -187500.02, 0.000, 0.000, 0.000, 17:38:04.527
221, 50326.79, 44947.05, 187500.00, -187500.02, -150581.89, -187500.02, -187500.02, -187500.02, 0.000, 0.000, 0.000, 17:38:04.527
222, 50193.90, 44821.50, 187500.00, -187500.02, -150281.20, -187500.02, -187500.02, -187500.02, 0.000, 0.000, 0.000, 17:38:04.527
223, 50319.99, 44921.98, 187500.00, -187500.02, -150328.48, -187500.02, -187500.02, -187500.02, 0.000, 0.000, 0.000, 17:38:04.527
224, 50518.09, 45106.42, 187500.00, -187500.02, -150612.78, -187500.02, -187500.02, -187500.02, 0.000, 0.000, 0.000, 17:38:04.527
225, 50464.98, 45070.01, 187500.00, -187500.02, -150667.52, -187500.02, -187500.02, -187500.02, 0.006, -0.012, 1.030, 17:38:04.527
226, 50337.45, 44958.39, 187500.00, -187500.02, -150560.78, -187500.02, -187500.02, -187500.02, 0.000, 0.000, 0.000, 17:38:04.527
227, 50200.81, 44834.16, 187500.00, -187500.02, -150293.17, -187500.02, -187500.02, -187500.02, 0.000, 0.000, 0.000, 17:38:04.527
228, 50317.04, 44926.76, 187500.00, -187500.02, -150323.33, -187500.02, -187500.02, -187500.02, 0.000, 0.000, 0.000, 17:38:04.528
229, 50517.94, 45107.45, 187500.00, -187500.02, -150611.77, -187500.02, -187500.02, -187500.02, 0.000, 0.000, 0.000, 17:38:04.528
230, 50464.29, 45070.23, 187500.00, -187500.02, -150726.45, -187500.02, -187500.02, -187500.02, 0.000, 0.000, 0.000, 17:38:04.528
231, 50325.40, 44945.16, 187500.00, -187500.02, -150607.75, -187500.02, -187500.02, -187500.02, 0.000, 0.000, 0.000, 17:38:04.528
232, 50187.55, 44816.09, 187500.00, -187500.02, -150316.70, -187500.02, -187500.02, -187500.02, 0.000, 0.000, 0.000, 17:38:04.528
233, 50309.59, 44911.05, 187500.00, -187500.02, -150337.58, -187500.02, -187500.02, -187500.02, 0.000, 0.000, 0.000, 17:38:04.528
234, 50508.82, 45091.67, 187500.00, -187500.02, -150581.39, -187500.02, -187500.02, -187500.02, 0.000, 0.000, 0.000, 17:38:04.528
235, 50457.07, 45064.42, 187500.00, -187500.02, -150662.80, -187500.02, -187500.02, -187500.02, 0.004, -0.016, 1.028, 17:38:04.528
236, 50322.13, 44943.41, 187500.00, -187500.02, -150536.33, -187500.02, -187500.02, -187500.02, 0.000, 0.000, 0.000, 17:38:04.528
237, 50192.94, 44822.76, 187500.00, -187500.02, -150268.56, -187500.02, -187500.02, -187500.02, 0.000, 0.000, 0.000, 17:38:04.529
238, 50312.95, 44912.88, 187500.00, -187500.02, -150326.47, -187500.02, -187500.02, -187500.02, 0.000, 0.000, 0.000, 17:38:04.529
239, 50521.49, 45099.18, 187500.00, -187500.02, -150607.92, -187500.02, -187500.02, -187500.02, 0.000, 0.000, 0.000, 17:38:04.529
240, 50472.32, 45068.60, 187500.00, -187500.02, -150711.70, -187500.02, -187500.02, -187500.02, 0.000, 0.000, 0.000, 17:38:04.989
241, 50339.99, 44954.32, 187500.00, -187500.02, -150618.70, -187500.02, -187500.02, -187500.02, 0.000, 0.000, 0.000, 17:38:04.989
242, 50199.36, 44826.49, 187500.00, -187500.02, -150365.80, -187500.02, -187500.02, -187500.02, 0.000, 0.000, 0.000, 17:38:04.989
243, 50315.79, 44919.20, 187500.00, -187500.02, -150393.95, -187500.02, -187500.02, -187500.02, 0.000, 0.000, 0.000, 17:38:04.990
244, 50521.22, 45103.67, 187500.00, -187500.02, -150677.80, -187500.02, -187500.02, -187500.02, 0.000, 0.000, 0.000, 17:38:04.990
245, 50468.54, 45068.18, 187500.00, -187500.02, -150790.09, -187500.02, -187500.02, -187500.02, 0.002, -0.012, 1.024, 17:38:04.990
246, 50324.46, 44939.81, 187500.00, -187500.02, -150635.39, -187500.02, -187500.02, -187500.02, 0.000, 0.000, 0.000, 17:38:04.990
247, 50187.49, 44818.51, 187500.00, -187500.02, -150342.64, -187500.02, -187500.02, -187500.02, 0.000, 0.000, 0.000, 17:38:04.990
248, 50307.16, 44909.61, 187500.00, -187500.02, -150397.08, -187500.02, -187500.02, -187500.02, 0.000, 0.000, 0.000, 17:38:04.991
249, 50507.99, 45090.48, 187500.00, -187500.02, -150628.22, -187500.02, -187500.02, -187500.02, 0.000, 0.000, 0.000, 17:38:04.991
250, 50458.52, 45061.59, 187500.00, -187500.02, -150682.58, -187500.02, -187500.02, -187500.02, 0.000, 0.000, 0.000, 17:38:04.991
251, 50325.20, 44942.58, 187500.00, -187500.02, -150542.28, -187500.02, -187500.02, -187500.02, 0.000, 0.000, 0.000, 17:38:04.991
252, 50194.24, 44826.27, 187500.00, -187500.02, -150284.39, -187500.02, -187500.02, -187500.02, 0.000, 0.000, 0.000, 17:38:04.991
253, 50301.39, 44910.31, 187500.00, -187500.02, -150333.30, -187500.02, -187500.02, -187500.02, 0.000, 0.000, 0.000, 17:38:04.991
254, 50509.82, 45098.62, 187500.00, -187500.02, -150604.38, -187500.02, -187500.02, -187500.02, 0.000, 0.000, 0.000, 17:38:04.992
255, 50468.49, 45075.73, 187500.00, -187500.02, -150735.05, -187500.02, -187500.02, -187500.02, 0.006, -0.016, 1.022, 17:38:04.992
0, 50330.74, 44957.29, 187500.00, -187500.02, -150620.52, -187500.02, -187500.02, -187500.02, 0.000, 0.000, 0.000, 17:38:04.992
1, 50188.98, 44832.64, 187500.00, -187500.02, -150331.48, -187500.02, -187500.02, -187500.02, 0.000, 0.000, 0.000, 17:38:04.992
2, 50297.48, 44911.70, 187500.00, -187500.02, -150363.47, -187500.02, -187500.02, -187500.02, 0.000, 0.000, 0.000, 17:38:04.992
3, 50508.53, 45096.97, 187500.00, -187500.02, -150631.31, -187500.02, -187500.02, -187500.02, 0.000, 0.000, 0.000, 17:38:04.993
4, 50454.59, 45063.98, 187500.00, -187500.02, -150717.56, -187500.02, -187500.02, -187500.02, 0.000, 0.000, 0.000, 17:38:04.993
5, 50319.32, 44947.52, 187500.00, -187500.02, -150611.81, -187500.02, -187500.02, -187500.02, 0.000, 0.000, 0.000, 17:38:04.993
6, 50180.22, 44821.95, 187500.00, -187500.02, -150332.75, -187500.02, -187500.02, -187500.02, 0.000, 0.000, 0.000, 17:38:04.993
7, 50281.95, 44897.12, 187500.00, -187500.02, -150348.11, -187500.02, -187500.02, -187500.02, 0.000, 0.000, 0.000, 17:38:04.993
8, 50494.27, 45089.03, 187500.00, -187500.02, -150619.75, -187500.02, -187500.02, -187500.02, 0.000, 0.000, 0.000, 17:38:04.994
9, 50452.51, 45068.96, 187500.00, -187500.02, -150712.13, -187500.02, -187500.02, -187500.02, 0.012, -0.010, 1.026, 17:38:04.994
10, 50316.77, 44947.75, 187500.00, -187500.02, -150593.39, -187500.02, -187500.02, -187500.02, 0.000, 0.000, 0.000, 17:38:04.994
11, 50176.04, 44819.47, 187500.00, -187500.02, -150303.27, -187500.02, -187500.02, -187500.02, 0.000, 0.000, 0.000, 17:38:04.994
12, 50280.54, 44898.17, 187500.00, -187500.02, -150297.42, -187500.02, -187500.02, -187500.02, 0.000, 0.000, 0.000, 17:38:04.994
13, 50500.57, 45096.74, 187500.00, -187500.02, -150573.22, -187500.02, -187500.02, -187500.02, 0.000, 0.000, 0.000, 17:38:04.994
14, 50462.10, 45076.89, 187500.00, -187500.02, -150702.09, -187500.02, -187500.02, -187500.02, 0.000, 0.000, 0.000, 17:38:04.995
15, 50327.10, 44959.08, 187500.00, -187500.02, -150594.77, -187500.02, -187500.02, -187500.02, 0.000, 0.000, 0.000, 17:38:04.995
16, 50193.34, 44833.93, 187500.00, -187500.02, -150350.56, -187500.02, -187500.02, -187500.02, 0.000, 0.000, 0.000, 17:38:04.995
17, 50290.86, 44908.05, 187500.00, -187500.02, -150395.42, -187500.02, -187500.02, -187500.02, 0.000, 0.000, 0.000, 17:38:04.995
18, 50497.24, 45091.80, 187500.00, -187500.02, -150645.66, -187500.02, -187500.02, -187500.02, 0.000, 0.000, 0.000, 17:38:04.995
19, 50460.27, 45069.77, 187500.00, -187500.02, -150743.28, -187500.02, -187500.02, -187500.02, 0.012, -0.004, 1.024, 17:38:04.995
20, 50327.99, 44953.98, 187500.00, -187500.02, -150647.94, -187500.02, -187500.02, -187500.02, 0.000, 0.000, 0.000, 17:38:04.996
21, 50178.12, 44821.73, 187500.00, -187500.02, -150351.73, -187500.02, -187500.02, -187500.02, 0.000, 0.000, 0.000, 17:38:04.996
22, 50276.25, 44897.75, 187500.00, -187500.02, -150381.13, -187500.02, -187500.02, -187500.02, 0.000, 0.000, 0.000, 17:38:04.996
23, 50489.75, 45088.18, 187500.00, -187500.02, -150670.69, -187500.02, -187500.02, -187500.02, 0.000, 0.000, 0.000, 17:38:04.996
24, 50448.06, 45063.64, 187500.00, -187500.02, -150760.09, -187500.02, -187500.02, -187500.02, 0.000, 0.000, 0.000, 17:38:04.996
25, 50307.32, 44941.18, 187500.00, -187500.02, -150612.64, -187500.02, -187500.02, -187500.02, 0.000, 0.000, 0.000, 17:38:04.996
26, 50169.00, 44810.84, 187500.00, -187500.02, -150312.06, -187500.02, -187500.02, -187500.02, 0.000, 0.000, 0.000, 17:38:04.997
27, 50271.64, 44889.90, 187500.00, -187500.02, -150325.31, -187500.02, -187500.02, -187500.02, 0.000, 0.000, 0.000, 17:38:04.997
28, 50490.78, 45086.51, 187500.00, -187500.02, -150601.11, -187500.02, -187500.02, -187500.02, 0.010, -0.008, 1.024, 17:38:04.997
29, 50453.56, 45067.17, 187500.00, -187500.02, -150726.17, -187500.02, -187500.02, -187500.02, 0.000, 0.000, 0.000, 17:38:04.998
30, 50320.37, 44953.25, 187500.00, -187500.02, -150634.61, -187500.02, -187500.02, -187500.02, 0.000, 0.000, 0.000, 17:38:04.999
31, 50177.79, 44821.30, 187500.00, -187500.02, -150371.47, -187500.02, -187500.02, -187500.02, 0.000, 0.000, 0.000, 17:38:04.999
32, 50272.40, 44891.29, 187500.00, -187500.02, -150368.27, -187500.02, -187500.02, -187500.02, 0.000, 0.000, 0.000, 17:38:04.999
33, 50496.19, 45093.77, 187500.00, -187500.02, -150655.16, -187500.02, -187500.02, -187500.02, 0.000, 0.000, 0.000, 17:38:04.999
34, 50451.53, 45065.16, 187500.00, -187500.02, -150772.77, -187500.02, -187500.02, -187500.02, 0.000, 0.000, 0.000, 17:38:04.999
35, 50312.23, 44943.84, 187500.00, -187500.02, -150645.30, -187500.02, -187500.02, -187500.02, 0.000, 0.000, 0.000, 17:38:04.999
36, 50171.66, 44816.18, 187500.00, -187500.02, -150350.03, -187500.02, -187500.02, -187500.02, 0.000, 0.000, 0.000, 17:38:05.000
37, 50255.06, 44876.07, 187500.00, -187500.02, -150329.36, -187500.02, -187500.02, -187500.02, 0.000, 0.000, 0.000, 17:38:05.000
38, 50477.57, 45078.13, 187500.00, -187500.02, -150589.44, -187500.02, -187500.02, -187500.02, 0.014, -0.010, 1.026, 17:38:05.000
39, 50444.15, 45066.01, 187500.00, -187500.02, -150677.38, -187500.02, -187500.02, -187500.02, 0.000, 0.000, 0.000, 17:38:05.000
40, 50309.82, 44946.32, 187500.00, -187500.02, -150535.31, -187500.02, -187500.02, -187500.02, 0.000, 0.000, 0.000, 17:38:05.000
41, 50173.72, 44817.62, 187500.00, -187500.02, -150283.27, -187500.02, -187500.02, -187500.02, 0.000, 0.000, 0.000, 17:38:05.000
42, 50262.54, 44884.49, 187500.00, -187500.02, -150291.25, -187500.02, -187500.02, -187500.02, 0.000, 0.000, 0.000, 17:38:05.000
43, 50485.59, 45082.68, 187500.00, -187500.02, -150561.86, -187500.02, -187500.02, -187500.02, 0.000, 0.000, 0.000, 17:38:05.001
44, 50452.00, 45062.05, 187500.00, -187500.02, -150679.55, -187500.02, -187500.02, -187500.02, 0.000, 0.000, 0.000, 17:38:05.001
45, 50320.73, 44948.08, 187500.00, -187500.02, -150587.83, -187500.02, -187500.02, -187500.02, 0.000, 0.000, 0.000, 17:38:05.001
46, 50187.62, 44830.24, 187500.00, -187500.02, -150352.48, -187500.02, -187500.02, -187500.02, 0.000, 0.000, 0.000, 17:38:05.001
47, 50266.70, 44887.73, 187500.00, -187500.02, -150372.58, -187500.02, -187500.02, -187500.02, 0.000, 0.000, 0.000, 17:38:05.001
48, 50479.65, 45078.57, 187500.00, -187500.02, -150638.91, -187500.02, -187500.02, -187500.02, 0.014, -0.014, 1.024, 17:38:05.001
49, 50448.96, 45061.59, 187500.00, -187500.02, -150745.39, -187500.02, -187500.02, -187500.02, 0.000, 0.000, 0.000, 17:38:05.002
50, 50310.45, 44938.32, 187500.00, -187500.02, -150623.28, -187500.02, -187500.02, -187500.02, 0.000, 0.000, 0.000, 17:38:05.002
51, 50168.11, 44810.91, 187500.00, -187500.02, -150364.36, -187500.02, -187500.02, -187500.02, 0.000, 0.000, 0.000, 17:38:05.002
52, 50245.73, 44871.37, 187500.00, -187500.02, -150337.00, -187500.02, -187500.02, -187500.02, 0.000, 0.000, 0.000, 17:38:05.002
53, 50470.44, 45068.45, 187500.00, -187500.02, -150575.53, -187500.02, -187500.02, -187500.02, 0.000, 0.000, 0.000, 17:38:05.002
54, 50446.23, 45060.00, 187500.00, -187500.02, -150684.80, -187500.02, -187500.02, -187500.02, 0.000, 0.000, 0.000, 17:38:05.002
55, 50315.92, 44944.64, 187500.00, -187500.02, -150591.08, -187500.02, -187500.02, -187500.02, 0.000, 0.000, 0.000, 17:38:05.003
56, 50172.20, 44816.72, 187500.00, -187500.02, -150308.66, -187500.02, -187500.02, -187500.02, 0.000, 0.000, 0.000, 17:38:05.003
57, 50258.50, 44882.50, 187500.00, -187500.02, -150284.66, -187500.02, -187500.02, -187500.02, 0.000, 0.000, 0.000, 17:38:05.003
58, 50486.93, 45084.45, 187500.00, -187500.02, -150576.45, -187500.02, -187500.02, -187500.02, 0.010, -0.020, 1.026, 17:38:05.003
59, 50457.68, 45074.44, 187500.00, -187500.02, -150704.31, -187500.02, -187500.02, -187500.02, 0.000, 0.000, 0.000, 17:38:05.003
60, 50322.36, 44955.08, 187500.00, -187500.02, -150625.34, -187500.02, -187500.02, -187500.02, 0.000, 0.000, 0.000, 17:38:05.004
61, 50175.71, 44819.29, 187500.00, -187500.02, -150364.97, -187500.02, -187500.02, -187500.02, 0.000, 0.000, 0.000, 17:38:05.004
62, 50255.84, 44877.00, 187500.00, -187500.02, -150324.39, -187500.02, -187500.02, -187500.02, 0.000, 0.000, 0.000, 17:38:05.004
63, 50483.89, 45077.95, 187500.00, -187500.02, -150611.17, -187500.02, -187500.02, -187500.02, 0.000, 0.000, 0.000, 17:38:05.004
64, 50459.15, 45068.91, 187500.00, -187500.02, -150727.52, -187500.02, -187500.02, -187500.02, 0.000, 0.000, 0.000, 17:38:05.004
65, 50326.83, 44954.63, 187500.00, -187500.02, -150628.38, -187500.02, -187500.02, -187500.02, 0.000, 0.000, 0.000, 17:38:05.004
66, 50176.94, 44819.23, 187500.00, -187500.02, -150335.50, -187500.02, -187500.02, -187500.02, 0.000, 0.000, 0.000, 17:38:05.005
67, 50248.53, 44868.24, 187500.00, -187500.02, -150280.20, -187500.02, -187500.02, -187500.02, 0.000, 0.000, 0.000, 17:38:05.005
68, 50471.45, 45069.86, 187500.00, -187500.02, -150522.52, -187500.02, -187500.02, -187500.02, 0.006, -0.016, 1.026, 17:38:05.005
69, 50448.29, 45058.63, 187500.00, -187500.02, -150614.20, -187500.02, -187500.02, -187500.02, 0.000, 0.000, 0.000, 17:38:05.005
70, 50314.36, 44939.25, 187500.00, -187500.02, -150516.13, -187500.02, -187500.02, -187500.02, 0.000, 0.000, 0.000, 17:38:05.005
71, 50175.66, 44814.11, 187500.00, -187500.02, -150229.48, -187500.02, -187500.02, -187500.02, 0.000, 0.000, 0.000, 17:38:05.005
72, 50256.73, 44873.54, 187500.00, -187500.02, -150215.70, -187500.02, -187500.02, -187500.02, 0.000, 0.000, 0.000, 17:38:05.006
73, 50484.70, 45078.01, 187500.00, -187500.02, -150532.17, -187500.02, -187500.02, -187500.02, 0.000, 0.000, 0.000, 17:38:05.006
74, 50465.01, 45077.68, 187500.00, -187500.02, -150656.83, -187500.02, -187500.02, -187500.02, 0.000, 0.000, 0.000, 17:38:05.006
75, 50337.13, 44966.70, 187500.00, -187500.02, -150599.09, -187500.02, -187500.02, -187500.02, 0.000, 0.000, 0.000, 17:38:05.006
76, 50192.32, 44832.39, 187500.00, -187500.02, -150335.23, -187500.02, -187500.02, -187500.02, 0.000, 0.000, 0.000, 17:38:05.006
77, 50262.90, 44882.77, 187500.00, -187500.02, -150337.66, -187500.02, -187500.02, -187500.02, 0.000, 0.000, 0.000, 17:38:05.006
78, 50488.16, 45079.46, 187500.00, -187500.02, -150642.84, -187500.02, -187500.02, -187500.02, 0.004, -0.010, 1.026, 17:38:05.007
79, 50464.67, 45065.54, 187500.00, -187500.02, -150767.23, -187500.02, -187500.02, -187500.02, 0.000, 0.000, 0.000, 17:38:05.007
80, 50319.50, 44932.73, 187500.00, -187500.02, -150630.66, -187500.02, -187500.02, -187500.02, 0.000, 0.000, 0.000, 17:38:05.007
81, 50171.62, 44795.33, 187500.00, -187500.02, -150332.94, -187500.02, -187500.02, -187500.02, 0.000, 0.000, 0.000, 17:38:05.007
82, 50237.02, 44842.52, 187500.00, -187500.02, -150306.94, -187500.02, -187500.02, -187500.02, 0.000, 0.000, 0.000, 17:38:05.007
83, 50468.98, 45049.02, 187500.00, -187500.02, -150555.59, -187500.02, -187500.02, -187500.02, 0.000, 0.000, 0.000, 17:38:05.008
84, 50447.98, 45042.61, 187500.00, -187500.02, -150665.08, -187500.02, -187500.02, -187500.02, 0.000, 0.000, 0.000, 17:38:05.008
85, 50308.75, 44925.64, 187500.00, -187500.02, -150550.23, -187500.02, -187500.02, -187500.02, 0.000, 0.000, 0.000, 17:38:05.008
86, 50163.55, 44794.44, 187500.00, -187500.02, -150246.45, -187500.02, -187500.02, -187500.02, 0.000, 0.000, 0.000, 17:38:05.008
87, 50233.04, 44841.40, 187500.00, -187500.02, -150218.27, -187500.02, -187500.02, -187500.02, 0.000, 0.000, 0.000, 17:38:05.008
88, 50468.20, 45051.53, 187500.00, -187500.02, -150524.91, -187500.02, -187500.02, -187500.02, 0.008, -0.014, 1.022, 17:38:05.008
89, 50453.74, 45052.38, 187500.00, -187500.02, -150686.83, -187500.02, -187500.02, -187500.02, 0.000, 0.000, 0.000, 17:38:05.009
90, 50320.46, 44936.53, 187500.00, -187500.02, -150611.02, -187500.02, -187500.02, -187500.02, 0.000, 0.000, 0.000, 17:38:05.009
91, 50187.11, 44813.70, 187500.00, -187500.02, -150362.39, -187500.02, -187500.02, -187500.02, 0.000, 0.000, 0.000, 17:38:05.009
92, 50252.15, 44857.20, 187500.00, -187500.02, -150351.73, -187500.02, -187500.02, -187500.02, 0.000, 0.000, 0.000, 17:38:05.009
93, 50473.12, 45050.14, 187500.00, -187500.02, -150639.89, -187500.02, -187500.02, -187500.02, 0.000, 0.000, 0.000, 17:38:05.009
94, 50453.29, 45045.60, 187500.00, -187500.02, -150712.17, -187500.02, -187500.02, -187500.02, 0.000, 0.000, 0.000, 17:38:05.009
95, 50320.12, 44933.89, 187500.00, -187500.02, -150618.00, -187500.02, -187500.02, -187500.02, 0.000, 0.000, 0.000, 17:38:05.010
96, 50169.00, 44796.14, 187500.00, -187500.02, -150349.23, -187500.02, -187500.02, -187500.02, 0.000, 0.000, 0.000, 17:38:05.010
97, 50237.40, 44841.53, 187500.00, -187500.02, -150335.23, -187500.02, -187500.02, -187500.02, 0.000, 0.000, 0.000, 17:38:05.010
98, 50469.10, 45044.22, 187500.00, -187500.02, -150621.98, -187500.02, -187500.02, -187500.02, 0.008, -0.010, 1.022, 17:38:05.010
99, 50446.79, 45038.38, 187500.00, -187500.02, -150731.84, -187500.02, -187500.02, -187500.02, 0.000, 0.000, 0.000, 17:38:05.010
100, 50309.73, 44922.56, 187500.00, -187500.02, -150599.14, -187500.02, -187500.02, -187500.02, 0.000, 0.000, 0.000, 17:38:05.011
101, 50173.88, 44801.07, 187500.00, -187500.02, -150328.23, -187500.02, -187500.02, -187500.02, 0.000, 0.000, 0.000, 17:38:05.011
102, 50236.06, 44846.54, 187500.00, -187500.02, -150304.72, -187500.02, -187500.02, -187500.02, 0.000, 0.000, 0.000, 17:38:05.011
103, 50461.23, 45047.32, 187500.00, -187500.02, -150562.48, -187500.02, -187500.02, -187500.02, 0.000, 0.000, 0.000, 17:38:05.011
104, 50448.85, 45047.88, 187500.00, -187500.02, -150694.31, -187500.02, -187500.02, -187500.02, 0.000, 0.000, 0.000, 17:38:05.469
105, 50323.41, 44936.68, 187500.00, -187500.02, -150624.98, -187500.02, -187500.02, -187500.02, 0.000, 0.000, 0.000, 17:38:05.470
106, 50178.64, 44804.32, 187500.00, -187500.02, -150364.25, -187500.02, -187500.02, -187500.02, 0.000, 0.000, 0.000, 17:38:05.470
107, 50233.44, 44841.38, 187500.00, -187500.02, -150347.13, -187500.02, -187500.02, -187500.02, 0.000, 0.000, 0.000, 17:38:05.470
108, 50464.11, 45046.21, 187500.00, -187500.02, -150645.19, -187500.02, -187500.02, -187500.02, 0.014, -0.006, 1.024, 17:38:05.470
109, 50453.50, 45047.68, 187500.00, -187500.02, -150795.02, -187500.02, -187500.02, -187500.02, 0.000, 0.000, 0.000, 17:38:05.470
110, 50316.66, 44927.65, 187500.00, -187500.02, -150700.95, -187500.02, -187500.02, -187500.02, 0.000, 0.000, 0.000, 17:38:05.471
111, 50164.38, 44795.49, 187500.00, -187500.02, -150401.17, -187500.02, -187500.02, -187500.02, 0.000, 0.000, 0.000, 17:38:05.471
112, 50219.94, 44832.70, 187500.00, -187500.02, -150354.45, -187500.02, -187500.02, -187500.02, 0.000, 0.000, 0.000, 17:38:05.471
113, 50449.14, 45031.52, 187500.00, -187500.02, -150618.31, -187500.02, -187500.02, -187500.02, 0.000, 0.000, 0.000, 17:38:05.471
114, 50439.05, 45038.34, 187500.00, -187500.02, -150718.08, -187500.02, -187500.02, -187500.02, 0.000, 0.000, 0.000, 17:38:05.471
115, 50318.00, 44934.18, 187500.00, -187500.02, -150640.41, -187500.02, -187500.02, -187500.02, 0.000, 0.000, 0.000, 17:38:05.471
116, 50175.73, 44802.93, 187500.00, -187500.02, -150366.33, -187500.02, -187500.02, -187500.02, 0.000, 0.000, 0.000, 17:38:05.472
117, 50223.65, 44834.04, 187500.00, -187500.02, -150306.30, -187500.02, -187500.02, -187500.02, 0.000, 0.000, 0.000, 17:38:05.472
118, 50461.01, 45044.48, 187500.00, -187500.02, -150575.56, -187500.02, -187500.02, -187500.02, 0.014, -0.006, 1.020, 17:38:05.472
119, 50463.38, 45060.63, 187500.00, -187500.02, -150704.98, -187500.02, -187500.02, -187500.02, 0.000, 0.000, 0.000, 17:38:05.472
120, 50334.03, 44949.82, 187500.00, -187500.02, -150643.52, -187500.02, -187500.02, -187500.02, 0.000, 0.000, 0.000, 17:38:05.472
121, 50186.97, 44815.67, 187500.00, -187500.02, -150415.09, -187500.02, -187500.02, -187500.02, 0.000, 0.000, 0.000, 17:38:05.472
122, 50231.48, 44843.50, 187500.00, -187500.02, -150374.16, -187500.02, -187500.02, -187500.02, 0.000, 0.000, 0.000, 17:38:05.473
123, 50463.55, 45044.53, 187500.00, -187500.02, -150637.00, -187500.02, -187500.02, -187500.02, 0.000, 0.000, 0.000, 17:38:05.473
124, 50458.46, 45050.92, 187500.00, -187500.02, -150771.47, -187500.02, -187500.02, -187500.02, 0.000, 0.000, 0.000, 17:38:05.473
125, 50314.98, 44925.46, 187500.00, -187500.02, -150677.95, -187500.02, -187500.02, -187500.02, 0.000, 0.000, 0.000, 17:38:05.473
126, 50173.41, 44797.23, 187500.00, -187500.02, -150390.53, -187500.02, -187500.02, -187500.02, 0.000, 0.000, 0.000, 17:38:05.473
127, 50222.73, 44831.52, 187500.00, -187500.02, -150330.83, -187500.02, -187500.02, -187500.02, 0.000, 0.000, 0.000, 17:38:05.473
128, 50454.12, 45036.71, 187500.00, -187500.02, -150571.00, -187500.02, -187500.02, -187500.02, 0.010, -0.004, 1.022, 17:38:05.474
129, 50456.58, 45052.80, 187500.00, -187500.02, -150706.78, -187500.02, -187500.02, -187500.02, 0.000, 0.000, 0.000, 17:38:05.474
130, 50325.20, 44940.66, 187500.00, -187500.02, -150644.05, -187500.02, -187500.02, -187500.02, 0.000, 0.000, 0.000, 17:38:05.474
131, 50170.90, 44800.07, 187500.00, -187500.02, -150361.98, -187500.02, -187500.02, -187500.02, 0.000, 0.000, 0.000, 17:38:05.474
132, 50215.67, 44826.85, 187500.00, -187500.02, -150307.77, -187500.02, -187500.02, -187500.02, 0.000, 0.000, 0.000, 17:38:05.474
133, 50452.98, 45033.67, 187500.00, -187500.02, -150591.31, -187500.02, -187500.02, -187500.02, 0.000, 0.000, 0.000, 17:38:05.474
134, 50454.84, 45046.96, 187500.00, -187500.02, -150725.05, -187500.02, -187500.02, -187500.02, 0.000, 0.000, 0.000, 17:38:05.475
135, 50327.84, 44933.73, 187500.00, -187500.02, -150645.03, -187500.02, -187500.02, -187500.02, 0.000, 0.000, 0.000, 17:38:05.475
136, 50183.38, 44802.46, 187500.00, -187500.02, -150387.31, -187500.02, -187500.02, -187500.02, 0.000, 0.000, 0.000, 17:38:05.475
137, 50224.19, 44829.93, 187500.00, -187500.02, -150339.55, -187500.02, -187500.02, -187500.02, 0.000, 0.000, 0.000, 17:38:05.475
138, 50462.19, 45039.77, 187500.00, -187500.02, -150641.83, -187500.02, -187500.02, -187500.02, 0.008, -0.010, 1.020, 17:38:05.475
139, 50461.99, 45052.04, 187500.00, -187500.02, -150808.91, -187500.02, -187500.02, -187500.02, 0.000, 0.000, 0.000, 17:38:05.475
140, 50324.86, 44935.59, 187500.00, -187500.02, -150696.16, -187500.02, -187500.02, -187500.02, 0.000, 0.000, 0.000, 17:38:05.476
141, 50179.33, 44806.33, 187500.00, -187500.02, -150374.64, -187500.02, -187500.02, -187500.02, 0.000, 0.000, 0.000, 17:38:05.476
142, 50221.20, 44832.39, 187500.00, -187500.02, -150286.22, -187500.02, -187500.02, -187500.02, 0.000, 0.000, 0.000, 17:38:05.476
143, 50461.30, 45040.86, 187500.00, -187500.02, -150562.64, -187500.02, -187500.02, -187500.02, 0.000, 0.000, 0.000, 17:38:05.476
144, 50465.79, 45057.23, 187500.00, -187500.02, -150705.45, -187500.02, -187500.02, -187500.02, 0.000, 0.000, 0.000, 17:38:05.476
145, 50334.63, 44947.88, 187500.00, -187500.02, -150623.17, -187500.02, -187500.02, -187500.02, 0.000, 0.000, 0.000, 17:38:05.477
146, 50187.06, 44813.32, 187500.00, -187500.02, -150328.23, -187500.02, -187500.02, -187500.02, 0.000, 0.000, 0.000, 17:38:05.477
147, 50221.60, 44831.29, 187500.00, -187500.02, -150256.94, -187500.02, -187500.02, -187500.02, 0.006, -0.020, 1.028, 17:38:05.477
148, 50459.57, 45039.39, 187500.00, -187500.02, -150509.52, -187500.02, -187500.02, -187500.02, 0.000, 0.000, 0.000, 17:38:05.477
149, 50476.36, 45065.83, 187500.00, -187500.02, -150688.13, -187500.02, -187500.02, -187500.02, 0.000, 0.000, 0.000, 17:38:05.477
150, 50339.30, 44945.11, 187500.00, -187500.02, -150654.31, -187500.02, -187500.02, -187500.02, 0.000, 0.000, 0.000, 17:38:05.478
151, 50189.97, 44811.49, 187500.00, -187500.02, -150423.44, -187500.02, -187500.02, -187500.02, 0.000, 0.000, 0.000, 17:38:05.478
152, 50231.01, 44840.77, 187500.00, -187500.02, -150356.17, -187500.02, -187500.02, -187500.02, 0.000, 0.000, 0.000, 17:38:05.478
153, 50470.71, 45050.36, 187500.00, -187500.02, -150656.59, -187500.02, -187500.02, -187500.02, 0.000, 0.000, 0.000, 17:38:05.478
154, 50470.33, 45059.30, 187500.00, -187500.02, -150816.17, -187500.02, -187500.02, -187500.02, 0.000, 0.000, 0.000, 17:38:05.478
155, 50329.87, 44938.43, 187500.00, -187500.02, -150728.53, -187500.02, -187500.02, -187500.02, 0.000, 0.000, 0.000, 17:38:05.478
156, 50178.46, 44804.32, 187500.00, -187500.02, -150441.34, -187500.02, -187500.02, -187500.02, 0.000, 0.000, 0.000, 17:38:05.478
157, 50214.15, 44828.77, 187500.00, -187500.02, -150378.11, -187500.02, -187500.02, -187500.02, 0.006, -0.018, 1.028, 17:38:05.479
158, 50450.07, 45034.63, 187500.00, -187500.02, -150610.88, -187500.02, -187500.02, -187500.02, 0.000, 0.000, 0.000, 17:38:05.479
159, 50466.08, 45058.84, 187500.00, -187500.02, -150737.72, -187500.02, -187500.02, -187500.02, 0.000, 0.000, 0.000, 17:38:05.479
160, 50337.20, 44945.31, 187500.00, -187500.02, -150661.69, -187500.02, -187500.02, -187500.02, 0.000, 0.000, 0.000, 17:38:05.479
161, 50194.17, 44816.32, 187500.00, -187500.02, -150392.08, -187500.02, -187500.02, -187500.02, 0.000, 0.000, 0.000, 17:38:05.479
162, 50222.51, 44832.03, 187500.00, -187500.02, -150308.02, -187500.02, -187500.02, -187500.02, 0.000, 0.000, 0.000, 17:38:05.479
163, 50463.80, 45044.55, 187500.00, -187500.02, -150565.41, -187500.02, -187500.02, -187500.02, 0.000, 0.000, 0.000, 17:38:05.480
164, 50477.75, 45068.78, 187500.00, -187500.02, -150714.86, -187500.02, -187500.02, -187500.02, 0.000, 0.000, 0.000, 17:38:05.480
165, 50348.91, 44959.23, 187500.00, -187500.02, -150680.84, -187500.02, -187500.02, -187500.02, 0.000, 0.000, 0.000, 17:38:05.480
166, 50204.30, 44831.16, 187500.00, -187500.02, -150431.92, -187500.02, -187500.02, -187500.02, 0.000, 0.000, 0.000, 17:38:05.480
167, 50232.93, 44843.79, 187500.00, -187500.02, -150373.61, -187500.02, -187500.02, -187500.02, 0.002, -0.020, 1.024, 17:38:05.480
168, 50470.53, 45049.58, 187500.00, -187500.02, -150640.84, -187500.02, -187500.02, -187500.02, 0.000, 0.000, 0.000, 17:38:05.480
169, 50482.17, 45075.24, 187500.00, -187500.02, -150798.13, -187500.02, -187500.02, -187500.02, 0.000, 0.000, 0.000, 17:38:05.481
170, 50345.98, 44958.12, 187500.00, -187500.02, -150701.88, -187500.02, -187500.02, -187500.02, 0.000, 0.000, 0.000, 17:38:05.481
171, 50202.13, 44827.07, 187500.00, -187500.02, -150446.06, -187500.02, -187500.02, -187500.02, 0.000, 0.000, 0.000, 17:38:05.481
172, 50221.35, 44832.14, 187500.00, -187500.02, -150347.08, -187500.02, -187500.02, -187500.02, 0.000, 0.000, 0.000, 17:38:05.481
173, 50457.74, 45039.12, 187500.00, -187500.02, -150555.28, -187500.02, -187500.02, -187500.02, 0.000, 0.000, 0.000, 17:38:05.481
174, 50475.85, 45073.10, 187500.00, -187500.02, -150674.33, -187500.02, -187500.02, -187500.02, 0.000, 0.000, 0.000, 17:38:05.482
175, 50343.30, 44959.06, 187500.00, -187500.02, -150628.05, -187500.02, -187500.02, -187500.02, 0.000, 0.000, 0.000, 17:38:05.482
176, 50200.41, 44827.94, 187500.00, -187500.02, -150400.44, -187500.02, -187500.02, -187500.02, 0.000, 0.000, 0.000, 17:38:05.482
177, 50220.73, 44833.22, 187500.00, -187500.02, -150327.88, -187500.02, -187500.02, -187500.02, 0.006, -0.016, 1.028, 17:38:05.482
178, 50457.23, 45042.41, 187500.00, -187500.02, -150582.38, -187500.02, -187500.02, -187500.02, 0.000, 0.000, 0.000, 17:38:05.482
179, 50477.30, 45078.50, 187500.00, -187500.02, -150780.27, -187500.02, -187500.02, -187500.02, 0.000, 0.000, 0.000, 17:38:05.482
180, 50347.93, 44969.61, 187500.00, -187500.02, -150736.72, -187500.02, -187500.02, -187500.02, 0.000, 0.000, 0.000, 17:38:05.483
181, 50200.16, 44834.42, 187500.00, -187500.02, -150487.30, -187500.02, -187500.02, -187500.02, 0.000, 0.000, 0.000, 17:38:05.483
182, 50218.87, 44836.79, 187500.00, -187500.02, -150398.56, -187500.02, -187500.02, -187500.02, 0.000, 0.000, 0.000, 17:38:05.483
183, 50454.61, 45039.16, 187500.00, -187500.02, -150642.39, -187500.02, -187500.02, -187500.02, 0.000, 0.000, 0.000, 17:38:05.483
184, 50471.29, 45069.36, 187500.00, -187500.02, -150774.78, -187500.02, -187500.02, -187500.02, 0.000, 0.000, 0.000, 17:38:05.483
185, 50340.48, 44961.16, 187500.00, -187500.02, -150718.61, -187500.02, -187500.02, -187500.02, 0.000, 0.000, 0.000, 17:38:05.484
186, 50195.89, 44831.29, 187500.00, -187500.02, -150479.89, -187500.02, -187500.02, -187500.02, 0.000, 0.000, 0.000, 17:38:05.484
187, 50210.69, 44829.77, 187500.00, -187500.02, -150372.08, -187500.02, -187500.02, -187500.02, 0.008, -0.018, 1.028, 17:38:05.484
188, 50454.57, 45041.09, 187500.00, -187500.02, -150621.30, -187500.02, -187500.02, -187500.02, 0.000, 0.000, 0.000, 17:38:05.484
189, 50474.11, 45074.75, 187500.00, -187500.02, -150781.55, -187500.02, -187500.02, -187500.02, 0.000, 0.000, 0.000, 17:38:05.484
190, 50340.91, 44962.07, 187500.00, -187500.02, -150723.91, -187500.02, -187500.02, -187500.02, 0.000, 0.000, 0.000, 17:38:05.484
191, 50194.21, 44831.00, 187500.00, -187500.02, -150442.80, -187500.02, -187500.02, -187500.02, 0.000, 0.000, 0.000, 17:38:05.485
192, 50209.01, 44834.45, 187500.00, -187500.02, -150355.94, -187500.02, -187500.02, -187500.02, 0.000, 0.000, 0.000, 17:38:05.485
193, 50448.76, 45042.88, 187500.00, -187500.02, -150613.25, -187500.02, -187500.02, -187500.02, 0.000, 0.000, 0.000, 17:38:05.485
194, 50477.48, 45079.09, 187500.00, -187500.02, -150779.81, -187500.02, -187500.02, -187500.02, 0.000, 0.000, 0.000, 17:38:05.485
195, 50344.13, 44965.81, 187500.00, -187500.02, -150720.28, -187500.02, -187500.02, -187500.02, 0.000, 0.000, 0.000, 17:38:05.485
196, 50196.65, 44836.26, 187500.00, -187500.02, -150495.41, -187500.02, -187500.02, -187500.02, 0.000, 0.000, 0.000, 17:38:05.485
197, 50209.37, 44841.58, 187500.00, -187500.02, -150414.77, -187500.02, -187500.02, -187500.02, 0.004, -0.012, 1.022, 17:38:05.486
198, 50448.36, 45047.70, 187500.00, -187500.02, -150662.75, -187500.02, -187500.02, -187500.02, 0.000, 0.000, 0.000, 17:38:05.486
199, 50470.53, 45077.86, 187500.00, -187500.02, -150837.44, -187500.02, -187500.02, -187500.02, 0.000, 0.000, 0.000, 17:38:05.486
200, 50331.75, 44959.59, 187500.00, -187500.02, -150770.95, -187500.02, -187500.02, -187500.02, 0.000, 0.000, 0.000, 17:38:05.486
201, 50184.11, 44825.39, 187500.00, -187500.02, -150491.56, -187500.02, -187500.02, -187500.02, 0.000, 0.000, 0.000, 17:38:05.486
202, 50197.57, 44827.36, 187500.00, -187500.02, -150370.91, -187500.02, -187500.02, -187500.02, 0.000, 0.000, 0.000, 17:38:05.486
203, 50435.95, 45034.16, 187500.00, -187500.02, -150611.45, -187500.02, -187500.02, -187500.02, 0.000, 0.000, 0.000, 17:38:05.487
204, 50461.63, 45067.80, 187500.00, -187500.02, -150772.66, -187500.02, -187500.02, -187500.02, 0.000, 0.000, 0.000, 17:38:05.487
205, 50326.65, 44951.39, 187500.00, -187500.02, -150701.72, -187500.02, -187500.02, -187500.02, 0.000, 0.000, 0.000, 17:38:05.487
206, 50181.63, 44824.39, 187500.00, -187500.02, -150450.72, -187500.02, -187500.02, -187500.02, 0.000, 0.000, 0.000, 17:38:05.487
207, 50190.53, 44825.48, 187500.00, -187500.02, -150331.08, -187500.02, -187500.02, -187500.02, 0.008, -0.004, 1.024, 17:38:05.487
208, 50437.40, 45039.19, 187500.00, -187500.02, -150625.58, -187500.02, -187500.02, -187500.02, 0.000, 0.000, 0.000, 17:38:05.487
209, 50463.75, 45077.59, 187500.00, -187500.02, -150817.73, -187500.02, -187500.02, -187500.02, 0.000, 0.000, 0.000, 17:38:05.488
210, 50329.93, 44961.18, 187500.00, -187500.02, -150736.67, -187500.02, -187500.02, -187500.02, 0.000, 0.000, 0.000, 17:38:05.488
211, 50190.71, 44832.90, 187500.00, -187500.02, -150479.88, -187500.02, -187500.02, -187500.02, 0.000, 0.000, 0.000, 17:38:05.488
212, 50193.72, 44823.83, 187500.00, -187500.02, -150402.02, -187500.02, -187500.02, -187500.02, 0.000, 0.000, 0.000, 17:38:05.488
213, 50429.13, 45026.43, 187500.00, -187500.02, -150668.28, -187500.02, -187500.02, -187500.02, 0.000, 0.000, 0.000, 17:38:05.488
214, 50467.13, 45071.35, 187500.00, -187500.02, -150864.19, -187500.02, -187500.02, -187500.02, 0.000, 0.000, 0.000, 17:38:05.488
215, 50326.25, 44954.00, 187500.00, -187500.02, -150780.44, -187500.02, -187500.02, -187500.02, 0.000, 0.000, 0.000, 17:38:05.489
216, 50180.34, 44821.66, 187500.00, -187500.02, -150494.42, -187500.02, -187500.02, -187500.02, 0.000, 0.000, 0.000, 17:38:05.489
217, 50185.50, 44814.53, 187500.00, -187500.02, -150362.58, -187500.02, -187500.02, -187500.02, 0.008, -0.010, 1.030, 17:38:05.489
218, 50426.18, 45025.09, 187500.00, -187500.02, -150598.14, -187500.02, -187500.02, -187500.02, 0.000, 0.000, 0.000, 17:38:05.489
219, 50457.03, 45067.82, 187500.00, -187500.02, -150763.83, -187500.02, -187500.02, -187500.02, 0.000, 0.000, 0.000, 17:38:05.489
220, 50331.84, 44961.43, 187500.00, -187500.02, -150716.95, -187500.02, -187500.02, -187500.02, 0.000, 0.000, 0.000, 17:38:05.489
221, 50192.36, 44833.20, 187500.00, -187500.02, -150453.09, -187500.02, -187500.02, -187500.02, 0.000, 0.000, 0.000, 17:38:05.490
222, 50192.20, 44822.64, 187500.00, -187500.02, -150355.53, -187500.02, -187500.02, -187500.02, 0.000, 0.000, 0.000, 17:38:05.490
223, 50427.39, 45027.18, 187500.00, -187500.02, -150612.69, -187500.02, -187500.02, -187500.02, 0.000, 0.000, 0.000, 17:38:05.490
224, 50461.03, 45067.89, 187500.00, -187500.02, -150751.11, -187500.02, -187500.02, -187500.02, 0.000, 0.000, 0.000, 17:38:05.740
225, 50338.88, 44963.71, 187500.00, -187500.02, -150685.16, -187500.02, -187500.02, -187500.02, 0.000, 0.000, 0.000, 17:38:05.740
226, 50194.73, 44833.66, 187500.00, -187500.02, -150459.16, -187500.02, -187500.02, -187500.02, 0.000, 0.000, 0.000, 17:38:05.740
227, 50186.53, 44816.99, 187500.00, -187500.02, -150395.52, -187500.02, -187500.02, -187500.02, 0.010, -0.006, 1.030, 17:38:05.740
228, 50419.41, 45022.85, 187500.00, -187500.02, -150630.02, -187500.02, -187500.02, -187500.02, 0.000, 0.000, 0.000, 17:38:05.741
229, 50461.18, 45071.42, 187500.00, -187500.02, -150812.83, -187500.02, -187500.02, -187500.02, 0.000, 0.000, 0.000, 17:38:05.741
230, 50336.02, 44962.45, 187500.00, -187500.02, -150792.81, -187500.02, -187500.02, -187500.02, 0.000, 0.000, 0.000, 17:38:05.741
231, 50184.18, 44826.33, 187500.00, -187500.02, -150516.50, -187500.02, -187500.02, -187500.02, 0.000, 0.000, 0.000, 17:38:05.741
232, 50176.34, 44813.43, 187500.00, -187500.02, -150366.59, -187500.02, -187500.02, -187500.02, 0.000, 0.000, 0.000, 17:38:05.741
233, 50413.48, 45022.36, 187500.00, -187500.02, -150582.56, -187500.02, -187500.02, -187500.02, 0.000, 0.000, 0.000, 17:38:05.741
234, 50457.23, 45068.38, 187500.00, -187500.02, -150752.88, -187500.02, -187500.02, -187500.02, 0.000, 0.000, 0.000, 17:38:05.742
235, 50327.68, 44959.44, 187500.00, -187500.02, -150677.63, -187500.02, -187500.02, -187500.02, 0.000, 0.000, 0.000, 17:38:05.742
236, 50180.36, 44828.75, 187500.00, -187500.02, -150423.56, -187500.02, -187500.02, -187500.02, 0.000, 0.000, 0.000, 17:38:05.742
237, 50172.71, 44816.32, 187500.00, -187500.02, -150300.91, -187500.02, -187500.02, -187500.02, 0.008, -0.006, 1.028, 17:38:05.742
238, 50414.43, 45027.61, 187500.00, -187500.02, -150555.52, -187500.02, -187500.02, -187500.02, 0.000, 0.000, 0.000, 17:38:05.742
239, 50460.80, 45081.30, 187500.00, -187500.02, -150759.14, -187500.02, -187500.02, -187500.02, 0.000, 0.000, 0.000, 17:38:05.742
240, 50335.14, 44971.55, 187500.00, -187500.02, -150721.86, -187500.02, -187500.02, -187500.02, 0.000, 0.000, 0.000, 17:38:05.743
241, 50183.09, 44833.35, 187500.00, -187500.02, -150464.19, -187500.02, -187500.02, -187500.02, 0.000, 0.000, 0.000, 17:38:05.743
242, 50180.98, 44823.02, 187500.00, -187500.02, -150373.45, -187500.02, -187500.02, -187500.02, 0.000, 0.000, 0.000, 17:38:05.743
243, 50428.26, 45037.18, 187500.00, -187500.02, -150658.86, -187500.02, -187500.02, -187500.02, 0.000, 0.000, 0.000, 17:38:05.743
244, 50466.41, 45081.23, 187500.00, -187500.02, -150819.00, -187500.02, -187500.02, -187500.02, 0.000, 0.000, 0.000, 17:38:05.743
245, 50336.68, 44967.89, 187500.00, -187500.02, -150771.31, -187500.02, -187500.02, -187500.02, 0.000, 0.000, 0.000, 17:38:05.743
246, 50185.52, 44827.05, 187500.00, -187500.02, -150503.20, -187500.02, -187500.02, -187500.02, 0.000, 0.000, 0.000, 17:38:05.744
247, 50166.72, 44798.57, 187500.00, -187500.02, -150326.20, -187500.02, -187500.02, -187500.02, 0.006, -0.016, 1.028, 17:38:05.744
248, 50405.64, 45004.83, 187500.00, -187500.02, -150555.41, -187500.02, -187500.02, -187500.02, 0.000, 0.000, 0.000, 17:38:05.744
249, 50456.74, 45065.16, 187500.00, -187500.02, -150752.08, -187500.02, -187500.02, -187500.02, 0.000, 0.000, 0.000, 17:38:05.744
250, 50326.71, 44957.61, 187500.00, -187500.02, -150712.13, -187500.02, -187500.02, -187500.02, 0.000, 0.000, 0.000, 17:38:05.744
251, 50179.73, 44829.53, 187500.00, -187500.02, -150404.14, -187500.02, -187500.02, -187500.02, 0.000, 0.000, 0.000, 17:38:05.744
252, 50168.02, 44809.52, 187500.00, -187500.02, -150259.80, -187500.02, -187500.02, -187500.02, 0.000, 0.000, 0.000, 17:38:05.745
253, 50406.85, 45013.82, 187500.00, -187500.02, -150516.95, -187500.02, -187500.02, -187500.02, 0.000, 0.000, 0.000, 17:38:05.745
254, 50458.75, 45074.48, 187500.00, -187500.02, -150721.50, -187500.02, -187500.02, -187500.02, 0.000, 0.000, 0.000, 17:38:05.745
255, 50333.80, 44968.31, 187500.00, -187500.02, -150705.83, -187500.02, -187500.02, -187500.02, 0.000, 0.000, 0.000, 17:38:05.745
0, 50187.06, 44836.50, 187500.00, -187500.02, -150466.48, -187500.02, -187500.02, -187500.02, 0.000, 0.000, 0.000, 17:38:05.745
1, 50169.45, 44808.36, 187500.00, -187500.02, -150355.55, -187500.02, -187500.02, -187500.02, 0.008, -0.014, 1.028, 17:38:05.745
2, 50410.13, 45014.27, 187500.00, -187500.02, -150626.36, -187500.02, -187500.02, -187500.02, 0.000, 0.000, 0.000, 17:38:05.746
3, 50459.71, 45070.14, 187500.00, -187500.02, -150819.03, -187500.02, -187500.02, -187500.02, 0.000, 0.000, 0.000, 17:38:05.746
4, 50330.67, 44963.66, 187500.00, -187500.02, -150768.69, -187500.02, -187500.02, -187500.02, 0.000, 0.000, 0.000, 17:38:05.746
5, 50185.01, 44833.26, 187500.00, -187500.02, -150506.77, -187500.02, -187500.02, -187500.02, 0.000, 0.000, 0.000, 17:38:05.746
6, 50164.22, 44806.44, 187500.00, -187500.02, -150363.98, -187500.02, -187500.02, -187500.02, 0.000, 0.000, 0.000, 17:38:05.746
7, 50401.15, 45008.34, 187500.00, -187500.02, -150585.16, -187500.02, -187500.02, -187500.02, 0.000, 0.000, 0.000, 17:38:05.746
8, 50458.01, 45068.04, 187500.00, -187500.02, -150760.86, -187500.02, -187500.02, -187500.02, 0.000, 0.000, 0.000, 17:38:05.747
9, 50327.16, 44958.59, 187500.00, -187500.02, -150705.92, -187500.02, -187500.02, -187500.02, 0.000, 0.000, 0.000, 17:38:05.747
10, 50181.09, 44827.38, 187500.00, -187500.02, -150446.92, -187500.02, -187500.02, -187500.02, 0.000, 0.000, 0.000, 17:38:05.747
11, 50170.68, 44812.96, 187500.00, -187500.02, -150338.88, -187500.02, -187500.02, -187500.02, 0.004, -0.012, 1.030, 17:38:05.747
12, 50410.98, 45021.51, 187500.00, -187500.02, -150590.47, -187500.02, -187500.02, -187500.02, 0.000, 0.000, 0.000, 17:38:05.747
13, 50471.76, 45087.27, 187500.00, -187500.02, -150790.66, -187500.02, -187500.02, -187500.02, 0.000, 0.000, 0.000, 17:38:05.747
14, 50338.77, 44975.38, 187500.00, -187500.02, -150761.70, -187500.02, -187500.02, -187500.02, 0.000, 0.000, 0.000, 17:38:05.748
15, 50187.93, 44836.21, 187500.00, -187500.02, -150521.42, -187500.02, -187500.02, -187500.02, 0.000, 0.000, 0.000, 17:38:05.748
16, 50162.23, 44802.86, 187500.00, -187500.02, -150407.45, -187500.02, -187500.02, -187500.02, 0.000, 0.000, 0.000, 17:38:05.748
17, 50400.39, 45006.42, 187500.00, -187500.02, -150671.81, -187500.02, -187500.02, -187500.02, 0.000, 0.000, 0.000, 17:38:05.748
18, 50454.41, 45063.57, 187500.00, -187500.02, -150860.20, -187500.02, -187500.02, -187500.02, 0.000, 0.000, 0.000, 17:38:05.748
19, 50315.61, 44945.60, 187500.00, -187500.02, -150795.38, -187500.02, -187500.02, -187500.02, 0.000, 0.000, 0.000, 17:38:05.748
20, 50178.28, 44817.10, 187500.00, -187500.02, -150541.61, -187500.02, -187500.02, -187500.02, 0.004, -0.016, 1.022, 17:38:05.749
21, 50150.74, 44782.19, 187500.00, -187500.02, -150391.52, -187500.02, -187500.02, -187500.02, 0.000, 0.000, 0.000, 17:38:05.749
22, 50381.57, 44982.13, 187500.00, -187500.02, -150560.19, -187500.02, -187500.02, -187500.02, 0.000, 0.000, 0.000, 17:38:05.749
23, 50441.83, 45050.50, 187500.00, -187500.02, -150730.03, -187500.02, -187500.02, -187500.02, 0.000, 0.000, 0.000, 17:38:05.749
24, 50320.01, 44952.31, 187500.00, -187500.02, -150707.33, -187500.02, -187500.02, -187500.02, 0.000, 0.000, 0.000, 17:38:05.749
25, 50167.73, 44811.94, 187500.00, -187500.02, -150432.06, -187500.02, -187500.02, -187500.02, 0.000, 0.000, 0.000, 17:38:05.749
26, 50148.91, 44781.54, 187500.00, -187500.02, -150301.39, -187500.02, -187500.02, -187500.02, 0.000, 0.000, 0.000, 17:38:05.750
27, 50396.05, 44991.64, 187500.00, -187500.02, -150532.53, -187500.02, -187500.02, -187500.02, 0.000, 0.000, 0.000, 17:38:05.750
28, 50455.55, 45056.69, 187500.00, -187500.02, -150738.97, -187500.02, -187500.02, -187500.02, 0.000, 0.000, 0.000, 17:38:05.750
29, 50331.19, 44950.23, 187500.00, -187500.02, -150735.73, -187500.02, -187500.02, -187500.02, 0.000, 0.000, 0.000, 17:38:05.750
30, 50193.05, 44821.97, 187500.00, -187500.02, -150525.83, -187500.02, -187500.02, -187500.02, 0.006, -0.016, 1.022, 17:38:05.750
31, 50163.53, 44784.60, 187500.00, -187500.02, -150368.36, -187500.02, -187500.02, -187500.02, 0.000, 0.000, 0.000, 17:38:05.750
32, 50405.35, 44994.42, 187500.00, -187500.02, -150620.11, -187500.02, -187500.02, -187500.02, 0.000, 0.000, 0.000, 17:38:05.751
33, 50465.32, 45059.28, 187500.00, -187500.02, -150842.28, -187500.02, -187500.02, -187500.02, 0.000, 0.000, 0.000, 17:38:05.751
34, 50334.34, 44948.66, 187500.00, -187500.02, -150812.78, -187500.02, -187500.02, -187500.02, 0.000, 0.000, 0.000, 17:38:06.214
35, 50186.88, 44816.21, 187500.00, -187500.02, -150558.81, -187500.02, -187500.02, -187500.02, 0.000, 0.000, 0.000, 17:38:06.214
36, 50155.46, 44778.77, 187500.00, -187500.02, -150378.83, -187500.02, -187500.02, -187500.02, 0.000, 0.000, 0.000, 17:38:06.214
37, 50391.69, 44986.44, 187500.00, -187500.02, -150585.84, -187500.02, -187500.02, -187500.02, 0.000, 0.000, 0.000, 17:38:06.214
38, 50456.04, 45054.92, 187500.00, -187500.02, -150781.20, -187500.02, -187500.02, -187500.02, 0.000, 0.000, 0.000, 17:38:06.214
39, 50335.86, 44949.18, 187500.00, -187500.02, -150786.27, -187500.02, -187500.02, -187500.02, 0.000, 0.000, 0.000, 17:38:06.215
40, 50176.74, 44808.34, 187500.00, -187500.02, -150506.67, -187500.02, -187500.02, -187500.02, 0.006, -0.012, 1.024, 17:38:06.215
41, 50147.48, 44777.05, 187500.00, -187500.02, -150341.83, -187500.02, -187500.02, -187500.02, 0.000, 0.000, 0.000, 17:38:06.215
42, 50392.61, 44992.16, 187500.00, -187500.02, -150622.17, -187500.02, -187500.02, -187500.02, 0.000, 0.000, 0.000, 17:38:06.215
43, 50454.10, 45057.09, 187500.00, -187500.02, -150805.58, -187500.02, -187500.02, -187500.02, 0.000, 0.000, 0.000, 17:38:06.215
44, 50335.52, 44955.53, 187500.00, -187500.02, -150752.28, -187500.02, -187500.02, -187500.02, 0.000, 0.000, 0.000, 17:38:06.215
45, 50197.46, 44833.57, 187500.00, -187500.02, -150540.64, -187500.02, -187500.02, -187500.02, 0.000, 0.000, 0.000, 17:38:06.215
46, 50162.12, 44790.91, 187500.00, -187500.02, -150379.64, -187500.02, -187500.02, -187500.02, 0.000, 0.000, 0.000, 17:38:06.216
47, 50395.49, 44994.08, 187500.00, -187500.02, -150616.75, -187500.02, -187500.02, -187500.02, 0.000, 0.000, 0.000, 17:38:06.216
48, 50459.64, 45061.83, 187500.00, -187500.02, -150817.94, -187500.02, -187500.02, -187500.02, 0.000, 0.000, 0.000, 17:38:06.216
49, 50334.59, 44948.86, 187500.00, -187500.02, -150736.34, -187500.02, -187500.02, -187500.02, 0.000, 0.000, 0.000, 17:38:06.216
50, 50196.29, 44823.32, 187500.00, -187500.02, -150498.27, -187500.02, -187500.02, -187500.02, 0.008, -0.014, 1.030, 17:38:06.216
51, 50158.68, 44784.98, 187500.00, -187500.02, -150339.17, -187500.02, -187500.02, -187500.02, 0.000, 0.000, 0.000, 17:38:06.216
52, 50388.18, 44982.75, 187500.00, -187500.02, -150542.64, -187500.02, -187500.02, -187500.02, 0.000, 0.000, 0.000, 17:38:06.217
53, 50459.02, 45055.77, 187500.00, -187500.02, -150780.59, -187500.02, -187500.02, -187500.02, 0.000, 0.000, 0.000, 17:38:06.217
54, 50335.28, 44951.19, 187500.00, -187500.02, -150773.00, -187500.02, -187500.02, -187500.02, 0.000, 0.000, 0.000, 17:38:06.217
55, 50190.19, 44825.02, 187500.00, -187500.02, -150538.19, -187500.02, -187500.02, -187500.02, 0.000, 0.000, 0.000, 17:38:06.217
56, 50149.45, 44781.14, 187500.00, -187500.02, -150359.05, -187500.02, -187500.02, -187500.02, 0.000, 0.000, 0.000, 17:38:06.217
57, 50393.59, 44994.55, 187500.00, -187500.02, -150573.91, -187500.02, -187500.02, -187500.02, 0.000, 0.000, 0.000, 17:38:06.218
58, 50466.59, 45071.75, 187500.00, -187500.02, -150794.03, -187500.02, -187500.02, -187500.02, 0.000, 0.000, 0.000, 17:38:06.218
59, 50339.23, 44963.35, 187500.00, -187500.02, -150768.88, -187500.02, -187500.02, -187500.02, 0.000, 0.000, 0.000, 17:38:06.218
60, 50196.76, 44834.65, 187500.00, -187500.02, -150522.31, -187500.02, -187500.02, -187500.02, 0.002, -0.016, 1.024, 17:38:06.218
61, 50152.91, 44787.60, 187500.00, -187500.02, -150354.53, -187500.02, -187500.02, -187500.02, 0.000, 0.000, 0.000, 17:38:06.218
62, 50390.46, 44992.03, 187500.00, -187500.02, -150613.05, -187500.02, -187500.02, -187500.02, 0.000, 0.000, 0.000, 17:38:06.218
63, 50463.29, 45070.91, 187500.00, -187500.02, -150838.55, -187500.02, -187500.02, -187500.02, 0.000, 0.000, 0.000, 17:38:06.219
64, 50338.38, 44968.38, 187500.00, -187500.02, -150807.77, -187500.02, -187500.02, -187500.02, 0.000, 0.000, 0.000, 17:38:06.219
65, 50193.01, 44840.68, 187500.00, -187500.02, -150559.33, -187500.02, -187500.02, -187500.02, 0.000, 0.000, 0.000, 17:38:06.219
66, 50148.46, 44789.30, 187500.00, -187500.02, -150370.38, -187500.02, -187500.02, -187500.02, 0.000, 0.000, 0.000, 17:38:06.219
67, 50383.91, 44990.62, 187500.00, -187500.02, -150599.98, -187500.02, -187500.02, -187500.02, 0.000, 0.000, 0.000, 17:38:06.219
68, 50456.67, 45068.18, 187500.00, -187500.02, -150759.42, -187500.02, -187500.02, -187500.02, 0.000, 0.000, 0.000, 17:38:06.220
69, 50344.15, 44967.71, 187500.00, -187500.02, -150743.06, -187500.02, -187500.02, -187500.02, 0.000, 0.000, 0.000, 17:38:06.220
70, 50198.46, 44832.41, 187500.00, -187500.02, -150513.20, -187500.02, -187500.02, -187500.02, 0.010, -0.016, 1.026, 17:38:06.220
71, 50154.43, 44785.77, 187500.00, -187500.02, -150341.16, -187500.02, -187500.02, -187500.02, 0.000, 0.000, 0.000, 17:38:06.220
72, 50394.38, 44991.63, 187500.00, -187500.02, -150578.09, -187500.02, -187500.02, -187500.02, 0.000, 0.000, 0.000, 17:38:06.220
73, 50473.66, 45074.39, 187500.00, -187500.02, -150772.70, -187500.02, -187500.02, -187500.02, 0.000, 0.000, 0.000, 17:38:06.220
74, 50352.58, 44974.19, 187500.00, -187500.02, -150780.22, -187500.02, -187500.02, -187500.02, 0.000, 0.000, 0.000, 17:38:06.221
75, 50209.37, 44844.21, 187500.00, -187500.02, -150599.98, -187500.02, -187500.02, -187500.02, 0.000, 0.000, 0.000, 17:38:06.221
76, 50157.52, 44789.23, 187500.00, -187500.02, -150436.89, -187500.02, -187500.02, -187500.02, 0.000, 0.000, 0.000, 17:38:06.221
77, 50387.36, 44984.09, 187500.00, -187500.02, -150657.06, -187500.02, -187500.02, -187500.02, 0.000, 0.000, 0.000, 17:38:06.221
78, 50464.58, 45062.14, 187500.00, -187500.02, -150855.47, -187500.02, -187500.02, -187500.02, 0.000, 0.000, 0.000, 17:38:06.221
79, 50345.96, 44965.90, 187500.00, -187500.02, -150838.16, -187500.02, -187500.02, -187500.02, 0.000, 0.000, 0.000, 17:38:06.221
80, 50202.82, 44837.00, 187500.00, -187500.02, -150602.63, -187500.02, -187500.02, -187500.02, 0.012, -0.016, 1.026, 17:38:06.222
81, 50147.88, 44781.96, 187500.00, -187500.02, -150405.05, -187500.02, -187500.02, -187500.02, 0.000, 0.000, 0.000, 17:38:06.222
82, 50374.80, 44980.49, 187500.00, -187500.02, -150569.09, -187500.02, -187500.02, -187500.02, 0.000, 0.000, 0.000, 17:38:06.222
83, 50459.17, 45069.09, 187500.00, -187500.02, -150762.75, -187500.02, -187500.02, -187500.02, 0.000, 0.000, 0.000, 17:38:06.222
84, 50342.00, 44972.40, 187500.00, -187500.02, -150758.06, -187500.02, -187500.02, -187500.02, 0.000, 0.000, 0.000, 17:38:06.222
85, 50198.33, 44843.83, 187500.00, -187500.02, -150522.55, -187500.02, -187500.02, -187500.02, 0.000, 0.000, 0.000, 17:38:06.222
86, 50144.33, 44790.55, 187500.00, -187500.02, -150333.30, -187500.02, -187500.02, -187500.02, 0.000, 0.000, 0.000, 17:38:06.223
87, 50381.70, 44994.60, 187500.00, -187500.02, -150543.80, -187500.02, -187500.02, -187500.02, 0.000, 0.000, 0.000, 17:38:06.223
88, 50467.29, 45080.88, 187500.00, -187500.02, -150754.39, -187500.02, -187500.02, -187500.02, 0.000, 0.000, 0.000, 17:38:06.223
89, 50346.88, 44978.10, 187500.00, -187500.02, -150750.00, -187500.02, -187500.02, -187500.02, 0.000, 0.000, 0.000, 17:38:06.223
90, 50200.54, 44844.93, 187500.00, -187500.02, -150542.06, -187500.02, -187500.02, -187500.02, 0.008, -0.012, 1.026, 17:38:06.223
91, 50148.33, 44791.31, 187500.00, -187500.02, -150378.00, -187500.02, -187500.02, -187500.02, 0.000, 0.000, 0.000, 17:38:06.224
92, 50375.31, 44988.27, 187500.00, -187500.02, -150597.88, -187500.02, -187500.02, -187500.02, 0.000, 0.000, 0.000, 17:38:06.224
93, 50459.73, 45074.37, 187500.00, -187500.02, -150821.83, -187500.02, -187500.02, -187500.02, 0.000, 0.000, 0.000, 17:38:06.224
94, 50337.54, 44970.05, 187500.00, -187500.02, -150799.41, -187500.02, -187500.02, -187500.02, 0.000, 0.000, 0.000, 17:38:06.224
95, 50199.09, 44843.66, 187500.00, -187500.02, -150588.88, -187500.02, -187500.02, -187500.02, 0.000, 0.000, 0.000, 17:38:06.224
96, 50142.00, 44785.32, 187500.00, -187500.02, -150420.84, -187500.02, -187500.02, -187500.02, 0.000, 0.000, 0.000, 17:38:06.224
97, 50366.10, 44974.32, 187500.00, -187500.02, -150607.86, -187500.02, -187500.02, -187500.02, 0.000, 0.000, 0.000, 17:38:06.225
98, 50450.25, 45060.91, 187500.00, -187500.02, -150802.77, -187500.02, -187500.02, -187500.02, 0.000, 0.000, 0.000, 17:38:06.225
99, 50328.06, 44957.58, 187500.00, -187500.02, -150757.38, -187500.02, -187500.02, -187500.02, 0.000, 0.000, 0.000, 17:38:06.225
100, 50186.21, 44828.07, 187500.00, -187500.02, -150510.98, -187500.02, -187500.02, -187500.02, 0.008, -0.014, 1.024, 17:38:06.225
101, 50140.59, 44783.93, 187500.00, -187500.02, -150327.45, -187500.02, -187500.02, -187500.02, 0.000, 0.000, 0.000, 17:38:06.225
102, 50384.21, 44993.61, 187500.00, -187500.02, -150601.84, -187500.02, -187500.02, -187500.02, 0.000, 0.000, 0.000, 17:38:06.226
103, 50474.39, 45082.86, 187500.00, -187500.02, -150825.91, -187500.02, -187500.02, -187500.02, 0.000, 0.000, 0.000, 17:38:06.226
104, 50352.71, 44979.87, 187500.00, -187500.02, -150789.48, -187500.02, -187500.02, -187500.02, 0.000, 0.000, 0.000, 17:38:06.226
105, 50217.46, 44854.34, 187500.00, -187500.02, -150602.06, -187500.02, -187500.02, -187500.02, 0.000, 0.000, 0.000, 17:38:06.226
106, 50157.04, 44795.29, 187500.00, -187500.02, -150453.63, -187500.02, -187500.02, -187500.02, 0.000, 0.000, 0.000, 17:38:06.226
107, 50374.93, 44985.07, 187500.00, -187500.02, -150664.86, -187500.02, -187500.02, -187500.02, 0.000, 0.000, 0.000, 17:38:06.226
108, 50466.97, 45078.80, 187500.00, -187500.02, -150894.92, -187500.02, -187500.02, -187500.02, 0.000, 0.000, 0.000, 17:38:06.227
109, 50346.32, 44978.84, 187500.00, -187500.02, -150883.84, -187500.02, -187500.02, -187500.02, 0.000, 0.000, 0.000, 17:38:06.227
110, 50204.92, 44850.18, 187500.00, -187500.02, -150684.44, -187500.02, -187500.02, -187500.02, 0.010, -0.014, 1.024, 17:38:06.227
111, 50134.71, 44781.43, 187500.00, -187500.02, -150495.94, -187500.02, -187500.02, -187500.02, 0.000, 0.000, 0.000, 17:38:06.227
112, 50362.26, 44975.20, 187500.00, -187500.02, -150682.80, -187500.02, -187500.02, -187500.02, 0.000, 0.000, 0.000, 17:38:06.227
113, 50456.54, 45068.25, 187500.00, -187500.02, -150860.56, -187500.02, -187500.02, -187500.02, 0.000, 0.000, 0.000, 17:38:06.228
114, 50337.11, 44969.92, 187500.00, -187500.02, -150812.13, -187500.02, -187500.02, -187500.02, 0.000, 0.000, 0.000, 17:38:06.228
115, 50202.53, 44846.70, 187500.00, -187500.02, -150602.06, -187500.02, -187500.02, -187500.02, 0.000, 0.000, 0.000, 17:38:06.228
116, 50133.31, 44777.27, 187500.00, -187500.02, -150392.17, -187500.02, -187500.02, -187500.02, 0.000, 0.000, 0.000, 17:38:06.228
117, 50368.27, 44977.63, 187500.00, -187500.02, -150605.92, -187500.02, -187500.02, -187500.02, 0.000, 0.000, 0.000, 17:38:06.228
118, 50465.43, 45070.46, 187500.00, -187500.02, -150827.44, -187500.02, -187500.02, -187500.02, 0.000, 0.000, 0.000, 17:38:06.228
119, 50347.35, 44972.47, 187500.00, -187500.02, -150818.81, -187500.02, -187500.02, -187500.02, 0.000, 0.000, 0.000, 17:38:06.229
120, 50205.55, 44845.60, 187500.00, -187500.02, -150619.89, -187500.02, -187500.02, -187500.02, 0.012, -0.010, 1.022, 17:38:06.229
121, 50138.85, 44780.40, 187500.00, -187500.02, -150426.20, -187500.02, -187500.02, -187500.02, 0.000, 0.000, 0.000, 17:38:06.229
122, 50368.11, 44976.56, 187500.00, -187500.02, -150651.73, -187500.02, -187500.02, -187500.02, 0.000, 0.000, 0.000, 17:38:06.229
123, 50459.80, 45068.80, 187500.00, -187500.02, -150902.86, -187500.02, -187500.02, -187500.02, 0.000, 0.000, 0.000, 17:38:06.229
124, 50331.10, 44959.15, 187500.00, -187500.02, -150894.41, -187500.02, -187500.02, -187500.02, 0.000, 0.000, 0.000, 17:38:06.229
125, 50188.43, 44829.33, 187500.00, -187500.02, -150653.41, -187500.02, -187500.02, -187500.02, 0.000, 0.000, 0.000, 17:38:06.230
126, 50130.11, 44771.10, 187500.00, -187500.02, -150454.34, -187500.02, -187500.02, -187500.02, 0.000, 0.000, 0.000, 17:38:06.230
127, 50362.46, 44968.76, 187500.00, -187500.02, -150686.34, -187500.02, -187500.02, -187500.02, 0.000, 0.000, 0.000, 17:38:06.230
128, 50460.54, 45068.78, 187500.00, -187500.02, -150895.86, -187500.02, -187500.02, -187500.02, 0.000, 0.000, 0.000, 17:38:06.230
129, 50343.52, 44973.30, 187500.00, -187500.02, -150865.34, -187500.02, -187500.02, -187500.02, 0.000, 0.000, 0.000, 17:38:06.230
130, 50195.89, 44837.17, 187500.00, -187500.02, -150581.78, -187500.02, -187500.02, -187500.02, 0.008, -0.014, 1.030, 17:38:06.230
131, 50127.90, 44769.16, 187500.00, -187500.02, -150382.11, -187500.02, -187500.02, -187500.02, 0.000, 0.000, 0.000, 17:38:06.231
132, 50366.21, 44972.25, 187500.00, -187500.02, -150640.72, -187500.02, -187500.02, -187500.02, 0.000, 0.000, 0.000, 17:38:06.231
133, 50463.91, 45070.61, 187500.00, -187500.02, -150856.70, -187500.02, -187500.02, -187500.02, 0.000, 0.000, 0.000, 17:38:06.231
134, 50347.04, 44973.18, 187500.00, -187500.02, -150862.61, -187500.02, -187500.02, -187500.02, 0.000, 0.000, 0.000, 17:38:06.231
135, 50208.59, 44848.17, 187500.00, -187500.02, -150676.88, -187500.02, -187500.02, -187500.02, 0.000, 0.000, 0.000, 17:38:06.231
136, 50136.10, 44778.90, 187500.00, -187500.02, -150484.13, -187500.02, -187500.02, -187500.02, 0.000, 0.000, 0.000, 17:38:06.231
137, 50353.85, 44964.42, 187500.00, -187500.02, -150695.59, -187500.02, -187500.02, -187500.02, 0.000, 0.000, 0.000, 17:38:06.232
138, 50457.47, 45064.69, 187500.00, -187500.02, -150906.88, -187500.02, -187500.02, -187500.02, 0.000, 0.000, 0.000, 17:38:06.232
139, 50340.06, 44969.38, 187500.00, -187500.02, -150890.97, -187500.02, -187500.02, -187500.02, 0.006, -0.016, 1.024, 17:38:06.232
140, 50193.90, 44839.97, 187500.00, -187500.02, -150664.09, -187500.02, -187500.02, -187500.02, 0.000, 0.000, 0.000, 17:38:06.232
141, 50115.36, 44767.79, 187500.00, -187500.02, -150426.56, -187500.02, -187500.02, -187500.02, 0.000, 0.000, 0.000, 17:38:06.232
142, 50341.38, 44955.64, 187500.00, -187500.02, -150627.84, -187500.02, -187500.02, -187500.02, 0.000, 0.000, 0.000, 17:38:06.232
143, 50445.41, 45057.85, 187500.00, -187500.02, -150852.09, -187500.02, -187500.02, -187500.02, 0.000, 0.000, 0.000, 17:38:06.233
144, 50332.80, 44965.07, 187500.00, -187500.02, -150816.64, -187500.02, -187500.02, -187500.02, 0.000, 0.000, 0.000, 17:38:06.233
145, 50192.25, 44836.95, 187500.00, -187500.02, -150602.19, -187500.02, -187500.02, -187500.02, 0.000, 0.000, 0.000, 17:38:06.233
146, 50116.57, 44761.65, 187500.00, -187500.02, -150391.27, -187500.02, -187500.02, -187500.02, 0.000, 0.000, 0.000, 17:38:06.233
147, 50344.80, 44957.94, 187500.00, -187500.02, -150585.91, -187500.02, -187500.02, -187500.02, 0.000, 0.000, 0.000, 17:38:06.233
148, 50457.30, 45068.87, 187500.00, -187500.02, -150824.52, -187500.02, -187500.02, -187500.02, 0.000, 0.000, 0.000, 17:38:06.233
149, 50342.00, 44974.99, 187500.00, -187500.02, -150830.50, -187500.02, -187500.02, -187500.02, 0.006, -0.014, 1.026, 17:38:06.234
150, 50209.64, 44853.67, 187500.00, -187500.02, -150659.00, -187500.02, -187500.02, -187500.02, 0.000, 0.000, 0.000, 17:38:06.234
151, 50132.88, 44776.60, 187500.00, -187500.02, -150486.83, -187500.02, -187500.02, -187500.02, 0.000, 0.000, 0.000, 17:38:06.234
152, 50350.77, 44960.98, 187500.00, -187500.02, -150683.72, -187500.02, -187500.02, -187500.02, 0.000, 0.000, 0.000, 17:38:06.234
153, 50454.75, 45063.21, 187500.00, -187500.02, -150903.94, -187500.02, -187500.02, -187500.02, 0.000, 0.000, 0.000, 17:38:06.234
154, 50338.32, 44964.04, 187500.00, -187500.02, -150895.38, -187500.02, -187500.02, -187500.02, 0.000, 0.000, 0.000, 17:38:06.694
155, 50196.52, 44836.26, 187500.00, -187500.02, -150669.13, -187500.02, -187500.02, -187500.02, 0.000, 0.000, 0.000, 17:38:06.694
156, 50118.93, 44764.60, 187500.00, -187500.02, -150425.83, -187500.02, -187500.02, -187500.02, 0.000, 0.000, 0.000, 17:38:06.694
157, 50339.79, 44947.86, 187500.00, -187500.02, -150559.95, -187500.02, -187500.02, -187500.02, 0.000, 0.000, 0.000, 17:38:06.694
158, 50460.16, 45055.30, 187500.00, -187500.02, -150788.70, -187500.02, -187500.02, -187500.02, 0.000, 0.000, 0.000, 17:38:06.694
159, 50344.84, 44960.18, 187500.00, -187500.02, -150781.80, -187500.02, -187500.02, -187500.02, 0.012, -0.008, 1.026, 17:38:06.694
160, 50193.93, 44830.73, 187500.00, -187500.02, -150564.00, -187500.02, -187500.02, -187500.02, 0.000, 0.000, 0.000, 17:38:06.695
161, 50112.81, 44755.03, 187500.00, -187500.02, -150343.23, -187500.02, -187500.02, -187500.02, 0.000, 0.000, 0.000, 17:38:06.695
162, 50336.55, 44945.91, 187500.00, -187500.02, -150559.98, -187500.02, -187500.02, -187500.02, 0.000, 0.000, 0.000, 17:38:06.695
163, 50454.23, 45061.34, 187500.00, -187500.02, -150859.30, -187500.02, -187500.02, -187500.02, 0.000, 0.000, 0.000, 17:38:06.695
164, 50338.05, 44967.82, 187500.00, -187500.02, -150856.09, -187500.02, -187500.02, -187500.02, 0.000, 0.000, 0.000, 17:38:06.695
165, 50195.33, 44838.25, 187500.00, -187500.02, -150641.14, -187500.02, -187500.02, -187500.02, 0.000, 0.000, 0.000, 17:38:06.695
166, 50119.79, 44758.90, 187500.00, -187500.02, -150431.70, -187500.02, -187500.02, -187500.02, 0.000, 0.000, 0.000, 17:38:06.696
167, 50344.55, 44950.00, 187500.00, -187500.02, -150656.66, -187500.02, -187500.02, -187500.02, 0.000, 0.000, 0.000, 17:38:06.696
168, 50466.53, 45067.48, 187500.00, -187500.02, -150936.98, -187500.02, -187500.02, -187500.02, 0.000, 0.000, 0.000, 17:38:06.696
169, 50346.77, 44965.67, 187500.00, -187500.02, -150927.75, -187500.02, -187500.02, -187500.02, 0.008, -0.008, 1.030, 17:38:06.696
170, 50203.54, 44837.73, 187500.00, -187500.02, -150704.78, -187500.02, -187500.02, -187500.02, 0.000, 0.000, 0.000, 17:38:06.696
171, 50119.72, 44759.39, 187500.00, -187500.02, -150454.14, -187500.02, -187500.02, -187500.02, 0.000, 0.000, 0.000, 17:38:06.696
172, 50340.35, 44947.48, 187500.00, -187500.02, -150651.56, -187500.02, -187500.02, -187500.02, 0.000, 0.000, 0.000, 17:38:06.697
173, 50462.82, 45067.80, 187500.00, -187500.02, -150884.44, -187500.02, -187500.02, -187500.02, 0.000, 0.000, 0.000, 17:38:06.697
174, 50350.36, 44977.27, 187500.00, -187500.02, -150887.50, -187500.02, -187500.02, -187500.02, 0.000, 0.000, 0.000, 17:38:06.697
175, 50213.84, 44849.96, 187500.00, -187500.02, -150671.66, -187500.02, -187500.02, -187500.02, 0.000, 0.000, 0.000, 17:38:06.697
176, 50137.15, 44774.79, 187500.00, -187500.02, -150460.11, -187500.02, -187500.02, -187500.02, 0.000, 0.000, 0.000, 17:38:06.697
177, 50346.81, 44954.86, 187500.00, -187500.02, -150659.05, -187500.02, -187500.02, -187500.02, 0.000, 0.000, 0.000, 17:38:06.697
178, 50467.31, 45073.14, 187500.00, -187500.02, -150902.09, -187500.02, -187500.02, -187500.02, 0.000, 0.000, 0.000, 17:38:06.698
179, 50354.90, 44981.63, 187500.00, -187500.02, -150910.17, -187500.02, -187500.02, -187500.02, 0.010, -0.008, 1.026, 17:38:06.698
180, 50217.82, 44857.82, 187500.00, -187500.02, -150727.28, -187500.02, -187500.02, -187500.02, 0.000, 0.000, 0.000, 17:38:06.698
181, 50129.84, 44774.05, 187500.00, -187500.02, -150520.06, -187500.02, -187500.02, -187500.02, 0.000, 0.000, 0.000, 17:38:06.698
182, 50337.56, 44949.54, 187500.00, -187500.02, -150726.41, -187500.02, -187500.02, -187500.02, 0.000, 0.000, 0.000, 17:38:06.698
183, 50449.36, 45057.09, 187500.00, -187500.02, -150943.58, -187500.02, -187500.02, -187500.02, 0.000, 0.000, 0.000, 17:38:06.699
184, 50336.21, 44962.01, 187500.00, -187500.02, -150890.66, -187500.02, -187500.02, -187500.02, 0.000, 0.000, 0.000, 17:38:06.699
185, 50194.04, 44831.25, 187500.00, -187500.02, -150704.33, -187500.02, -187500.02, -187500.02, 0.000, 0.000, 0.000, 17:38:06.699
186, 50102.84, 44745.20, 187500.00, -187500.02, -150472.41, -187500.02, -187500.02, -187500.02, 0.000, 0.000, 0.000, 17:38:06.699
187, 50317.60, 44929.89, 187500.00, -187500.02, -150633.45, -187500.02, -187500.02, -187500.02, 0.000, 0.000, 0.000, 17:38:06.699
188, 50442.95, 45048.20, 187500.00, -187500.02, -150858.89, -187500.02, -187500.02, -187500.02, 0.000, 0.000, 0.000, 17:38:06.699
189, 50333.63, 44958.36, 187500.00, -187500.02, -150828.03, -187500.02, -187500.02, -187500.02, 0.014, -0.008, 1.022, 17:38:06.700
190, 50201.17, 44840.21, 187500.00, -187500.02, -150635.22, -187500.02, -187500.02, -187500.02, 0.000, 0.000, 0.000, 17:38:06.700
191, 50112.92, 44757.42, 187500.00, -187500.02, -150448.14, -187500.02, -187500.02, -187500.02, 0.000, 0.000, 0.000, 17:38:06.700
192, 50324.91, 44936.75, 187500.00, -187500.02, -150636.20, -187500.02, -187500.02, -187500.02, 0.000, 0.000, 0.000, 17:38:06.700
193, 50450.88, 45056.82, 187500.00, -187500.02, -150880.13, -187500.02, -187500.02, -187500.02, 0.000, 0.000, 0.000, 17:38:06.700
194, 50344.38, 44969.23, 187500.00, -187500.02, -150912.84, -187500.02, -187500.02, -187500.02, 0.000, 0.000, 0.000, 17:38:06.700
195, 50213.59, 44849.42, 187500.00, -187500.02, -150723.06, -187500.02, -187500.02, -187500.02, 0.000, 0.000, 0.000, 17:38:06.701
196, 50125.80, 44764.75, 187500.00, -187500.02, -150500.28, -187500.02, -187500.02, -187500.02, 0.000, 0.000, 0.000, 17:38:06.701
197, 50335.68, 44941.98, 187500.00, -187500.02, -150692.19, -187500.02, -187500.02, -187500.02, 0.000, 0.000, 0.000, 17:38:06.701
198, 50463.04, 45064.42, 187500.00, -187500.02, -150947.16, -187500.02, -187500.02, -187500.02, 0.000, 0.000, 0.000, 17:38:06.701
199, 50352.62, 44969.16, 187500.00, -187500.02, -150938.63, -187500.02, -187500.02, -187500.02, 0.008, -0.006, 1.024, 17:38:06.701
200, 50215.67, 44844.04, 187500.00, -187500.02, -150734.55, -187500.02, -187500.02, -187500.02, 0.000, 0.000, 0.000, 17:38:06.701
201, 50122.58, 44759.34, 187500.00, -187500.02, -150518.67, -187500.02, -187500.02, -187500.02, 0.000, 0.000, 0.000, 17:38:06.702
202, 50333.15, 44932.50, 187500.00, -187500.02, -150688.64, -187500.02, -187500.02, -187500.02, 0.000, 0.000, 0.000, 17:38:06.702
203, 50457.90, 45050.01, 187500.00, -187500.02, -150888.80, -187500.02, -187500.02, -187500.02, 0.000, 0.000, 0.000, 17:38:06.702
204, 50347.55, 44960.84, 187500.00, -187500.02, -150884.75, -187500.02, -187500.02, -187500.02, 0.000, 0.000, 0.000, 17:38:06.702
205, 50210.96, 44840.68, 187500.00, -187500.02, -150659.77, -187500.02, -187500.02, -187500.02, 0.000, 0.000, 0.000, 17:38:06.702
206, 50119.18, 44756.10, 187500.00, -187500.02, -150419.30, -187500.02, -187500.02, -187500.02, 0.000, 0.000, 0.000, 17:38:06.702
207, 50329.24, 44932.39, 187500.00, -187500.02, -150578.38, -187500.02, -187500.02, -187500.02, 0.000, 0.000, 0.000, 17:38:06.703
208, 50464.79, 45061.99, 187500.00, -187500.02, -150833.45, -187500.02, -187500.02, -187500.02, 0.000, 0.000, 0.000, 17:38:06.703
209, 50356.76, 44975.71, 187500.00, -187500.02, -150894.03, -187500.02, -187500.02, -187500.02, 0.010, -0.012, 1.026, 17:38:06.703
210, 50217.44, 44852.39, 187500.00, -187500.02, -150735.72, -187500.02, -187500.02, -187500.02, 0.000, 0.000, 0.000, 17:38:06.703
211, 50125.17, 44762.70, 187500.00, -187500.02, -150507.97, -187500.02, -187500.02, -187500.02, 0.000, 0.000, 0.000, 17:38:06.703
212, 50330.45, 44934.36, 187500.00, -187500.02, -150679.55, -187500.02, -187500.02, -187500.02, 0.000, 0.000, 0.000, 17:38:06.704
213, 50461.32, 45060.76, 187500.00, -187500.02, -150932.78, -187500.02, -187500.02, -187500.02, 0.000, 0.000, 0.000, 17:38:06.704
214, 50359.73, 44977.95, 187500.00, -187500.02, -150958.11, -187500.02, -187500.02, -187500.02, 0.000, 0.000, 0.000, 17:38:06.704
215, 50218.22, 44853.60, 187500.00, -187500.02, -150726.80, -187500.02, -187500.02, -187500.02, 0.000, 0.000, 0.000, 17:38:06.704
216, 50122.36, 44767.86, 187500.00, -187500.02, -150482.84, -187500.02, -187500.02, -187500.02, 0.000, 0.000, 0.000, 17:38:06.704
217, 50324.91, 44935.97, 187500.00, -187500.02, -150653.34, -187500.02, -187500.02, -187500.02, 0.000, 0.000, 0.000, 17:38:06.704
218, 50460.71, 45064.76, 187500.00, -187500.02, -150885.64, -187500.02, -187500.02, -187500.02, 0.000, 0.000, 0.000, 17:38:06.705
219, 50356.02, 44979.89, 187500.00, -187500.02, -150909.81, -187500.02, -187500.02, -187500.02, 0.008, -0.008, 1.024, 17:38:06.705
220, 50210.91, 44847.77, 187500.00, -187500.02, -150676.02, -187500.02, -187500.02, -187500.02, 0.000, 0.000, 0.000, 17:38:06.705
221, 50115.11, 44756.21, 187500.00, -187500.02, -150428.59, -187500.02, -187500.02, -187500.02, 0.000, 0.000, 0.000, 17:38:06.705
222, 50329.22, 44933.84, 187500.00, -187500.02, -150609.64, -187500.02, -187500.02, -187500.02, 0.000, 0.000, 0.000, 17:38:06.705
223, 50465.79, 45065.56, 187500.00, -187500.02, -150875.36, -187500.02, -187500.02, -187500.02, 0.000, 0.000, 0.000, 17:38:06.705
224, 50359.04, 44980.71, 187500.00, -187500.02, -150914.97, -187500.02, -187500.02, -187500.02, 0.000, 0.000, 0.000, 17:38:06.706
225, 50220.37, 44853.96, 187500.00, -187500.02, -150757.38, -187500.02, -187500.02, -187500.02, 0.000, 0.000, 0.000, 17:38:06.706
226, 50123.52, 44761.89, 187500.00, -187500.02, -150540.22, -187500.02, -187500.02, -187500.02, 0.000, 0.000, 0.000, 17:38:06.706
227, 50319.50, 44924.99, 187500.00, -187500.02, -150698.31, -187500.02, -187500.02, -187500.02, 0.000, 0.000, 0.000, 17:38:06.706
228, 50456.74, 45056.29, 187500.00, -187500.02, -150929.20, -187500.02, -187500.02, -187500.02, 0.000, 0.000, 0.000, 17:38:06.706
229, 50356.87, 44974.59, 187500.00, -187500.02, -150941.38, -187500.02, -187500.02, -187500.02, 0.010, -0.014, 1.030, 17:38:06.707
230, 50225.02, 44856.73, 187500.00, -187500.02, -150777.06, -187500.02, -187500.02, -187500.02, 0.000, 0.000, 0.000, 17:38:06.707
231, 50119.23, 44754.98, 187500.00, -187500.02, -150554.06, -187500.02, -187500.02, -187500.02, 0.000, 0.000, 0.000, 17:38:06.707
232, 50311.00, 44914.53, 187500.00, -187500.02, -150688.22, -187500.02, -187500.02, -187500.02, 0.000, 0.000, 0.000, 17:38:06.707
233, 50454.43, 45047.97, 187500.00, -187500.02, -150913.31, -187500.02, -187500.02, -187500.02, 0.000, 0.000, 0.000, 17:38:06.707
234, 50352.58, 44965.92, 187500.00, -187500.02, -150920.61, -187500.02, -187500.02, -187500.02, 0.000, 0.000, 0.000, 17:38:06.707
235, 50215.09, 44842.56, 187500.00, -187500.02, -150713.27, -187500.02, -187500.02, -187500.02, 0.000, 0.000, 0.000, 17:38:06.707
236, 50116.05, 44749.06, 187500.00, -187500.02, -150456.05, -187500.02, -187500.02, -187500.02, 0.000, 0.000, 0.000, 17:38:06.708
237, 50322.67, 44924.28, 187500.00, -187500.02, -150632.20, -187500.02, -187500.02, -187500.02, 0.000, 0.000, 0.000, 17:38:06.708
238, 50470.04, 45066.82, 187500.00, -187500.02, -150919.00, -187500.02, -187500.02, -187500.02, 0.000, 0.000, 0.000, 17:38:06.708
239, 50374.19, 44991.27, 187500.00, -187500.02, -150977.78, -187500.02, -187500.02, -187500.02, 0.010, -0.010, 1.028, 17:38:06.708
240, 50238.90, 44867.15, 187500.00, -187500.02, -150795.69, -187500.02, -187500.02, -187500.02, 0.000, 0.000, 0.000, 17:38:06.708
241, 50133.75, 44766.43, 187500.00, -187500.02, -150562.66, -187500.02, -187500.02, -187500.02, 0.000, 0.000, 0.000, 17:38:06.708
242, 50319.88, 44922.87, 187500.00, -187500.02, -150696.33, -187500.02, -187500.02, -187500.02, 0.000, 0.000, 0.000, 17:38:06.708
243, 50458.75, 45054.68, 187500.00, -187500.02, -150923.98, -187500.02, -187500.02, -187500.02, 0.000, 0.000, 0.000, 17:38:06.708
244, 50363.98, 44975.82, 187500.00, -187500.02, -150934.94, -187500.02, -187500.02, -187500.02, 0.000, 0.000, 0.000, 17:38:06.709
245, 50230.70, 44856.17, 187500.00, -187500.02, -150771.66, -187500.02, -187500.02, -187500.02, 0.000, 0.000, 0.000, 17:38:06.709
246, 50122.18, 44752.93, 187500.00, -187500.02, -150556.25, -187500.02, -187500.02, -187500.02, 0.000, 0.000, 0.000, 17:38:06.709
247, 50310.40, 44905.73, 187500.00, -187500.02, -150683.66, -187500.02, -187500.02, -187500.02, 0.000, 0.000, 0.000, 17:38:06.709
248, 50460.02, 45048.40, 187500.00, -187500.02, -150930.53, -187500.02, -187500.02, -187500.02, 0.000, 0.000, 0.000, 17:38:06.709
249, 50363.13, 44974.12, 187500.00, -187500.02, -150998.64, -187500.02, -187500.02, -187500.02, 0.012, -0.010, 1.022, 17:38:06.709
250, 50217.86, 44845.73, 187500.00, -187500.02, -150782.00, -187500.02, -187500.02, -187500.02, 0.000, 0.000, 0.000, 17:38:06.710
251, 50112.00, 44746.74, 187500.00, -187500.02, -150505.38, -187500.02, -187500.02, -187500.02, 0.000, 0.000, 0.000, 17:38:06.710
252, 50308.84, 44908.77, 187500.00, -187500.02, -150651.28, -187500.02, -187500.02, -187500.02, 0.000, 0.000, 0.000, 17:38:06.710
253, 50464.52, 45055.06, 187500.00, -187500.02, -150917.05, -187500.02, -187500.02, -187500.02, 0.000, 0.000, 0.000, 17:38:06.710
254, 50362.30, 44975.64, 187500.00, -187500.02, -150992.89, -187500.02, -187500.02, -187500.02, 0.000, 0.000, 0.000, 17:38:06.710
255, 50229.31, 44858.47, 187500.00, -187500.02, -150802.13, -187500.02, -187500.02, -187500.02, 0.000, 0.000, 0.000, 17:38:06.711
0, 50124.66, 44760.08, 187500.00, -187500.02, -150563.14, -187500.02, -187500.02, -187500.02, 0.000, 0.000, 0.000, 17:38:06.711
1, 50310.54, 44914.44, 187500.00, -187500.02, -150706.61, -187500.02, -187500.02, -187500.02, 0.000, 0.000, 0.000, 17:38:06.711
2, 50458.32, 45051.48, 187500.00, -187500.02, -150957.63, -187500.02, -187500.02, -187500.02, 0.000, 0.000, 0.000, 17:38:06.711
3, 50366.37, 44978.55, 187500.00, -187500.02, -150997.23, -187500.02, -187500.02, -187500.02, 0.010, -0.018, 1.032, 17:38:06.711
4, 50225.22, 44853.60, 187500.00, -187500.02, -150826.81, -187500.02, -187500.02, -187500.02, 0.000, 0.000, 0.000, 17:38:06.711
5, 50111.31, 44746.43, 187500.00, -187500.02, -150553.70, -187500.02, -187500.02, -187500.02, 0.000, 0.000, 0.000, 17:38:06.712
6, 50299.27, 44904.39, 187500.00, -187500.02, -150686.42, -187500.02, -187500.02, -187500.02, 0.000, 0.000, 0.000, 17:38:06.712
7, 50450.88, 45045.09, 187500.00, -187500.02, -150921.92, -187500.02, -187500.02, -187500.02, 0.000, 0.000, 0.000, 17:38:06.712
8, 50357.20, 44968.64, 187500.00, -187500.02, -150935.98, -187500.02, -187500.02, -187500.02, 0.000, 0.000, 0.000, 17:38:06.712
9, 50222.87, 44848.46, 187500.00, -187500.02, -150761.97, -187500.02, -187500.02, -187500.02, 0.000, 0.000, 0.000, 17:38:06.712
10, 50116.54, 44749.44, 187500.00, -187500.02, -150519.22, -187500.02, -187500.02, -187500.02, 0.000, 0.000, 0.000, 17:38:06.712
11, 50309.28, 44910.09, 187500.00, -187500.02, -150665.89, -187500.02, -187500.02, -187500.02, 0.000, 0.000, 0.000, 17:38:06.713
12, 50460.96, 45052.35, 187500.00, -187500.02, -150932.16, -187500.02, -187500.02, -187500.02, 0.006, -0.008, 1.026, 17:38:06.713
13, 50366.55, 44977.54, 187500.00, -187500.02, -150983.97, -187500.02, -187500.02, -187500.02, 0.000, 0.000, 0.000, 17:38:06.713
14, 50227.32, 44853.07, 187500.00, -187500.02, -150810.88, -187500.02, -187500.02, -187500.02, 0.000, 0.000, 0.000, 17:38:06.713
15, 50110.24, 44745.15, 187500.00, -187500.02, -150549.97, -187500.02, -187500.02, -187500.02, 0.000, 0.000, 0.000, 17:38:06.713
16, 50300.09, 44903.89, 187500.00, -187500.02, -150703.88, -187500.02, -187500.02, -187500.02, 0.000, 0.000, 0.000, 17:38:06.714
17, 50451.77, 45042.05, 187500.00, -187500.02, -150971.59, -187500.02, -187500.02, -187500.02, 0.000, 0.000, 0.000, 17:38:06.714
18, 50352.06, 44958.95, 187500.00, -187500.02, -150990.91, -187500.02, -187500.02, -187500.02, 0.000, 0.000, 0.000, 17:38:06.714
19, 50218.24, 44843.66, 187500.00, -187500.02, -150789.48, -187500.02, -187500.02, -187500.02, 0.000, 0.000, 0.000, 17:38:07.174
20, 50113.28, 44743.41, 187500.00, -187500.02, -150549.70, -187500.02, -187500.02, -187500.02, 0.000, 0.000, 0.000, 17:38:07.174
21, 50290.69, 44884.96, 187500.00, -187500.02, -150669.50, -187500.02, -187500.02, -187500.02, 0.000, 0.000, 0.000, 17:38:07.175
22, 50443.48, 45028.46, 187500.00, -187500.02, -150901.73, -187500.02, -187500.02, -187500.02, 0.004, -0.010, 1.030, 17:38:07.175
23, 50364.27, 44969.61, 187500.00, -187500.02, -150947.50, -187500.02, -187500.02, -187500.02, 0.000, 0.000, 0.000, 17:38:07.175
24, 50220.23, 44841.33, 187500.00, -187500.02, -150755.58, -187500.02, -187500.02, -187500.02, 0.000, 0.000, 0.000, 17:38:07.175
25, 50112.52, 44737.48, 187500.00, -187500.02, -150476.45, -187500.02, -187500.02, -187500.02, 0.000, 0.000, 0.000, 17:38:07.175
26, 50296.54, 44893.28, 187500.00, -187500.02, -150603.09, -187500.02, -187500.02, -187500.02, 0.000, 0.000, 0.000, 17:38:07.175
27, 50453.61, 45043.66, 187500.00, -187500.02, -150872.14, -187500.02, -187500.02, -187500.02, 0.000, 0.000, 0.000, 17:38:07.176
28, 50366.95, 44975.35, 187500.00, -187500.02, -150951.03, -187500.02, -187500.02, -187500.02, 0.000, 0.000, 0.000, 17:38:07.176
29, 50232.82, 44855.12, 187500.00, -187500.02, -150805.72, -187500.02, -187500.02, -187500.02, 0.000, 0.000, 0.000, 17:38:07.176
30, 50116.48, 44745.84, 187500.00, -187500.02, -150542.69, -187500.02, -187500.02, -187500.02, 0.000, 0.000, 0.000, 17:38:07.176
31, 50294.46, 44891.42, 187500.00, -187500.02, -150664.16, -187500.02, -187500.02, -187500.02, 0.000, 0.000, 0.000, 17:38:07.176
32, 50453.34, 45042.09, 187500.00, -187500.02, -150939.97, -187500.02, -187500.02, -187500.02, 0.004, -0.012, 1.028, 17:38:07.177
33, 50361.86, 44969.12, 187500.00, -187500.02, -150982.61, -187500.02, -187500.02, -187500.02, 0.000, 0.000, 0.000, 17:38:07.177
34, 50230.05, 44850.85, 187500.00, -187500.02, -150821.97, -187500.02, -187500.02, -187500.02, 0.000, 0.000, 0.000, 17:38:07.177
35, 50109.21, 44738.04, 187500.00, -187500.02, -150585.98, -187500.02, -187500.02, -187500.02, 0.000, 0.000, 0.000, 17:38:07.177
36, 50277.97, 44877.54, 187500.00, -187500.02, -150679.92, -187500.02, -187500.02, -187500.02, 0.000, 0.000, 0.000, 17:38:07.177
37, 50447.44, 45036.42, 187500.00, -187500.02, -150916.31, -187500.02, -187500.02, -187500.02, 0.000, 0.000, 0.000, 17:38:07.178
38, 50358.57, 44968.54, 187500.00, -187500.02, -150980.27, -187500.02, -187500.02, -187500.02, 0.000, 0.000, 0.000, 17:38:07.178
39, 50220.48, 44843.77, 187500.00, -187500.02, -150785.44, -187500.02, -187500.02, -187500.02, 0.000, 0.000, 0.000, 17:38:07.178
40, 50105.64, 44740.08, 187500.00, -187500.02, -150495.81, -187500.02, -187500.02, -187500.02, 0.000, 0.000, 0.000, 17:38:07.178
41, 50281.90, 44884.29, 187500.00, -187500.02, -150610.91, -187500.02, -187500.02, -187500.02, 0.000, 0.000, 0.000, 17:38:07.178
42, 50450.43, 45038.63, 187500.00, -187500.02, -150877.64, -187500.02, -187500.02, -187500.02, 0.000, -0.018, 1.030, 17:38:07.178
43, 50367.17, 44974.82, 187500.00, -187500.02, -150946.98, -187500.02, -187500.02, -187500.02, 0.000, 0.000, 0.000, 17:38:07.180
44, 50232.55, 44857.80, 187500.00, -187500.02, -150798.81, -187500.02, -187500.02, -187500.02, 0.000, 0.000, 0.000, 17:38:07.180
45, 50114.13, 44751.25, 187500.00, -187500.02, -150554.17, -187500.02, -187500.02, -187500.02, 0.000, 0.000, 0.000, 17:38:07.180
46, 50279.29, 44883.11, 187500.00, -187500.02, -150668.33, -187500.02, -187500.02, -187500.02, 0.000, 0.000, 0.000, 17:38:07.180
47, 50449.32, 45035.50, 187500.00, -187500.02, -150934.98, -187500.02, -187500.02, -187500.02, 0.000, 0.000, 0.000, 17:38:07.180
48, 50364.60, 44971.91, 187500.00, -187500.02, -151022.42, -187500.02, -187500.02, -187500.02, 0.000, 0.000, 0.000, 17:38:07.181
49, 50225.06, 44845.27, 187500.00, -187500.02, -150860.84, -187500.02, -187500.02, -187500.02, 0.000, 0.000, 0.000, 17:38:07.181
50, 50102.24, 44734.69, 187500.00, -187500.02, -150582.27, -187500.02, -187500.02, -187500.02, 0.000, 0.000, 0.000, 17:38:07.181
51, 50273.54, 44875.55, 187500.00, -187500.02, -150663.73, -187500.02, -187500.02, -187500.02, 0.000, 0.000, 0.000, 17:38:07.181
52, 50447.13, 45035.50, 187500.00, -187500.02, -150938.86, -187500.02, -187500.02, -187500.02, 0.008, -0.014, 1.032, 17:38:07.181
53, 50354.97, 44965.32, 187500.00, -187500.02, -150978.56, -187500.02, -187500.02, -187500.02, 0.000, 0.000, 0.000, 17:38:07.182
54, 50221.51, 44848.57, 187500.00, -187500.02, -150785.73, -187500.02, -187500.02, -187500.02, 0.000, 0.000, 0.000, 17:38:07.182
55, 50107.82, 44741.93, 187500.00, -187500.02, -150527.06, -187500.02, -187500.02, -187500.02, 0.000, 0.000, 0.000, 17:38:07.182
56, 50281.43, 44884.71, 187500.00, -187500.02, -150671.45, -187500.02, -187500.02, -187500.02, 0.000, 0.000, 0.000, 17:38:07.182
57, 50449.52, 45037.31, 187500.00, -187500.02, -150944.03, -187500.02, -187500.02, -187500.02, 0.000, 0.000, 0.000, 17:38:07.182
58, 50368.27, 44972.16, 187500.00, -187500.02, -150986.92, -187500.02, -187500.02, -187500.02, 0.000, 0.000, 0.000, 17:38:07.182
59, 50233.60, 44855.75, 187500.00, -187500.02, -150850.08, -187500.02, -187500.02, -187500.02, 0.000, 0.000, 0.000, 17:38:07.183
60, 50112.48, 44751.50, 187500.00, -187500.02, -150611.19, -187500.02, -187500.02, -187500.02, 0.000, 0.000, 0.000, 17:38:07.183
61, 50279.20, 44888.96, 187500.00, -187500.02, -150727.80, -187500.02, -187500.02, -187500.02, 0.000, 0.000, 0.000, 17:38:07.183
62, 50453.27, 45048.13, 187500.00, -187500.02, -150991.45, -187500.02, -187500.02, -187500.02, 0.010, -0.014, 1.026, 17:38:07.183
63, 50364.43, 44979.26, 187500.00, -187500.02, -151052.66, -187500.02, -187500.02, -187500.02, 0.000, 0.000, 0.000, 17:38:07.183
64, 50220.52, 44848.24, 187500.00, -187500.02, -150878.61, -187500.02, -187500.02, -187500.02, 0.000, 0.000, 0.000, 17:38:07.184
65, 50098.06, 44734.27, 187500.00, -187500.02, -150605.20, -187500.02, -187500.02, -187500.02, 0.000, 0.000, 0.000, 17:38:07.184
66, 50263.73, 44868.82, 187500.00, -187500.02, -150712.39, -187500.02, -187500.02, -187500.02, 0.000, 0.000, 0.000, 17:38:07.184
67, 50440.64, 45033.62, 187500.00, -187500.02, -150967.09, -187500.02, -187500.02, -187500.02, 0.000, 0.000, 0.000, 17:38:07.184
68, 50357.92, 44970.01, 187500.00, -187500.02, -150988.17, -187500.02, -187500.02, -187500.02, 0.000, 0.000, 0.000, 17:38:07.184
69, 50220.12, 44844.44, 187500.00, -187500.02, -150797.11, -187500.02, -187500.02, -187500.02, 0.000, 0.000, 0.000, 17:38:07.184
70, 50095.55, 44731.72, 187500.00, -187500.02, -150506.06, -187500.02, -187500.02, -187500.02, 0.000, 0.000, 0.000, 17:38:07.185
71, 50265.85, 44875.33, 187500.00, -187500.02, -150647.27, -187500.02, -187500.02, -187500.02, 0.000, 0.000, 0.000, 17:38:07.185
72, 50447.26, 45039.01, 187500.00, -187500.02, -150957.16, -187500.02, -187500.02, -187500.02, 0.014, -0.012, 1.032, 17:38:07.185
73, 50359.55, 44972.94, 187500.00, -187500.02, -151007.95, -187500.02, -187500.02, -187500.02, 0.000, 0.000, 0.000, 17:38:07.185
74, 50219.90, 44851.05, 187500.00, -187500.02, -150869.67, -187500.02, -187500.02, -187500.02, 0.000, 0.000, 0.000, 17:38:07.185
75, 50104.83, 44744.01, 187500.00, -187500.02, -150612.98, -187500.02, -187500.02, -187500.02, 0.000, 0.000, 0.000, 17:38:07.186
76, 50262.99, 44870.84, 187500.00, -187500.02, -150707.69, -187500.02, -187500.02, -187500.02, 0.000, 0.000, 0.000, 17:38:07.186
77, 50438.90, 45029.67, 187500.00, -187500.02, -150969.89, -187500.02, -187500.02, -187500.02, 0.000, 0.000, 0.000, 17:38:07.186
78, 50356.51, 44968.33, 187500.00, -187500.02, -151014.55, -187500.02, -187500.02, -187500.02, 0.000, 0.000, 0.000, 17:38:07.186
79, 50220.48, 44848.28, 187500.00, -187500.02, -150866.80, -187500.02, -187500.02, -187500.02, 0.000, 0.000, 0.000, 17:38:07.186
80, 50103.98, 44744.19, 187500.00, -187500.02, -150624.58, -187500.02, -187500.02, -187500.02, 0.000, 0.000, 0.000, 17:38:07.186
81, 50255.62, 44868.55, 187500.00, -187500.02, -150691.86, -187500.02, -187500.02, -187500.02, 0.000, 0.000, 0.000, 17:38:07.186
82, 50427.23, 45023.99, 187500.00, -187500.02, -150909.56, -187500.02, -187500.02, -187500.02, 0.014, -0.012, 1.030, 17:38:07.187
83, 50353.58, 44966.57, 187500.00, -187500.02, -150948.97, -187500.02, -187500.02, -187500.02, 0.000, 0.000, 0.000, 17:38:07.187
84, 50227.74, 44851.86, 187500.00, -187500.02, -150801.38, -187500.02, -187500.02, -187500.02, 0.000, 0.000, 0.000, 17:38:07.187
85, 50100.90, 44733.13, 187500.00, -187500.02, -150512.03, -187500.02, -187500.02, -187500.02, 0.000, 0.000, 0.000, 17:38:07.187
86, 50264.31, 44867.64, 187500.00, -187500.02, -150606.03, -187500.02, -187500.02, -187500.02, 0.000, 0.000, 0.000, 17:38:07.187
87, 50447.75, 45038.99, 187500.00, -187500.02, -150877.00, -187500.02, -187500.02, -187500.02, 0.000, 0.000, 0.000, 17:38:07.187
88, 50371.58, 44981.83, 187500.00, -187500.02, -150939.83, -187500.02, -187500.02, -187500.02, 0.000, 0.000, 0.000, 17:38:07.188
89, 50234.02, 44861.22, 187500.00, -187500.02, -150812.17, -187500.02, -187500.02, -187500.02, 0.000, 0.000, 0.000, 17:38:07.188
90, 50112.90, 44755.30, 187500.00, -187500.02, -150601.75, -187500.02, -187500.02, -187500.02, 0.000, 0.000, 0.000, 17:38:07.188
91, 50265.23, 44878.86, 187500.00, -187500.02, -150717.61, -187500.02, -187500.02, -187500.02, 0.000, 0.000, 0.000, 17:38:07.188
92, 50444.15, 45041.02, 187500.00, -187500.02, -151004.63, -187500.02, -187500.02, -187500.02, 0.010, -0.016, 1.034, 17:38:07.188
93, 50365.09, 44980.22, 187500.00, -187500.02, -151052.92, -187500.02, -187500.02, -187500.02, 0.000, 0.000, 0.000, 17:38:07.188
94, 50226.31, 44851.21, 187500.00, -187500.02, -150897.58, -187500.02, -187500.02, -187500.02, 0.000, 0.000, 0.000, 17:38:07.189
95, 50096.16, 44731.83, 187500.00, -187500.02, -150618.16, -187500.02, -187500.02, -187500.02, 0.000, 0.000, 0.000, 17:38:07.189
96, 50244.55, 44850.85, 187500.00, -187500.02, -150650.33, -187500.02, -187500.02, -187500.02, 0.000, 0.000, 0.000, 17:38:07.189
97, 50434.03, 45021.53, 187500.00, -187500.02, -150901.22, -187500.02, -187500.02, -187500.02, 0.000, 0.000, 0.000, 17:38:07.189
98, 50367.75, 44973.92, 187500.00, -187500.02, -151005.56, -187500.02, -187500.02, -187500.02, 0.000, 0.000, 0.000, 17:38:07.189
99, 50226.58, 44849.62, 187500.00, -187500.02, -150848.44, -187500.02, -187500.02, -187500.02, 0.000, 0.000, 0.000, 17:38:07.189
100, 50096.14, 44734.58, 187500.00, -187500.02, -150536.05, -187500.02, -187500.02, -187500.02, 0.000, 0.000, 0.000, 17:38:07.190
101, 50255.86, 44864.02, 187500.00, -187500.02, -150617.84, -187500.02, -187500.02, -187500.02, 0.000, 0.000, 0.000, 17:38:07.190
102, 50442.05, 45034.70, 187500.00, -187500.02, -150926.70, -187500.02, -187500.02, -187500.02, 0.010, -0.016, 1.030, 17:38:07.190
103, 50367.84, 44981.50, 187500.00, -187500.02, -151017.97, -187500.02, -187500.02, -187500.02, 0.000, 0.000, 0.000, 17:38:07.190
104, 50232.28, 44859.41, 187500.00, -187500.02, -150903.63, -187500.02, -187500.02, -187500.02, 0.000, 0.000, 0.000, 17:38:07.190
105, 50110.80, 44745.93, 187500.00, -187500.02, -150677.58, -187500.02, -187500.02, -187500.02, 0.000, 0.000, 0.000, 17:38:07.190
106, 50253.78, 44863.05, 187500.00, -187500.02, -150756.56, -187500.02, -187500.02, -187500.02, 0.000, 0.000, 0.000, 17:38:07.191
107, 50435.64, 45030.45, 187500.00, -187500.02, -151012.61, -187500.02, -187500.02, -187500.02, 0.000, 0.000, 0.000, 17:38:07.191
108, 50365.36, 44979.22, 187500.00, -187500.02, -151083.22, -187500.02, -187500.02, -187500.02, 0.000, 0.000, 0.000, 17:38:07.191
109, 50228.75, 44856.33, 187500.00, -187500.02, -150951.31, -187500.02, -187500.02, -187500.02, 0.000, 0.000, 0.000, 17:38:07.191
110, 50102.80, 44739.68, 187500.00, -187500.02, -150685.67, -187500.02, -187500.02, -187500.02, 0.000, 0.000, 0.000, 17:38:07.191
111, 50242.65, 44851.97, 187500.00, -187500.02, -150727.17, -187500.02, -187500.02, -187500.02, 0.000, 0.000, 0.000, 17:38:07.191
112, 50435.03, 45024.82, 187500.00, -187500.02, -150983.61, -187500.02, -187500.02, -187500.02, 0.004, -0.018, 1.028, 17:38:07.192
113, 50363.30, 44970.32, 187500.00, -187500.02, -151021.61, -187500.02, -187500.02, -187500.02, 0.000, 0.000, 0.000, 17:38:07.192
114, 50228.84, 44853.64, 187500.00, -187500.02, -150865.08, -187500.02, -187500.02, -187500.02, 0.000, 0.000, 0.000, 17:38:07.192
115, 50105.97, 44740.17, 187500.00, -187500.02, -150600.89, -187500.02, -187500.02, -187500.02, 0.000, 0.000, 0.000, 17:38:07.192
116, 50245.94, 44852.75, 187500.00, -187500.02, -150655.06, -187500.02, -187500.02, -187500.02, 0.000, 0.000, 0.000, 17:38:07.192
117, 50437.16, 45028.28, 187500.00, -187500.02, -150909.27, -187500.02, -187500.02, -187500.02, 0.000, 0.000, 0.000, 17:38:07.192
118, 50367.17, 44976.04, 187500.00, -187500.02, -150967.52, -187500.02, -187500.02, -187500.02, 0.000, 0.000, 0.000, 17:38:07.193
119, 50238.85, 44864.35, 187500.00, -187500.02, -150858.75, -187500.02, -187500.02, -187500.02, 0.000, 0.000, 0.000, 17:38:07.193
120, 50110.15, 44744.01, 187500.00, -187500.02, -150622.28, -187500.02, -187500.02, -187500.02, 0.000, 0.000, 0.000, 17:38:07.193
121, 50247.41, 44852.95, 187500.00, -187500.02, -150713.94, -187500.02, -187500.02, -187500.02, 0.000, 0.000, 0.000, 17:38:07.193
122, 50431.10, 45021.15, 187500.00, -187500.02, -151003.44, -187500.02, -187500.02, -187500.02, 0.006, -0.012, 1.026, 17:38:07.193
123, 50357.45, 44967.37, 187500.00, -187500.02, -151055.81, -187500.02, -187500.02, -187500.02, 0.000, 0.000, 0.000, 17:38:07.194
124, 50220.32, 44848.33, 187500.00, -187500.02, -150877.38, -187500.02, -187500.02, -187500.02, 0.000, 0.000, 0.000, 17:38:07.194
125, 50089.39, 44731.43, 187500.00, -187500.02, -150590.97, -187500.02, -187500.02, -187500.02, 0.000, 0.000, 0.000, 17:38:07.194
126, 50233.02, 44844.08, 187500.00, -187500.02, -150651.83, -187500.02, -187500.02, -187500.02, 0.000, 0.000, 0.000, 17:38:07.194
127, 50425.63, 45018.58, 187500.00, -187500.02, -150941.38, -187500.02, -187500.02, -187500.02, 0.000, 0.000, 0.000, 17:38:07.194
128, 50358.28, 44971.77, 187500.00, -187500.02, -151006.39, -187500.02, -187500.02, -187500.02, 0.000, 0.000, 0.000, 17:38:07.194
129, 50226.60, 44851.66, 187500.00, -187500.02, -150865.34, -187500.02, -187500.02, -187500.02, 0.000, 0.000, 0.000, 17:38:07.195
130, 50088.92, 44725.19, 187500.00, -187500.02, -150592.50, -187500.02, -187500.02, -187500.02, 0.000, 0.000, 0.000, 17:38:07.195
131, 50237.67, 44847.34, 187500.00, -187500.02, -150677.02, -187500.02, -187500.02, -187500.02, 0.010, -0.016, 1.026, 17:38:07.195
132, 50431.66, 45021.02, 187500.00, -187500.02, -150944.47, -187500.02, -187500.02, -187500.02, 0.000, 0.000, 0.000, 17:38:07.195
133, 50366.55, 44973.92, 187500.00, -187500.02, -151038.33, -187500.02, -187500.02, -187500.02, 0.000, 0.000, 0.000, 17:38:07.195
134, 50230.13, 44855.25, 187500.00, -187500.02, -150934.08, -187500.02, -187500.02, -187500.02, 0.000, 0.000, 0.000, 17:38:07.195
135, 50097.61, 44731.34, 187500.00, -187500.02, -150686.16, -187500.02, -187500.02, -187500.02, 0.000, 0.000, 0.000, 17:38:07.195
136, 50228.57, 44834.71, 187500.00, -187500.02, -150722.75, -187500.02, -187500.02, -187500.02, 0.000, 0.000, 0.000, 17:38:07.196
137, 50423.10, 45014.42, 187500.00, -187500.02, -150995.95, -187500.02, -187500.02, -187500.02, 0.000, 0.000, 0.000, 17:38:07.196
138, 50359.39, 44968.27, 187500.00, -187500.02, -151069.27, -187500.02, -187500.02, -187500.02, 0.000, 0.000, 0.000, 17:38:07.196
139, 50226.67, 44851.19, 187500.00, -187500.02, -150949.69, -187500.02, -187500.02, -187500.02, 0.000, 0.000, 0.000, 17:38:07.654
140, 50088.69, 44723.94, 187500.00, -187500.02, -150667.52, -187500.02, -187500.02, -187500.02, 0.000, 0.000, 0.000, 17:38:07.655
141, 50218.76, 44826.40, 187500.00, -187500.02, -150690.47, -187500.02, -187500.02, -187500.02, 0.006, -0.010, 1.022, 17:38:07.655
142, 50418.67, 45010.11, 187500.00, -187500.02, -150931.05, -187500.02, -187500.02, -187500.02, 0.000, 0.000, 0.000, 17:38:07.655
143, 50365.56, 44976.52, 187500.00, -187500.02, -151009.52, -187500.02, -187500.02, -187500.02, 0.000, 0.000, 0.000, 17:38:07.655
144, 50232.23, 44857.02, 187500.00, -187500.02, -150853.23, -187500.02, -187500.02, -187500.02, 0.000, 0.000, 0.000, 17:38:07.655
145, 50102.93, 44739.68, 187500.00, -187500.02, -150568.47, -187500.02, -187500.02, -187500.02, 0.000, 0.000, 0.000, 17:38:07.655
146, 50238.70, 44848.17, 187500.00, -187500.02, -150616.47, -187500.02, -187500.02, -187500.02, 0.000, 0.000, 0.000, 17:38:07.656
147, 50441.31, 45030.65, 187500.00, -187500.02, -150904.67, -187500.02, -187500.02, -187500.02, 0.000, 0.000, 0.000, 17:38:07.656
148, 50383.98, 44992.38, 187500.00, -187500.02, -150992.31, -187500.02, -187500.02, -187500.02, 0.000, 0.000, 0.000, 17:38:07.656
149, 50248.08, 44873.90, 187500.00, -187500.02, -150898.61, -187500.02, -187500.02, -187500.02, 0.000, 0.000, 0.000, 17:38:07.656
150, 50113.64, 44748.55, 187500.00, -187500.02, -150630.44, -187500.02, -187500.02, -187500.02, 0.000, 0.000, 0.000, 17:38:07.656
151, 50238.67, 44848.10, 187500.00, -187500.02, -150711.42, -187500.02, -187500.02, -187500.02, 0.008, -0.008, 1.024, 17:38:07.657
152, 50429.29, 45019.23, 187500.00, -187500.02, -151002.61, -187500.02, -187500.02, -187500.02, 0.000, 0.000, 0.000, 17:38:07.657
153, 50361.92, 44968.45, 187500.00, -187500.02, -151070.23, -187500.02, -187500.02, -187500.02, 0.000, 0.000, 0.000, 17:38:07.657
154, 50227.45, 44853.11, 187500.00, -187500.02, -150932.03, -187500.02, -187500.02, -187500.02, 0.000, 0.000, 0.000, 17:38:07.657
155, 50093.10, 44728.59, 187500.00, -187500.02, -150641.67, -187500.02, -187500.02, -187500.02, 0.000, 0.000, 0.000, 17:38:07.657
