%OpenBCI Raw EEG Data
%
%Sample Rate = 250.0 Hz
%First Column = SampleIndex
%Last Column = Timestamp 
%Other Columns = EEG data in microvolts followed by Accel Data (in G) interleaved with Aux Data
0, 47337.59, 67065.13, -187500.02, -187500.02, -161941.78, -187500.02, -187500.02, -187500.02, 0.018, -0.012, 1.024, 17:56:42.315
1, 47686.39, 67986.13, -187500.02, -187500.02, -162084.88, -187500.02, -187500.02, -187500.02, 0.000, 0.000, 0.000, 17:56:42.316
2, 48129.52, 68260.84, -187500.02, -187500.02, -162119.19, -187500.02, -187500.02, -187500.02, 0.000, 0.000, 0.000, 17:56:42.316
3, 48139.31, 67975.77, -187500.02, -187500.02, -162021.36, -187500.02, -187500.02, -187500.02, 0.000, 0.000, 0.000, 17:56:42.316
4, 47840.20, 67134.49, -187500.02, -187500.02, -161819.94, -187500.02, -187500.02, -187500.02, 0.000, 0.000, 0.000, 17:56:42.316
5, 47332.39, 67053.82, -187500.02, -187500.02, -161882.44, -187500.02, -187500.02, -187500.02, 0.000, 0.000, 0.000, 17:56:42.316
6, 47682.46, 67988.17, -187500.02, -187500.02, -162052.31, -187500.02, -187500.02, -187500.02, 0.000, 0.000, 0.000, 17:56:42.316
7, 48137.57, 68269.67, -187500.02, -187500.02, -162125.69, -187500.02, -187500.02, -187500.02, 0.020, 0.000, 1.020, 17:56:42.317
8, 48153.16, 67991.08, -187500.02, -187500.02, -162082.16, -187500.02, -187500.02, -187500.02, 0.000, 0.000, 0.000, 17:56:42.317
9, 47855.38, 67147.63, -187500.02, -187500.02, -161901.45, -187500.02, -187500.02, -187500.02, 0.000, 0.000, 0.000, 17:56:42.317
10, 47347.21, 67055.19, -187500.02, -187500.02, -161977.52, -187500.02, -187500.02, -187500.02, 0.000, 0.000, 0.000, 17:56:42.317
11, 47686.26, 67981.13, -187500.02, -187500.02, -162157.14, -187500.02, -187500.02, -187500.02, 0.000, 0.000, 0.000, 17:56:42.317
12, 48126.97, 68258.58, -187500.02, -187500.02, -162209.64, -187500.02, -187500.02, -187500.02, 0.000, 0.000, 0.000, 17:56:42.317
13, 48136.71, 67974.29, -187500.02, -187500.02, -162117.47, -187500.02, -187500.02, -187500.02, 0.000, 0.000, 0.000, 17:56:42.318
14, 47843.75, 67136.50, -187500.02, -187500.02, -161924.64, -187500.02, -187500.02, -187500.02, 0.000, 0.000, 0.000, 17:56:42.318
15, 47323.20, 67025.28, -187500.02, -187500.02, -161972.45, -187500.02, -187500.02, -187500.02, 0.000, 0.000, 0.000, 17:56:42.318
16, 47660.24, 67963.70, -187500.02, -187500.02, -162134.20, -187500.02, -187500.02, -187500.02, 0.000, 0.000, 0.000, 17:56:42.318
17, 48115.13, 68251.67, -187500.02, -187500.02, -162188.16, -187500.02, -187500.02, -187500.02, 0.022, -0.006, 1.018, 17:56:42.318
18, 48137.14, 67977.66, -187500.02, -187500.02, -162087.27, -187500.02, -187500.02, -187500.02, 0.000, 0.000, 0.000, 17:56:42.319
19, 47856.49, 67148.88, -187500.02, -187500.02, -161878.14, -187500.02, -187500.02, -187500.02, 0.000, 0.000, 0.000, 17:56:42.319
20, 47339.74, 67029.99, -187500.02, -187500.02, -161926.20, -187500.02, -187500.02, -187500.02, 0.000, 0.000, 0.000, 17:56:42.319
21, 47666.08, 67962.17, -187500.02, -187500.02, -162079.63, -187500.02, -187500.02, -187500.02, 0.000, 0.000, 0.000, 17:56:42.319
22, 48136.96, 68272.93, -187500.02, -187500.02, -162177.17, -187500.02, -187500.02, -187500.02, 0.000, 0.000, 0.000, 17:56:42.319
23, 48162.13, 68014.92, -187500.02, -187500.02, -162163.00, -187500.02, -187500.02, -187500.02, 0.000, 0.000, 0.000, 17:56:42.319
24, 47879.85, 67181.14, -187500.02, -187500.02, -161992.67, -187500.02, -187500.02, -187500.02, 0.000, 0.000, 0.000, 17:56:42.319
25, 47354.05, 67038.73, -187500.02, -187500.02, -161995.72, -187500.02, -187500.02, -187500.02, 0.000, 0.000, 0.000, 17:56:42.320
26, 47677.90, 67974.71, -187500.02, -187500.02, -162169.81, -187500.02, -187500.02, -187500.02, 0.000, 0.000, 0.000, 17:56:42.320
27, 48141.03, 68278.74, -187500.02, -187500.02, -162226.47, -187500.02, -187500.02, -187500.02, 0.016, -0.012, 1.024, 17:56:42.320
28, 48168.97, 68016.83, -187500.02, -187500.02, -162173.56, -187500.02, -187500.02, -187500.02, 0.000, 0.000, 0.000, 17:56:42.320
29, 47894.94, 67194.84, -187500.02, -187500.02, -161982.94, -187500.02, -187500.02, -187500.02, 0.000, 0.000, 0.000, 17:56:42.320
30, 47362.29, 67044.77, -187500.02, -187500.02, -162002.89, -187500.02, -187500.02, -187500.02, 0.000, 0.000, 0.000, 17:56:42.320
31, 47676.56, 67969.66, -187500.02, -187500.02, -162170.66, -187500.02, -187500.02, -187500.02, 0.000, 0.000, 0.000, 17:56:42.320
32, 48143.71, 68279.23, -187500.02, -187500.02, -162233.45, -187500.02, -187500.02, -187500.02, 0.000, 0.000, 0.000, 17:56:42.321
33, 48166.84, 68017.61, -187500.02, -187500.02, -162164.16, -187500.02, -187500.02, -187500.02, 0.000, 0.000, 0.000, 17:56:42.321
34, 47887.40, 67184.07, -187500.02, -187500.02, -161929.17, -187500.02, -187500.02, -187500.02, 0.000, 0.000, 0.000, 17:56:42.321
35, 47362.90, 67034.80, -187500.02, -187500.02, -161986.31, -187500.02, -187500.02, -187500.02, 0.000, 0.000, 0.000, 17:56:42.321
36, 47671.11, 67970.13, -187500.02, -187500.02, -162148.98, -187500.02, -187500.02, -187500.02, 0.020, -0.012, 1.026, 17:56:42.321
37, 48146.26, 68292.11, -187500.02, -187500.02, -162202.41, -187500.02, -187500.02, -187500.02, 0.000, 0.000, 0.000, 17:56:42.321
38, 48186.58, 68048.85, -187500.02, -187500.02, -162202.48, -187500.02, -187500.02, -187500.02, 0.000, 0.000, 0.000, 17:56:42.322
39, 47910.85, 67212.95, -187500.02, -187500.02, -162012.70, -187500.02, -187500.02, -187500.02, 0.000, 0.000, 0.000, 17:56:42.322
40, 47380.04, 67044.44, -187500.02, -187500.02, -162080.52, -187500.02, -187500.02, -187500.02, 0.000, 0.000, 0.000, 17:56:42.322
41, 47670.73, 67963.13, -187500.02, -187500.02, -162233.58, -187500.02, -187500.02, -187500.02, 0.000, 0.000, 0.000, 17:56:42.322
42, 48141.83, 68280.76, -187500.02, -187500.02, -162286.38, -187500.02, -187500.02, -187500.02, 0.000, 0.000, 0.000, 17:56:42.322
43, 48175.68, 68033.90, -187500.02, -187500.02, -162250.17, -187500.02, -187500.02, -187500.02, 0.000, 0.000, 0.000, 17:56:42.323
44, 47906.02, 67205.44, -187500.02, -187500.02, -162034.72, -187500.02, -187500.02, -187500.02, 0.000, 0.000, 0.000, 17:56:42.323
45, 47363.30, 67014.53, -187500.02, -187500.02, -162040.78, -187500.02, -187500.02, -187500.02, 0.000, 0.000, 0.000, 17:56:42.323
46, 47662.61, 67950.75, -187500.02, -187500.02, -162226.16, -187500.02, -187500.02, -187500.02, 0.014, -0.018, 1.028, 17:56:42.323
47, 48142.39, 68274.81, -187500.02, -187500.02, -162259.56, -187500.02, -187500.02, -187500.02, 0.000, 0.000, 0.000, 17:56:42.323
48, 48176.41, 68032.13, -187500.02, -187500.02, -162200.50, -187500.02, -187500.02, -187500.02, 0.000, 0.000, 0.000, 17:56:42.323
49, 47909.73, 67210.11, -187500.02, -187500.02, -161965.61, -187500.02, -187500.02, -187500.02, 0.000, 0.000, 0.000, 17:56:42.324
50, 47370.56, 67018.84, -187500.02, -187500.02, -161987.56, -187500.02, -187500.02, -187500.02, 0.000, 0.000, 0.000, 17:56:42.324
51, 47667.17, 67956.41, -187500.02, -187500.02, -162189.75, -187500.02, -187500.02, -187500.02, 0.000, 0.000, 0.000, 17:56:42.324
52, 48151.60, 68295.35, -187500.02, -187500.02, -162272.08, -187500.02, -187500.02, -187500.02, 0.000, 0.000, 0.000, 17:56:42.324
53, 48191.99, 68057.33, -187500.02, -187500.02, -162240.22, -187500.02, -187500.02, -187500.02, 0.000, 0.000, 0.000, 17:56:42.324
54, 47927.37, 67232.84, -187500.02, -187500.02, -162072.41, -187500.02, -187500.02, -187500.02, 0.000, 0.000, 0.000, 17:56:42.324
55, 47385.65, 67023.42, -187500.02, -187500.02, -162139.30, -187500.02, -187500.02, -187500.02, 0.000, 0.000, 0.000, 17:56:42.325
56, 47662.52, 67945.28, -187500.02, -187500.02, -162316.81, -187500.02, -187500.02, -187500.02, 0.014, -0.010, 1.026, 17:56:42.325
57, 48140.49, 68286.14, -187500.02, -187500.02, -162378.38, -187500.02, -187500.02, -187500.02, 0.000, 0.000, 0.000, 17:56:42.325
58, 48174.54, 68047.00, -187500.02, -187500.02, -162308.23, -187500.02, -187500.02, -187500.02, 0.000, 0.000, 0.000, 17:56:42.325
59, 47912.93, 67222.96, -187500.02, -187500.02, -162099.56, -187500.02, -187500.02, -187500.02, 0.000, 0.000, 0.000, 17:56:42.325
60, 47364.44, 66998.77, -187500.02, -187500.02, -162123.72, -187500.02, -187500.02, -187500.02, 0.000, 0.000, 0.000, 17:56:42.325
61, 47633.27, 67918.48, -187500.02, -187500.02, -162225.53, -187500.02, -187500.02, -187500.02, 0.000, 0.000, 0.000, 17:56:42.326
62, 48133.14, 68274.52, -187500.02, -187500.02, -162273.56, -187500.02, -187500.02, -187500.02, 0.000, 0.000, 0.000, 17:56:42.326
63, 48180.59, 68051.36, -187500.02, -187500.02, -162243.63, -187500.02, -187500.02, -187500.02, 0.000, 0.000, 0.000, 17:56:42.327
64, 47927.64, 67241.06, -187500.02, -187500.02, -162058.56, -187500.02, -187500.02, -187500.02, 0.000, 0.000, 0.000, 17:56:42.327
65, 47377.70, 67005.32, -187500.02, -187500.02, -162080.92, -187500.02, -187500.02, -187500.02, 0.000, 0.000, 0.000, 17:56:42.327
66, 47650.25, 67936.49, -187500.02, -187500.02, -162269.09, -187500.02, -187500.02, -187500.02, 0.014, -0.014, 1.026, 17:56:42.327
67, 48143.71, 68296.36, -187500.02, -187500.02, -162359.48, -187500.02, -187500.02, -187500.02, 0.000, 0.000, 0.000, 17:56:42.327
68, 48200.93, 68083.77, -187500.02, -187500.02, -162365.14, -187500.02, -187500.02, -187500.02, 0.000, 0.000, 0.000, 17:56:42.327
69, 47947.51, 67267.04, -187500.02, -187500.02, -162218.70, -187500.02, -187500.02, -187500.02, 0.000, 0.000, 0.000, 17:56:42.327
70, 47382.23, 67009.21, -187500.02, -187500.02, -162220.19, -187500.02, -187500.02, -187500.02, 0.000, 0.000, 0.000, 17:56:42.327
71, 47643.66, 67940.25, -187500.02, -187500.02, -162374.69, -187500.02, -187500.02, -187500.02, 0.000, 0.000, 0.000, 17:56:42.328
72, 48151.98, 68307.80, -187500.02, -187500.02, -162487.55, -187500.02, -187500.02, -187500.02, 0.000, 0.000, 0.000, 17:56:42.328
73, 48195.46, 68082.74, -187500.02, -187500.02, -162473.73, -187500.02, -187500.02, -187500.02, 0.000, 0.000, 0.000, 17:56:42.328
74, 47934.50, 67258.09, -187500.02, -187500.02, -162222.52, -187500.02, -187500.02, -187500.02, 0.000, 0.000, 0.000, 17:56:42.328
75, 47374.86, 66993.07, -187500.02, -187500.02, -162185.38, -187500.02, -187500.02, -187500.02, 0.000, 0.000, 0.000, 17:56:42.328
76, 47632.71, 67916.09, -187500.02, -187500.02, -162326.75, -187500.02, -187500.02, -187500.02, 0.016, -0.012, 1.022, 17:56:42.328
77, 48135.24, 68292.67, -187500.02, -187500.02, -162401.44, -187500.02, -187500.02, -187500.02, 0.000, 0.000, 0.000, 17:56:42.328
78, 48182.78, 68074.76, -187500.02, -187500.02, -162354.66, -187500.02, -187500.02, -187500.02, 0.000, 0.000, 0.000, 17:56:42.328
79, 47938.79, 67263.77, -187500.02, -187500.02, -162122.11, -187500.02, -187500.02, -187500.02, 0.000, 0.000, 0.000, 17:56:42.328
80, 47386.77, 66999.77, -187500.02, -187500.02, -162151.58, -187500.02, -187500.02, -187500.02, 0.000, 0.000, 0.000, 17:56:42.329
81, 47634.98, 67922.70, -187500.02, -187500.02, -162340.25, -187500.02, -187500.02, -187500.02, 0.000, 0.000, 0.000, 17:56:42.329
82, 48143.64, 68307.63, -187500.02, -187500.02, -162426.17, -187500.02, -187500.02, -187500.02, 0.000, 0.000, 0.000, 17:56:42.329
83, 48197.58, 68093.78, -187500.02, -187500.02, -162372.31, -187500.02, -187500.02, -187500.02, 0.000, 0.000, 0.000, 17:56:42.329
84, 47961.61, 67288.78, -187500.02, -187500.02, -162205.47, -187500.02, -187500.02, -187500.02, 0.000, 0.000, 0.000, 17:56:42.329
85, 47391.93, 66995.75, -187500.02, -187500.02, -162237.78, -187500.02, -187500.02, -187500.02, 0.000, 0.000, 0.000, 17:56:42.329
86, 47623.36, 67910.56, -187500.02, -187500.02, -162413.38, -187500.02, -187500.02, -187500.02, 0.012, -0.016, 1.030, 17:56:42.329
87, 48128.73, 68291.41, -187500.02, -187500.02, -162471.19, -187500.02, -187500.02, -187500.02, 0.000, 0.000, 0.000, 17:56:42.329
88, 48187.50, 68079.66, -187500.02, -187500.02, -162455.94, -187500.02, -187500.02, -187500.02, 0.000, 0.000, 0.000, 17:56:42.330
89, 47956.45, 67282.50, -187500.02, -187500.02, -162274.89, -187500.02, -187500.02, -187500.02, 0.000, 0.000, 0.000, 17:56:42.330
90, 47386.70, 66977.98, -187500.02, -187500.02, -162286.11, -187500.02, -187500.02, -187500.02, 0.000, 0.000, 0.000, 17:56:42.330
91, 47615.45, 67888.57, -187500.02, -187500.02, -162451.00, -187500.02, -187500.02, -187500.02, 0.000, 0.000, 0.000, 17:56:42.330
92, 48125.83, 68285.16, -187500.02, -187500.02, -162515.89, -187500.02, -187500.02, -187500.02, 0.000, 0.000, 0.000, 17:56:42.330
93, 48179.77, 68071.32, -187500.02, -187500.02, -162481.22, -187500.02, -187500.02, -187500.02, 0.000, 0.000, 0.000, 17:56:42.330
94, 47938.21, 67262.74, -187500.02, -187500.02, -162263.91, -187500.02, -187500.02, -187500.02, 0.000, 0.000, 0.000, 17:56:42.330
95, 47374.27, 66959.97, -187500.02, -187500.02, -162244.02, -187500.02, -187500.02, -187500.02, 0.000, 0.000, 0.000, 17:56:42.330
96, 47610.91, 67887.56, -187500.02, -187500.02, -162430.28, -187500.02, -187500.02, -187500.02, 0.012, -0.014, 1.024, 17:56:42.330
97, 48132.20, 68290.01, -187500.02, -187500.02, -162516.78, -187500.02, -187500.02, -187500.02, 0.000, 0.000, 0.000, 17:56:42.331
98, 48190.98, 68087.52, -187500.02, -187500.02, -162498.88, -187500.02, -187500.02, -187500.02, 0.000, 0.000, 0.000, 17:56:42.331
99, 47963.71, 67294.71, -187500.02, -187500.02, -162339.27, -187500.02, -187500.02, -187500.02, 0.000, 0.000, 0.000, 17:56:42.331
100, 47382.28, 66963.66, -187500.02, -187500.02, -162302.34, -187500.02, -187500.02, -187500.02, 0.000, 0.000, 0.000, 17:56:42.331
101, 47599.31, 67877.13, -187500.02, -187500.02, -162481.27, -187500.02, -187500.02, -187500.02, 0.000, 0.000, 0.000, 17:56:42.331
102, 48112.55, 68270.67, -187500.02, -187500.02, -162547.22, -187500.02, -187500.02, -187500.02, 0.000, 0.000, 0.000, 17:56:42.331
103, 48170.54, 68062.67, -187500.02, -187500.02, -162483.63, -187500.02, -187500.02, -187500.02, 0.000, 0.000, 0.000, 17:56:42.331
104, 47943.06, 67270.88, -187500.02, -187500.02, -162288.34, -187500.02, -187500.02, -187500.02, 0.000, 0.000, 0.000, 17:56:42.332
105, 47373.49, 66941.13, -187500.02, -187500.02, -162308.81, -187500.02, -187500.02, -187500.02, 0.000, 0.000, 0.000, 17:56:42.332
106, 47573.32, 67839.38, -187500.02, -187500.02, -162461.77, -187500.02, -187500.02, -187500.02, 0.012, -0.014, 1.020, 17:56:42.332
107, 48096.44, 68256.16, -187500.02, -187500.02, -162519.53, -187500.02, -187500.02, -187500.02, 0.000, 0.000, 0.000, 17:56:42.332
108, 48160.95, 68060.91, -187500.02, -187500.02, -162483.63, -187500.02, -187500.02, -187500.02, 0.000, 0.000, 0.000, 17:56:42.332
109, 47940.02, 67275.55, -187500.02, -187500.02, -162265.92, -187500.02, -187500.02, -187500.02, 0.000, 0.000, 0.000, 17:56:42.332
110, 47374.39, 66943.07, -187500.02, -187500.02, -162274.59, -187500.02, -187500.02, -187500.02, 0.000, 0.000, 0.000, 17:56:42.332
111, 47582.30, 67849.92, -187500.02, -187500.02, -162460.36, -187500.02, -187500.02, -187500.02, 0.000, 0.000, 0.000, 17:56:42.332
112, 48108.64, 68268.62, -187500.02, -187500.02, -162566.09, -187500.02, -187500.02, -187500.02, 0.000, 0.000, 0.000, 17:56:42.332
113, 48171.50, 68072.86, -187500.02, -187500.02, -162533.66, -187500.02, -187500.02, -187500.02, 0.000, 0.000, 0.000, 17:56:42.333
114, 47948.89, 67286.66, -187500.02, -187500.02, -162305.48, -187500.02, -187500.02, -187500.02, 0.000, 0.000, 0.000, 17:56:42.333
115, 47379.53, 66937.75, -187500.02, -187500.02, -162308.11, -187500.02, -187500.02, -187500.02, 0.000, 0.000, 0.000, 17:56:42.333
116, 47570.55, 67837.95, -187500.02, -187500.02, -162496.91, -187500.02, -187500.02, -187500.02, 0.012, -0.008, 1.024, 17:56:42.333
117, 48093.71, 68256.44, -187500.02, -187500.02, -162563.69, -187500.02, -187500.02, -187500.02, 0.000, 0.000, 0.000, 17:56:42.333
118, 48164.63, 68070.45, -187500.02, -187500.02, -162507.19, -187500.02, -187500.02, -187500.02, 0.000, 0.000, 0.000, 17:56:42.333
119, 47948.36, 67289.99, -187500.02, -187500.02, -162300.75, -187500.02, -187500.02, -187500.02, 0.000, 0.000, 0.000, 17:56:42.334
120, 47382.30, 66934.33, -187500.02, -187500.02, -162331.42, -187500.02, -187500.02, -187500.02, 0.000, 0.000, 0.000, 17:56:42.796
121, 47561.23, 67823.75, -187500.02, -187500.02, -162468.09, -187500.02, -187500.02, -187500.02, 0.000, 0.000, 0.000, 17:56:42.796
122, 48088.19, 68249.48, -187500.02, -187500.02, -162512.73, -187500.02, -187500.02, -187500.02, 0.000, 0.000, 0.000, 17:56:42.796
123, 48162.11, 68070.24, -187500.02, -187500.02, -162477.16, -187500.02, -187500.02, -187500.02, 0.000, 0.000, 0.000, 17:56:42.796
124, 47948.74, 67288.78, -187500.02, -187500.02, -162259.28, -187500.02, -187500.02, -187500.02, 0.000, 0.000, 0.000, 17:56:42.796
125, 47388.69, 66927.63, -187500.02, -187500.02, -162251.83, -187500.02, -187500.02, -187500.02, 0.000, 0.000, 0.000, 17:56:42.797
126, 47571.46, 67834.30, -187500.02, -187500.02, -162441.16, -187500.02, -187500.02, -187500.02, 0.016, -0.016, 1.016, 17:56:42.797
127, 48107.70, 68272.89, -187500.02, -187500.02, -162534.64, -187500.02, -187500.02, -187500.02, 0.000, 0.000, 0.000, 17:56:42.797
128, 48190.89, 68102.43, -187500.02, -187500.02, -162527.31, -187500.02, -187500.02, -187500.02, 0.000, 0.000, 0.000, 17:56:42.797
129, 47986.40, 67326.98, -187500.02, -187500.02, -162376.34, -187500.02, -187500.02, -187500.02, 0.000, 0.000, 0.000, 17:56:42.797
130, 47409.01, 66938.09, -187500.02, -187500.02, -162389.16, -187500.02, -187500.02, -187500.02, 0.000, 0.000, 0.000, 17:56:42.798
131, 47571.26, 67821.85, -187500.02, -187500.02, -162504.98, -187500.02, -187500.02, -187500.02, 0.000, 0.000, 0.000, 17:56:42.798
132, 48097.73, 68259.88, -187500.02, -187500.02, -162534.02, -187500.02, -187500.02, -187500.02, 0.000, 0.000, 0.000, 17:56:42.798
133, 48179.70, 68091.10, -187500.02, -187500.02, -162501.27, -187500.02, -187500.02, -187500.02, 0.000, 0.000, 0.000, 17:56:42.798
134, 47974.24, 67319.74, -187500.02, -187500.02, -162319.41, -187500.02, -187500.02, -187500.02, 0.000, 0.000, 0.000, 17:56:42.798
135, 47400.47, 66925.70, -187500.02, -187500.02, -162320.98, -187500.02, -187500.02, -187500.02, 0.000, 0.000, 0.000, 17:56:42.799
136, 47566.19, 67815.84, -187500.02, -187500.02, -162476.03, -187500.02, -187500.02, -187500.02, 0.012, -0.020, 1.018, 17:56:42.799
137, 48100.39, 68265.09, -187500.02, -187500.02, -162530.70, -187500.02, -187500.02, -187500.02, 0.000, 0.000, 0.000, 17:56:42.799
138, 48183.59, 68097.25, -187500.02, -187500.02, -162495.81, -187500.02, -187500.02, -187500.02, 0.000, 0.000, 0.000, 17:56:42.799
139, 47978.64, 67330.18, -187500.02, -187500.02, -162293.81, -187500.02, -187500.02, -187500.02, 0.000, 0.000, 0.000, 17:56:42.799
140, 47404.61, 66925.13, -187500.02, -187500.02, -162268.19, -187500.02, -187500.02, -187500.02, 0.000, 0.000, 0.000, 17:56:42.799
141, 47561.47, 67809.78, -187500.02, -187500.02, -162429.05, -187500.02, -187500.02, -187500.02, 0.000, 0.000, 0.000, 17:56:42.800
142, 48104.77, 68273.96, -187500.02, -187500.02, -162527.55, -187500.02, -187500.02, -187500.02, 0.000, 0.000, 0.000, 17:56:42.800
143, 48194.14, 68119.76, -187500.02, -187500.02, -162527.73, -187500.02, -187500.02, -187500.02, 0.000, 0.000, 0.000, 17:56:42.800
144, 47997.55, 67364.78, -187500.02, -187500.02, -162351.72, -187500.02, -187500.02, -187500.02, 0.000, 0.000, 0.000, 17:56:42.800
145, 47430.04, 66946.13, -187500.02, -187500.02, -162342.70, -187500.02, -187500.02, -187500.02, 0.000, 0.000, 0.000, 17:56:42.800
146, 47579.22, 67828.71, -187500.02, -187500.02, -162547.72, -187500.02, -187500.02, -187500.02, 0.008, -0.026, 1.024, 17:56:42.800
147, 48113.43, 68292.60, -187500.02, -187500.02, -162651.11, -187500.02, -187500.02, -187500.02, 0.000, 0.000, 0.000, 17:56:42.801
148, 48194.52, 68122.05, -187500.02, -187500.02, -162613.41, -187500.02, -187500.02, -187500.02, 0.000, 0.000, 0.000, 17:56:42.801
149, 48000.04, 67367.38, -187500.02, -187500.02, -162418.14, -187500.02, -187500.02, -187500.02, 0.000, 0.000, 0.000, 17:56:42.801
150, 47423.38, 66939.47, -187500.02, -187500.02, -162376.83, -187500.02, -187500.02, -187500.02, 0.000, 0.000, 0.000, 17:56:42.801
151, 47567.80, 67819.48, -187500.02, -187500.02, -162540.20, -187500.02, -187500.02, -187500.02, 0.000, 0.000, 0.000, 17:56:42.801
152, 48113.71, 68293.77, -187500.02, -187500.02, -162601.45, -187500.02, -187500.02, -187500.02, 0.000, 0.000, 0.000, 17:56:42.801
153, 48204.73, 68141.17, -187500.02, -187500.02, -162570.02, -187500.02, -187500.02, -187500.02, 0.000, 0.000, 0.000, 17:56:42.802
154, 48009.55, 67389.75, -187500.02, -187500.02, -162358.31, -187500.02, -187500.02, -187500.02, 0.000, 0.000, 0.000, 17:56:42.802
155, 47442.67, 66960.33, -187500.02, -187500.02, -162356.72, -187500.02, -187500.02, -187500.02, 0.012, -0.022, 1.024, 17:56:42.802
156, 47583.55, 67835.17, -187500.02, -187500.02, -162541.13, -187500.02, -187500.02, -187500.02, 0.000, 0.000, 0.000, 17:56:42.802
157, 48129.09, 68314.08, -187500.02, -187500.02, -162652.05, -187500.02, -187500.02, -187500.02, 0.000, 0.000, 0.000, 17:56:42.802
158, 48218.10, 68162.67, -187500.02, -187500.02, -162650.80, -187500.02, -187500.02, -187500.02, 0.000, 0.000, 0.000, 17:56:42.803
159, 48031.06, 67412.44, -187500.02, -187500.02, -162464.14, -187500.02, -187500.02, -187500.02, 0.000, 0.000, 0.000, 17:56:42.803
160, 47457.91, 66967.52, -187500.02, -187500.02, -162466.91, -187500.02, -187500.02, -187500.02, 0.000, 0.000, 0.000, 17:56:42.803
161, 47576.43, 67830.59, -187500.02, -187500.02, -162649.89, -187500.02, -187500.02, -187500.02, 0.000, 0.000, 0.000, 17:56:42.803
162, 48122.93, 68312.77, -187500.02, -187500.02, -162730.23, -187500.02, -187500.02, -187500.02, 0.000, 0.000, 0.000, 17:56:42.803
163, 48217.65, 68164.17, -187500.02, -187500.02, -162710.19, -187500.02, -187500.02, -187500.02, 0.000, 0.000, 0.000, 17:56:42.803
164, 48025.89, 67410.38, -187500.02, -187500.02, -162509.81, -187500.02, -187500.02, -187500.02, 0.000, 0.000, 0.000, 17:56:42.803
165, 47446.40, 66950.13, -187500.02, -187500.02, -162462.73, -187500.02, -187500.02, -187500.02, 0.014, -0.010, 1.020, 17:56:42.804
166, 47555.10, 67807.77, -187500.02, -187500.02, -162583.31, -187500.02, -187500.02, -187500.02, 0.000, 0.000, 0.000, 17:56:42.804
167, 48104.77, 68299.06, -187500.02, -187500.02, -162647.17, -187500.02, -187500.02, -187500.02, 0.000, 0.000, 0.000, 17:56:42.804
168, 48201.71, 68154.58, -187500.02, -187500.02, -162627.08, -187500.02, -187500.02, -187500.02, 0.000, 0.000, 0.000, 17:56:42.804
169, 48017.25, 67413.40, -187500.02, -187500.02, -162427.50, -187500.02, -187500.02, -187500.02, 0.000, 0.000, 0.000, 17:56:42.804
170, 47442.87, 66942.29, -187500.02, -187500.02, -162379.42, -187500.02, -187500.02, -187500.02, 0.000, 0.000, 0.000, 17:56:42.804
171, 47561.14, 67807.73, -187500.02, -187500.02, -162550.50, -187500.02, -187500.02, -187500.02, 0.000, 0.000, 0.000, 17:56:42.804
172, 48122.41, 68317.10, -187500.02, -187500.02, -162703.48, -187500.02, -187500.02, -187500.02, 0.000, 0.000, 0.000, 17:56:42.804
173, 48224.73, 68177.16, -187500.02, -187500.02, -162730.80, -187500.02, -187500.02, -187500.02, 0.000, 0.000, 0.000, 17:56:42.805
174, 48041.16, 67437.18, -187500.02, -187500.02, -162540.97, -187500.02, -187500.02, -187500.02, 0.000, 0.000, 0.000, 17:56:42.805
175, 47464.69, 66960.86, -187500.02, -187500.02, -162515.42, -187500.02, -187500.02, -187500.02, 0.014, -0.008, 1.026, 17:56:42.805
176, 47560.40, 67807.23, -187500.02, -187500.02, -162672.28, -187500.02, -187500.02, -187500.02, 0.000, 0.000, 0.000, 17:56:42.805
177, 48104.44, 68302.32, -187500.02, -187500.02, -162735.83, -187500.02, -187500.02, -187500.02, 0.000, 0.000, 0.000, 17:56:42.805
178, 48212.49, 68169.48, -187500.02, -187500.02, -162731.25, -187500.02, -187500.02, -187500.02, 0.000, 0.000, 0.000, 17:56:42.805
179, 48033.18, 67429.94, -187500.02, -187500.02, -162556.56, -187500.02, -187500.02, -187500.02, 0.000, 0.000, 0.000, 17:56:42.805
180, 47451.43, 66937.75, -187500.02, -187500.02, -162499.13, -187500.02, -187500.02, -187500.02, 0.000, 0.000, 0.000, 17:56:42.805
181, 47547.43, 67789.77, -187500.02, -187500.02, -162677.72, -187500.02, -187500.02, -187500.02, 0.000, 0.000, 0.000, 17:56:42.805
182, 48103.66, 68300.65, -187500.02, -187500.02, -162761.22, -187500.02, -187500.02, -187500.02, 0.000, 0.000, 0.000, 17:56:42.806
183, 48211.32, 68161.59, -187500.02, -187500.02, -162748.55, -187500.02, -187500.02, -187500.02, 0.000, 0.000, 0.000, 17:56:42.806
184, 48034.52, 67432.55, -187500.02, -187500.02, -162554.59, -187500.02, -187500.02, -187500.02, 0.000, 0.000, 0.000, 17:56:42.806
185, 47459.64, 66937.77, -187500.02, -187500.02, -162500.00, -187500.02, -187500.02, -187500.02, 0.014, -0.016, 1.026, 17:56:42.806
186, 47545.80, 67781.53, -187500.02, -187500.02, -162664.69, -187500.02, -187500.02, -187500.02, 0.000, 0.000, 0.000, 17:56:42.806
187, 48105.18, 68304.00, -187500.02, -187500.02, -162751.61, -187500.02, -187500.02, -187500.02, 0.000, 0.000, 0.000, 17:56:42.806
188, 48221.45, 68185.36, -187500.02, -187500.02, -162763.91, -187500.02, -187500.02, -187500.02, 0.000, 0.000, 0.000, 17:56:42.806
189, 48055.69, 67464.96, -187500.02, -187500.02, -162625.56, -187500.02, -187500.02, -187500.02, 0.000, 0.000, 0.000, 17:56:42.806
190, 47469.92, 66946.06, -187500.02, -187500.02, -162586.19, -187500.02, -187500.02, -187500.02, 0.000, 0.000, 0.000, 17:56:42.807
191, 47540.80, 67774.48, -187500.02, -187500.02, -162757.00, -187500.02, -187500.02, -187500.02, 0.000, 0.000, 0.000, 17:56:42.807
192, 48094.16, 68292.47, -187500.02, -187500.02, -162871.59, -187500.02, -187500.02, -187500.02, 0.000, 0.000, 0.000, 17:56:42.807
193, 48202.36, 68160.99, -187500.02, -187500.02, -162819.27, -187500.02, -187500.02, -187500.02, 0.000, 0.000, 0.000, 17:56:42.807
194, 48040.04, 67446.95, -187500.02, -187500.02, -162638.42, -187500.02, -187500.02, -187500.02, 0.000, 0.000, 0.000, 17:56:42.807
195, 47458.59, 66928.52, -187500.02, -187500.02, -162594.94, -187500.02, -187500.02, -187500.02, 0.016, -0.018, 1.026, 17:56:42.807
196, 47515.58, 67750.95, -187500.02, -187500.02, -162729.81, -187500.02, -187500.02, -187500.02, 0.000, 0.000, 0.000, 17:56:42.807
197, 48076.88, 68280.98, -187500.02, -187500.02, -162800.41, -187500.02, -187500.02, -187500.02, 0.000, 0.000, 0.000, 17:56:42.807
198, 48198.43, 68161.84, -187500.02, -187500.02, -162786.83, -187500.02, -187500.02, -187500.02, 0.000, 0.000, 0.000, 17:56:42.807
199, 48031.08, 67442.36, -187500.02, -187500.02, -162626.17, -187500.02, -187500.02, -187500.02, 0.000, 0.000, 0.000, 17:56:42.808
200, 47457.16, 66914.77, -187500.02, -187500.02, -162555.69, -187500.02, -187500.02, -187500.02, 0.000, 0.000, 0.000, 17:56:42.808
201, 47520.32, 67745.66, -187500.02, -187500.02, -162726.86, -187500.02, -187500.02, -187500.02, 0.000, 0.000, 0.000, 17:56:42.808
202, 48088.39, 68292.63, -187500.02, -187500.02, -162843.94, -187500.02, -187500.02, -187500.02, 0.000, 0.000, 0.000, 17:56:42.808
203, 48209.14, 68176.87, -187500.02, -187500.02, -162828.70, -187500.02, -187500.02, -187500.02, 0.000, 0.000, 0.000, 17:56:42.808
204, 48043.75, 67462.77, -187500.02, -187500.02, -162635.25, -187500.02, -187500.02, -187500.02, 0.000, 0.000, 0.000, 17:56:42.808
205, 47473.50, 66932.07, -187500.02, -187500.02, -162609.27, -187500.02, -187500.02, -187500.02, 0.014, -0.014, 1.028, 17:56:42.808
206, 47517.44, 67746.26, -187500.02, -187500.02, -162790.70, -187500.02, -187500.02, -187500.02, 0.000, 0.000, 0.000, 17:56:42.808
207, 48074.38, 68283.33, -187500.02, -187500.02, -162884.78, -187500.02, -187500.02, -187500.02, 0.000, 0.000, 0.000, 17:56:42.809
208, 48195.14, 68160.50, -187500.02, -187500.02, -162849.59, -187500.02, -187500.02, -187500.02, 0.000, 0.000, 0.000, 17:56:42.809
209, 48031.53, 67456.02, -187500.02, -187500.02, -162656.48, -187500.02, -187500.02, -187500.02, 0.000, 0.000, 0.000, 17:56:42.809
210, 47458.94, 66912.49, -187500.02, -187500.02, -162603.61, -187500.02, -187500.02, -187500.02, 0.000, 0.000, 0.000, 17:56:42.809
211, 47502.53, 67719.73, -187500.02, -187500.02, -162748.52, -187500.02, -187500.02, -187500.02, 0.000, 0.000, 0.000, 17:56:42.809
212, 48067.20, 68272.64, -187500.02, -187500.02, -162815.28, -187500.02, -187500.02, -187500.02, 0.000, 0.000, 0.000, 17:56:42.809
213, 48191.36, 68163.68, -187500.02, -187500.02, -162792.88, -187500.02, -187500.02, -187500.02, 0.000, 0.000, 0.000, 17:56:42.809
214, 48041.23, 67466.99, -187500.02, -187500.02, -162588.19, -187500.02, -187500.02, -187500.02, 0.000, 0.000, 0.000, 17:56:42.809
215, 47470.50, 66912.59, -187500.02, -187500.02, -162519.48, -187500.02, -187500.02, -187500.02, 0.014, -0.014, 1.026, 17:56:42.809
216, 47503.22, 67717.58, -187500.02, -187500.02, -162708.67, -187500.02, -187500.02, -187500.02, 0.000, 0.000, 0.000, 17:56:42.810
217, 48071.20, 68270.30, -187500.02, -187500.02, -162841.42, -187500.02, -187500.02, -187500.02, 0.000, 0.000, 0.000, 17:56:42.810
218, 48200.84, 68170.43, -187500.02, -187500.02, -162864.34, -187500.02, -187500.02, -187500.02, 0.000, 0.000, 0.000, 17:56:42.810
219, 48038.66, 67467.58, -187500.02, -187500.02, -162663.94, -187500.02, -187500.02, -187500.02, 0.000, 0.000, 0.000, 17:56:42.810
220, 47463.26, 66903.80, -187500.02, -187500.02, -162594.58, -187500.02, -187500.02, -187500.02, 0.000, 0.000, 0.000, 17:56:42.810
221, 47493.75, 67708.41, -187500.02, -187500.02, -162754.11, -187500.02, -187500.02, -187500.02, 0.000, 0.000, 0.000, 17:56:42.810
222, 48059.13, 68270.00, -187500.02, -187500.02, -162858.52, -187500.02, -187500.02, -187500.02, 0.000, 0.000, 0.000, 17:56:42.811
223, 48183.79, 68166.25, -187500.02, -187500.02, -162841.30, -187500.02, -187500.02, -187500.02, 0.000, 0.000, 0.000, 17:56:42.811
224, 48036.24, 67480.23, -187500.02, -187500.02, -162647.20, -187500.02, -187500.02, -187500.02, 0.000, 0.000, 0.000, 17:56:42.811
225, 47468.15, 66903.51, -187500.02, -187500.02, -162591.81, -187500.02, -187500.02, -187500.02, 0.012, -0.008, 1.026, 17:56:42.811
226, 47484.63, 67694.45, -187500.02, -187500.02, -162755.66, -187500.02, -187500.02, -187500.02, 0.000, 0.000, 0.000, 17:56:42.811
227, 48047.38, 68260.68, -187500.02, -187500.02, -162821.48, -187500.02, -187500.02, -187500.02, 0.000, 0.000, 0.000, 17:56:42.812
228, 48181.11, 68165.84, -187500.02, -187500.02, -162789.73, -187500.02, -187500.02, -187500.02, 0.000, 0.000, 0.000, 17:56:42.812
229, 48040.00, 67487.05, -187500.02, -187500.02, -162621.50, -187500.02, -187500.02, -187500.02, 0.000, 0.000, 0.000, 17:56:42.812
230, 47465.49, 66902.97, -187500.02, -187500.02, -162512.75, -187500.02, -187500.02, -187500.02, 0.000, 0.000, 0.000, 17:56:42.812
231, 47480.80, 67693.02, -187500.02, -187500.02, -162670.33, -187500.02, -187500.02, -187500.02, 0.000, 0.000, 0.000, 17:56:42.812
232, 48061.41, 68282.92, -187500.02, -187500.02, -162814.22, -187500.02, -187500.02, -187500.02, 0.000, 0.000, 0.000, 17:56:42.812
233, 48200.82, 68189.60, -187500.02, -187500.02, -162834.89, -187500.02, -187500.02, -187500.02, 0.000, 0.000, 0.000, 17:56:42.813
234, 48051.98, 67504.77, -187500.02, -187500.02, -162669.98, -187500.02, -187500.02, -187500.02, 0.000, 0.000, 0.000, 17:56:42.813
235, 47485.41, 66909.61, -187500.02, -187500.02, -162603.70, -187500.02, -187500.02, -187500.02, 0.010, -0.006, 1.024, 17:56:42.813
236, 47489.43, 67690.16, -187500.02, -187500.02, -162798.34, -187500.02, -187500.02, -187500.02, 0.000, 0.000, 0.000, 17:56:42.813
237, 48049.88, 68269.02, -187500.02, -187500.02, -162875.13, -187500.02, -187500.02, -187500.02, 0.000, 0.000, 0.000, 17:56:42.813
238, 48191.34, 68180.84, -187500.02, -187500.02, -162828.00, -187500.02, -187500.02, -187500.02, 0.000, 0.000, 0.000, 17:56:42.814
239, 48050.39, 67506.63, -187500.02, -187500.02, -162640.34, -187500.02, -187500.02, -187500.02, 0.000, 0.000, 0.000, 17:56:42.814
240, 47484.80, 66902.95, -187500.02, -187500.02, -162574.83, -187500.02, -187500.02, -187500.02, 0.000, 0.000, 0.000, 17:56:43.276
241, 47480.04, 67679.49, -187500.02, -187500.02, -162751.45, -187500.02, -187500.02, -187500.02, 0.000, 0.000, 0.000, 17:56:43.276
242, 48053.95, 68276.62, -187500.02, -187500.02, -162901.91, -187500.02, -187500.02, -187500.02, 0.000, 0.000, 0.000, 17:56:43.276
243, 48193.51, 68182.90, -187500.02, -187500.02, -162887.80, -187500.02, -187500.02, -187500.02, 0.000, 0.000, 0.000, 17:56:43.276
244, 48048.74, 67506.63, -187500.02, -187500.02, -162677.27, -187500.02, -187500.02, -187500.02, 0.000, 0.000, 0.000, 17:56:43.276
245, 47487.57, 66903.13, -187500.02, -187500.02, -162602.31, -187500.02, -187500.02, -187500.02, 0.014, -0.008, 1.020, 17:56:43.276
246, 47483.46, 67672.54, -187500.02, -187500.02, -162768.19, -187500.02, -187500.02, -187500.02, 0.000, 0.000, 0.000, 17:56:43.277
247, 48069.50, 68290.59, -187500.02, -187500.02, -162927.58, -187500.02, -187500.02, -187500.02, 0.000, 0.000, 0.000, 17:56:43.277
248, 48219.46, 68208.16, -187500.02, -187500.02, -162946.42, -187500.02, -187500.02, -187500.02, 0.000, 0.000, 0.000, 17:56:43.277
249, 48079.54, 67540.09, -187500.02, -187500.02, -162757.58, -187500.02, -187500.02, -187500.02, 0.000, 0.000, 0.000, 17:56:43.277
250, 47514.13, 66923.34, -187500.02, -187500.02, -162681.28, -187500.02, -187500.02, -187500.02, 0.000, 0.000, 0.000, 17:56:43.277
251, 47493.61, 67678.35, -187500.02, -187500.02, -162861.11, -187500.02, -187500.02, -187500.02, 0.000, 0.000, 0.000, 17:56:43.277
252, 48058.13, 68284.91, -187500.02, -187500.02, -162934.41, -187500.02, -187500.02, -187500.02, 0.000, 0.000, 0.000, 17:56:43.278
253, 48208.53, 68209.09, -187500.02, -187500.02, -162928.20, -187500.02, -187500.02, -187500.02, 0.000, 0.000, 0.000, 17:56:43.278
254, 48078.38, 67550.70, -187500.02, -187500.02, -162777.00, -187500.02, -187500.02, -187500.02, 0.000, 0.000, 0.000, 17:56:43.278
255, 47506.48, 66911.58, -187500.02, -187500.02, -162685.36, -187500.02, -187500.02, -187500.02, 0.016, -0.016, 1.026, 17:56:43.278
0, 47481.68, 67668.45, -187500.02, -187500.02, -162839.94, -187500.02, -187500.02, -187500.02, 0.000, 0.000, 0.000, 17:56:43.278
1, 48056.07, 68285.16, -187500.02, -187500.02, -162941.55, -187500.02, -187500.02, -187500.02, 0.000, 0.000, 0.000, 17:56:43.278
2, 48209.34, 68202.23, -187500.02, -187500.02, -162916.14, -187500.02, -187500.02, -187500.02, 0.000, 0.000, 0.000, 17:56:43.279
3, 48066.62, 67541.31, -187500.02, -187500.02, -162686.20, -187500.02, -187500.02, -187500.02, 0.000, 0.000, 0.000, 17:56:43.279
4, 47516.92, 66918.35, -187500.02, -187500.02, -162624.72, -187500.02, -187500.02, -187500.02, 0.000, 0.000, 0.000, 17:56:43.279
5, 47487.69, 67667.58, -187500.02, -187500.02, -162820.42, -187500.02, -187500.02, -187500.02, 0.000, 0.000, 0.000, 17:56:43.279
6, 48062.89, 68291.22, -187500.02, -187500.02, -162940.77, -187500.02, -187500.02, -187500.02, 0.000, 0.000, 0.000, 17:56:43.279
7, 48219.11, 68221.41, -187500.02, -187500.02, -162952.39, -187500.02, -187500.02, -187500.02, 0.000, 0.000, 0.000, 17:56:43.280
8, 48089.06, 67572.77, -187500.02, -187500.02, -162807.17, -187500.02, -187500.02, -187500.02, 0.000, 0.000, 0.000, 17:56:43.280
9, 47530.11, 66931.49, -187500.02, -187500.02, -162737.56, -187500.02, -187500.02, -187500.02, 0.010, -0.018, 1.032, 17:56:43.280
10, 47482.43, 67657.90, -187500.02, -187500.02, -162899.83, -187500.02, -187500.02, -187500.02, 0.000, 0.000, 0.000, 17:56:43.280
11, 48051.13, 68278.19, -187500.02, -187500.02, -162961.67, -187500.02, -187500.02, -187500.02, 0.000, 0.000, 0.000, 17:56:43.280
12, 48212.96, 68213.12, -187500.02, -187500.02, -162932.67, -187500.02, -187500.02, -187500.02, 0.000, 0.000, 0.000, 17:56:43.280
13, 48093.87, 67578.66, -187500.02, -187500.02, -162757.63, -187500.02, -187500.02, -187500.02, 0.000, 0.000, 0.000, 17:56:43.281
14, 47533.62, 66927.73, -187500.02, -187500.02, -162671.86, -187500.02, -187500.02, -187500.02, 0.000, 0.000, 0.000, 17:56:43.281
15, 47466.43, 67641.92, -187500.02, -187500.02, -162793.19, -187500.02, -187500.02, -187500.02, 0.000, 0.000, 0.000, 17:56:43.281
16, 48047.82, 68285.56, -187500.02, -187500.02, -162914.69, -187500.02, -187500.02, -187500.02, 0.000, 0.000, 0.000, 17:56:43.281
17, 48216.02, 68227.00, -187500.02, -187500.02, -162943.77, -187500.02, -187500.02, -187500.02, 0.000, 0.000, 0.000, 17:56:43.281
18, 48084.61, 67582.95, -187500.02, -187500.02, -162775.80, -187500.02, -187500.02, -187500.02, 0.008, -0.010, 1.030, 17:56:43.281
19, 47529.08, 66920.00, -187500.02, -187500.02, -162656.08, -187500.02, -187500.02, -187500.02, 0.000, 0.000, 0.000, 17:56:43.282
20, 47469.58, 67639.91, -187500.02, -187500.02, -162846.22, -187500.02, -187500.02, -187500.02, 0.000, 0.000, 0.000, 17:56:43.282
21, 48043.00, 68283.05, -187500.02, -187500.02, -162964.58, -187500.02, -187500.02, -187500.02, 0.000, 0.000, 0.000, 17:56:43.282
22, 48213.98, 68224.41, -187500.02, -187500.02, -162977.11, -187500.02, -187500.02, -187500.02, 0.000, 0.000, 0.000, 17:56:43.282
23, 48092.77, 67594.49, -187500.02, -187500.02, -162826.73, -187500.02, -187500.02, -187500.02, 0.000, 0.000, 0.000, 17:56:43.282
24, 47549.67, 66935.07, -187500.02, -187500.02, -162753.03, -187500.02, -187500.02, -187500.02, 0.000, 0.000, 0.000, 17:56:43.282
25, 47475.06, 67639.04, -187500.02, -187500.02, -162938.83, -187500.02, -187500.02, -187500.02, 0.000, 0.000, 0.000, 17:56:43.283
26, 48044.83, 68284.06, -187500.02, -187500.02, -163033.91, -187500.02, -187500.02, -187500.02, 0.000, 0.000, 0.000, 17:56:43.283
27, 48214.43, 68228.20, -187500.02, -187500.02, -163011.61, -187500.02, -187500.02, -187500.02, 0.000, 0.000, 0.000, 17:56:43.283
28, 48095.68, 67592.90, -187500.02, -187500.02, -162849.53, -187500.02, -187500.02, -187500.02, 0.010, -0.006, 1.030, 17:56:43.283
29, 47537.67, 66904.98, -187500.02, -187500.02, -162729.92, -187500.02, -187500.02, -187500.02, 0.000, 0.000, 0.000, 17:56:43.283
30, 47455.28, 67606.25, -187500.02, -187500.02, -162865.73, -187500.02, -187500.02, -187500.02, 0.000, 0.000, 0.000, 17:56:43.284
31, 48026.10, 68262.96, -187500.02, -187500.02, -162927.38, -187500.02, -187500.02, -187500.02, 0.000, 0.000, 0.000, 17:56:43.284
32, 48201.45, 68215.60, -187500.02, -187500.02, -162917.92, -187500.02, -187500.02, -187500.02, 0.000, 0.000, 0.000, 17:56:43.284
33, 48084.77, 67589.57, -187500.02, -187500.02, -162720.88, -187500.02, -187500.02, -187500.02, 0.000, 0.000, 0.000, 17:56:43.284
34, 47552.46, 66921.81, -187500.02, -187500.02, -162649.69, -187500.02, -187500.02, -187500.02, 0.000, 0.000, 0.000, 17:56:43.284
35, 47466.54, 67616.55, -187500.02, -187500.02, -162846.20, -187500.02, -187500.02, -187500.02, 0.000, 0.000, 0.000, 17:56:43.284
36, 48039.64, 68275.30, -187500.02, -187500.02, -162958.19, -187500.02, -187500.02, -187500.02, 0.000, 0.000, 0.000, 17:56:43.285
37, 48224.38, 68231.63, -187500.02, -187500.02, -162972.13, -187500.02, -187500.02, -187500.02, 0.000, 0.000, 0.000, 17:56:43.285
38, 48116.62, 67619.27, -187500.02, -187500.02, -162848.50, -187500.02, -187500.02, -187500.02, 0.012, -0.008, 1.028, 17:56:43.285
39, 47563.46, 66924.32, -187500.02, -187500.02, -162773.53, -187500.02, -187500.02, -187500.02, 0.000, 0.000, 0.000, 17:56:43.285
40, 47458.70, 67600.66, -187500.02, -187500.02, -162945.48, -187500.02, -187500.02, -187500.02, 0.000, 0.000, 0.000, 17:56:43.285
41, 48027.91, 68261.24, -187500.02, -187500.02, -163011.16, -187500.02, -187500.02, -187500.02, 0.000, 0.000, 0.000, 17:56:43.285
42, 48209.22, 68219.06, -187500.02, -187500.02, -162995.70, -187500.02, -187500.02, -187500.02, 0.000, 0.000, 0.000, 17:56:43.286
43, 48101.76, 67608.26, -187500.02, -187500.02, -162848.09, -187500.02, -187500.02, -187500.02, 0.000, 0.000, 0.000, 17:56:43.286
44, 47557.29, 66915.27, -187500.02, -187500.02, -162744.98, -187500.02, -187500.02, -187500.02, 0.000, 0.000, 0.000, 17:56:43.286
45, 47447.63, 67586.17, -187500.02, -187500.02, -162888.13, -187500.02, -187500.02, -187500.02, 0.000, 0.000, 0.000, 17:56:43.286
46, 48023.66, 68266.36, -187500.02, -187500.02, -163000.69, -187500.02, -187500.02, -187500.02, 0.000, 0.000, 0.000, 17:56:43.286
47, 48212.96, 68227.98, -187500.02, -187500.02, -163000.36, -187500.02, -187500.02, -187500.02, 0.000, 0.000, 0.000, 17:56:43.287
48, 48096.28, 67615.19, -187500.02, -187500.02, -162807.03, -187500.02, -187500.02, -187500.02, 0.012, -0.010, 1.028, 17:56:43.287
49, 47556.80, 66913.05, -187500.02, -187500.02, -162689.27, -187500.02, -187500.02, -187500.02, 0.000, 0.000, 0.000, 17:56:43.287
50, 47442.00, 67575.11, -187500.02, -187500.02, -162795.58, -187500.02, -187500.02, -187500.02, 0.000, 0.000, 0.000, 17:56:43.287
51, 48026.07, 68267.97, -187500.02, -187500.02, -162924.30, -187500.02, -187500.02, -187500.02, 0.000, 0.000, 0.000, 17:56:43.287
52, 48231.15, 68252.05, -187500.02, -187500.02, -162983.34, -187500.02, -187500.02, -187500.02, 0.000, 0.000, 0.000, 17:56:43.287
53, 48127.26, 67656.63, -187500.02, -187500.02, -162883.45, -187500.02, -187500.02, -187500.02, 0.000, 0.000, 0.000, 17:56:43.288
54, 47585.61, 66949.51, -187500.02, -187500.02, -162811.67, -187500.02, -187500.02, -187500.02, 0.000, 0.000, 0.000, 17:56:43.288
55, 47461.69, 67599.56, -187500.02, -187500.02, -162995.17, -187500.02, -187500.02, -187500.02, 0.000, 0.000, 0.000, 17:56:43.288
56, 48026.01, 68278.92, -187500.02, -187500.02, -163072.36, -187500.02, -187500.02, -187500.02, 0.000, 0.000, 0.000, 17:56:43.288
57, 48229.65, 68263.99, -187500.02, -187500.02, -163078.77, -187500.02, -187500.02, -187500.02, 0.000, 0.000, 0.000, 17:56:43.288
58, 48124.24, 67660.47, -187500.02, -187500.02, -162921.22, -187500.02, -187500.02, -187500.02, 0.010, -0.016, 1.026, 17:56:43.288
59, 47582.95, 66933.88, -187500.02, -187500.02, -162781.73, -187500.02, -187500.02, -187500.02, 0.000, 0.000, 0.000, 17:56:43.288
60, 47454.03, 67579.78, -187500.02, -187500.02, -162941.16, -187500.02, -187500.02, -187500.02, 0.000, 0.000, 0.000, 17:56:43.289
61, 48019.23, 68269.60, -187500.02, -187500.02, -163027.83, -187500.02, -187500.02, -187500.02, 0.000, 0.000, 0.000, 17:56:43.289
62, 48222.57, 68245.02, -187500.02, -187500.02, -163001.98, -187500.02, -187500.02, -187500.02, 0.000, 0.000, 0.000, 17:56:43.289
63, 48121.32, 67648.63, -187500.02, -187500.02, -162818.75, -187500.02, -187500.02, -187500.02, 0.000, 0.000, 0.000, 17:56:43.289
64, 47588.18, 66929.52, -187500.02, -187500.02, -162696.23, -187500.02, -187500.02, -187500.02, 0.000, 0.000, 0.000, 17:56:43.289
65, 47460.24, 67576.36, -187500.02, -187500.02, -162889.56, -187500.02, -187500.02, -187500.02, 0.000, 0.000, 0.000, 17:56:43.289
66, 48038.95, 68285.60, -187500.02, -187500.02, -163062.03, -187500.02, -187500.02, -187500.02, 0.000, 0.000, 0.000, 17:56:43.289
67, 48247.82, 68275.03, -187500.02, -187500.02, -163102.33, -187500.02, -187500.02, -187500.02, 0.000, 0.000, 0.000, 17:56:43.289
68, 48139.80, 67678.94, -187500.02, -187500.02, -162952.33, -187500.02, -187500.02, -187500.02, 0.010, -0.020, 1.024, 17:56:43.289
69, 47615.83, 66950.94, -187500.02, -187500.02, -162859.47, -187500.02, -187500.02, -187500.02, 0.000, 0.000, 0.000, 17:56:43.290
70, 47464.80, 67568.63, -187500.02, -187500.02, -163024.56, -187500.02, -187500.02, -187500.02, 0.000, 0.000, 0.000, 17:56:43.290
71, 48023.04, 68263.59, -187500.02, -187500.02, -163103.48, -187500.02, -187500.02, -187500.02, 0.000, 0.000, 0.000, 17:56:43.290
72, 48232.07, 68254.49, -187500.02, -187500.02, -163118.73, -187500.02, -187500.02, -187500.02, 0.000, 0.000, 0.000, 17:56:43.290
73, 48133.70, 67674.73, -187500.02, -187500.02, -162989.25, -187500.02, -187500.02, -187500.02, 0.000, 0.000, 0.000, 17:56:43.290
74, 47599.78, 66937.05, -187500.02, -187500.02, -162860.89, -187500.02, -187500.02, -187500.02, 0.000, 0.000, 0.000, 17:56:43.290
75, 47441.26, 67550.12, -187500.02, -187500.02, -162995.31, -187500.02, -187500.02, -187500.02, 0.000, 0.000, 0.000, 17:56:43.290
76, 48013.09, 68267.23, -187500.02, -187500.02, -163106.64, -187500.02, -187500.02, -187500.02, 0.000, 0.000, 0.000, 17:56:43.290
77, 48222.43, 68251.61, -187500.02, -187500.02, -163103.52, -187500.02, -187500.02, -187500.02, 0.000, 0.000, 0.000, 17:56:43.291
78, 48125.98, 67668.72, -187500.02, -187500.02, -162922.00, -187500.02, -187500.02, -187500.02, 0.012, -0.018, 1.026, 17:56:43.291
79, 47609.53, 66939.09, -187500.02, -187500.02, -162847.66, -187500.02, -187500.02, -187500.02, 0.000, 0.000, 0.000, 17:56:43.291
80, 47440.86, 67543.13, -187500.02, -187500.02, -162994.09, -187500.02, -187500.02, -187500.02, 0.000, 0.000, 0.000, 17:56:43.291
81, 48010.50, 68268.13, -187500.02, -187500.02, -163096.11, -187500.02, -187500.02, -187500.02, 0.000, 0.000, 0.000, 17:56:43.291
82, 48232.07, 68270.00, -187500.02, -187500.02, -163133.19, -187500.02, -187500.02, -187500.02, 0.000, 0.000, 0.000, 17:56:43.291
83, 48142.62, 67697.87, -187500.02, -187500.02, -162999.16, -187500.02, -187500.02, -187500.02, 0.000, 0.000, 0.000, 17:56:43.291
84, 47617.44, 66945.84, -187500.02, -187500.02, -162893.19, -187500.02, -187500.02, -187500.02, 0.000, 0.000, 0.000, 17:56:43.291
85, 47434.87, 67533.05, -187500.02, -187500.02, -163048.69, -187500.02, -187500.02, -187500.02, 0.000, 0.000, 0.000, 17:56:43.291
86, 48004.19, 68265.22, -187500.02, -187500.02, -163166.77, -187500.02, -187500.02, -187500.02, 0.000, 0.000, 0.000, 17:56:43.292
87, 48215.19, 68256.30, -187500.02, -187500.02, -163152.47, -187500.02, -187500.02, -187500.02, 0.000, 0.000, 0.000, 17:56:43.292
88, 48118.43, 67689.08, -187500.02, -187500.02, -162950.27, -187500.02, -187500.02, -187500.02, 0.010, -0.010, 1.026, 17:56:43.292
89, 47603.56, 66936.03, -187500.02, -187500.02, -162839.98, -187500.02, -187500.02, -187500.02, 0.000, 0.000, 0.000, 17:56:43.292
90, 47421.53, 67514.49, -187500.02, -187500.02, -162973.17, -187500.02, -187500.02, -187500.02, 0.000, 0.000, 0.000, 17:56:43.292
91, 47987.47, 68247.34, -187500.02, -187500.02, -163077.50, -187500.02, -187500.02, -187500.02, 0.000, 0.000, 0.000, 17:56:43.292
92, 48212.55, 68248.34, -187500.02, -187500.02, -163074.95, -187500.02, -187500.02, -187500.02, 0.000, 0.000, 0.000, 17:56:43.292
93, 48131.78, 67690.71, -187500.02, -187500.02, -162926.06, -187500.02, -187500.02, -187500.02, 0.000, 0.000, 0.000, 17:56:43.292
94, 47616.30, 66938.96, -187500.02, -187500.02, -162802.81, -187500.02, -187500.02, -187500.02, 0.000, 0.000, 0.000, 17:56:43.292
95, 47432.21, 67519.79, -187500.02, -187500.02, -162963.19, -187500.02, -187500.02, -187500.02, 0.000, 0.000, 0.000, 17:56:43.293
96, 48005.58, 68262.85, -187500.02, -187500.02, -163084.61, -187500.02, -187500.02, -187500.02, 0.000, 0.000, 0.000, 17:56:43.293
97, 48237.28, 68268.88, -187500.02, -187500.02, -163127.58, -187500.02, -187500.02, -187500.02, 0.000, 0.000, 0.000, 17:56:43.293
98, 48149.43, 67712.30, -187500.02, -187500.02, -163009.64, -187500.02, -187500.02, -187500.02, 0.012, -0.010, 1.026, 17:56:43.293
99, 47636.64, 66948.03, -187500.02, -187500.02, -162935.14, -187500.02, -187500.02, -187500.02, 0.000, 0.000, 0.000, 17:56:43.293
100, 47427.11, 67500.70, -187500.02, -187500.02, -163078.55, -187500.02, -187500.02, -187500.02, 0.000, 0.000, 0.000, 17:56:43.293
101, 47989.75, 68244.21, -187500.02, -187500.02, -163199.78, -187500.02, -187500.02, -187500.02, 0.000, 0.000, 0.000, 17:56:43.293
102, 48222.55, 68255.16, -187500.02, -187500.02, -163244.19, -187500.02, -187500.02, -187500.02, 0.000, 0.000, 0.000, 17:56:43.293
103, 48128.42, 67697.87, -187500.02, -187500.02, -163096.11, -187500.02, -187500.02, -187500.02, 0.000, 0.000, 0.000, 17:56:43.294
104, 47612.99, 66925.03, -187500.02, -187500.02, -162936.13, -187500.02, -187500.02, -187500.02, 0.000, 0.000, 0.000, 17:56:43.756
105, 47411.31, 67475.76, -187500.02, -187500.02, -163099.28, -187500.02, -187500.02, -187500.02, 0.000, 0.000, 0.000, 17:56:43.756
106, 47972.41, 68226.02, -187500.02, -187500.02, -163223.88, -187500.02, -187500.02, -187500.02, 0.000, 0.000, 0.000, 17:56:43.756
107, 48211.55, 68239.67, -187500.02, -187500.02, -163224.03, -187500.02, -187500.02, -187500.02, 0.000, 0.000, 0.000, 17:56:43.756
108, 48119.71, 67690.67, -187500.02, -187500.02, -163061.06, -187500.02, -187500.02, -187500.02, 0.012, -0.016, 1.022, 17:56:43.756
109, 47612.72, 66916.38, -187500.02, -187500.02, -162909.86, -187500.02, -187500.02, -187500.02, 0.000, 0.000, 0.000, 17:56:43.756
110, 47403.54, 67462.50, -187500.02, -187500.02, -163032.55, -187500.02, -187500.02, -187500.02, 0.000, 0.000, 0.000, 17:56:43.757
111, 47969.59, 68225.41, -187500.02, -187500.02, -163158.55, -187500.02, -187500.02, -187500.02, 0.000, 0.000, 0.000, 17:56:43.757
112, 48214.86, 68252.23, -187500.02, -187500.02, -163222.78, -187500.02, -187500.02, -187500.02, 0.000, 0.000, 0.000, 17:56:43.757
113, 48135.89, 67713.02, -187500.02, -187500.02, -163113.09, -187500.02, -187500.02, -187500.02, 0.000, 0.000, 0.000, 17:56:43.757
114, 47629.69, 66929.15, -187500.02, -187500.02, -162984.58, -187500.02, -187500.02, -187500.02, 0.000, 0.000, 0.000, 17:56:43.757
115, 47400.76, 67452.78, -187500.02, -187500.02, -163125.97, -187500.02, -187500.02, -187500.02, 0.000, 0.000, 0.000, 17:56:43.758
116, 47956.49, 68213.92, -187500.02, -187500.02, -163218.05, -187500.02, -187500.02, -187500.02, 0.000, 0.000, 0.000, 17:56:43.758
117, 48204.20, 68244.48, -187500.02, -187500.02, -163222.94, -187500.02, -187500.02, -187500.02, 0.000, 0.000, 0.000, 17:56:43.758
118, 48128.89, 67716.33, -187500.02, -187500.02, -163096.03, -187500.02, -187500.02, -187500.02, 0.010, -0.020, 1.034, 17:56:43.758
119, 47626.85, 66924.85, -187500.02, -187500.02, -162949.22, -187500.02, -187500.02, -187500.02, 0.000, 0.000, 0.000, 17:56:43.758
120, 47393.03, 67439.10, -187500.02, -187500.02, -163064.31, -187500.02, -187500.02, -187500.02, 0.000, 0.000, 0.000, 17:56:43.759
121, 47956.14, 68215.02, -187500.02, -187500.02, -163161.72, -187500.02, -187500.02, -187500.02, 0.000, 0.000, 0.000, 17:56:43.759
122, 48205.98, 68239.96, -187500.02, -187500.02, -163154.08, -187500.02, -187500.02, -187500.02, 0.000, 0.000, 0.000, 17:56:43.759
123, 48134.10, 67717.38, -187500.02, -187500.02, -163014.50, -187500.02, -187500.02, -187500.02, 0.000, 0.000, 0.000, 17:56:43.759
124, 47644.71, 66935.00, -187500.02, -187500.02, -162882.94, -187500.02, -187500.02, -187500.02, 0.000, 0.000, 0.000, 17:56:43.759
125, 47412.27, 67451.84, -187500.02, -187500.02, -163053.80, -187500.02, -187500.02, -187500.02, 0.000, 0.000, 0.000, 17:56:43.759
126, 47969.93, 68226.59, -187500.02, -187500.02, -163183.16, -187500.02, -187500.02, -187500.02, 0.000, 0.000, 0.000, 17:56:43.760
127, 48229.68, 68263.32, -187500.02, -187500.02, -163226.05, -187500.02, -187500.02, -187500.02, 0.000, 0.000, 0.000, 17:56:43.760
128, 48151.31, 67737.80, -187500.02, -187500.02, -163121.34, -187500.02, -187500.02, -187500.02, 0.014, -0.018, 1.030, 17:56:43.760
129, 47652.71, 66939.96, -187500.02, -187500.02, -162986.33, -187500.02, -187500.02, -187500.02, 0.000, 0.000, 0.000, 17:56:43.760
130, 47404.61, 67432.39, -187500.02, -187500.02, -163133.53, -187500.02, -187500.02, -187500.02, 0.000, 0.000, 0.000, 17:56:43.760
131, 47957.05, 68215.38, -187500.02, -187500.02, -163259.14, -187500.02, -187500.02, -187500.02, 0.000, 0.000, 0.000, 17:56:43.760
132, 48209.27, 68247.09, -187500.02, -187500.02, -163276.67, -187500.02, -187500.02, -187500.02, 0.000, 0.000, 0.000, 17:56:43.761
133, 48136.52, 67728.82, -187500.02, -187500.02, -163133.11, -187500.02, -187500.02, -187500.02, 0.000, 0.000, 0.000, 17:56:43.761
134, 47646.41, 66929.63, -187500.02, -187500.02, -162983.14, -187500.02, -187500.02, -187500.02, 0.000, 0.000, 0.000, 17:56:43.761
135, 47398.57, 67415.27, -187500.02, -187500.02, -163093.61, -187500.02, -187500.02, -187500.02, 0.000, 0.000, 0.000, 17:56:43.761
136, 47955.75, 68207.66, -187500.02, -187500.02, -163215.61, -187500.02, -187500.02, -187500.02, 0.000, 0.000, 0.000, 17:56:43.761
137, 48221.96, 68250.31, -187500.02, -187500.02, -163261.61, -187500.02, -187500.02, -187500.02, 0.008, -0.012, 1.030, 17:56:43.762
138, 48145.30, 67737.88, -187500.02, -187500.02, -163143.67, -187500.02, -187500.02, -187500.02, 0.000, 0.000, 0.000, 17:56:43.762
139, 47652.33, 66928.90, -187500.02, -187500.02, -162959.61, -187500.02, -187500.02, -187500.02, 0.000, 0.000, 0.000, 17:56:43.762
140, 47395.02, 67408.63, -187500.02, -187500.02, -163100.06, -187500.02, -187500.02, -187500.02, 0.000, 0.000, 0.000, 17:56:43.762
141, 47946.70, 68204.20, -187500.02, -187500.02, -163238.06, -187500.02, -187500.02, -187500.02, 0.000, 0.000, 0.000, 17:56:43.762
142, 48220.55, 68255.50, -187500.02, -187500.02, -163282.95, -187500.02, -187500.02, -187500.02, 0.000, 0.000, 0.000, 17:56:43.762
143, 48147.69, 67747.17, -187500.02, -187500.02, -163163.86, -187500.02, -187500.02, -187500.02, 0.000, 0.000, 0.000, 17:56:43.763
144, 47660.06, 66936.39, -187500.02, -187500.02, -163011.78, -187500.02, -187500.02, -187500.02, 0.000, 0.000, 0.000, 17:56:43.763
145, 47393.12, 67400.74, -187500.02, -187500.02, -163152.97, -187500.02, -187500.02, -187500.02, 0.000, 0.000, 0.000, 17:56:43.763
146, 47936.73, 68199.15, -187500.02, -187500.02, -163260.64, -187500.02, -187500.02, -187500.02, 0.000, 0.000, 0.000, 17:56:43.763
147, 48209.16, 68249.51, -187500.02, -187500.02, -163283.00, -187500.02, -187500.02, -187500.02, 0.014, -0.010, 1.028, 17:56:43.763
148, 48131.64, 67734.48, -187500.02, -187500.02, -163128.81, -187500.02, -187500.02, -187500.02, 0.000, 0.000, 0.000, 17:56:43.763
149, 47647.52, 66921.30, -187500.02, -187500.02, -162983.59, -187500.02, -187500.02, -187500.02, 0.000, 0.000, 0.000, 17:56:43.764
150, 47376.49, 67377.43, -187500.02, -187500.02, -163104.97, -187500.02, -187500.02, -187500.02, 0.000, 0.000, 0.000, 17:56:43.764
151, 47927.73, 68185.67, -187500.02, -187500.02, -163268.52, -187500.02, -187500.02, -187500.02, 0.000, 0.000, 0.000, 17:56:43.764
152, 48188.37, 68231.18, -187500.02, -187500.02, -163276.33, -187500.02, -187500.02, -187500.02, 0.000, 0.000, 0.000, 17:56:43.764
153, 48129.12, 67739.09, -187500.02, -187500.02, -163118.53, -187500.02, -187500.02, -187500.02, 0.000, 0.000, 0.000, 17:56:43.764
154, 47661.94, 66931.29, -187500.02, -187500.02, -162953.13, -187500.02, -187500.02, -187500.02, 0.000, 0.000, 0.000, 17:56:43.764
155, 47382.52, 67382.33, -187500.02, -187500.02, -163095.44, -187500.02, -187500.02, -187500.02, 0.000, 0.000, 0.000, 17:56:43.765
156, 47924.06, 68193.02, -187500.02, -187500.02, -163218.17, -187500.02, -187500.02, -187500.02, 0.000, 0.000, 0.000, 17:56:43.765
157, 48209.87, 68254.80, -187500.02, -187500.02, -163257.06, -187500.02, -187500.02, -187500.02, 0.012, -0.014, 1.030, 17:56:43.765
158, 48149.12, 67763.42, -187500.02, -187500.02, -163147.36, -187500.02, -187500.02, -187500.02, 0.000, 0.000, 0.000, 17:56:43.765
159, 47671.93, 66942.80, -187500.02, -187500.02, -163002.03, -187500.02, -187500.02, -187500.02, 0.000, 0.000, 0.000, 17:56:43.765
160, 47380.33, 67368.87, -187500.02, -187500.02, -163133.80, -187500.02, -187500.02, -187500.02, 0.000, 0.000, 0.000, 17:56:43.765
161, 47917.85, 68186.23, -187500.02, -187500.02, -163269.14, -187500.02, -187500.02, -187500.02, 0.000, 0.000, 0.000, 17:56:43.765
162, 48205.65, 68255.95, -187500.02, -187500.02, -163306.06, -187500.02, -187500.02, -187500.02, 0.000, 0.000, 0.000, 17:56:43.765
163, 48144.34, 67768.81, -187500.02, -187500.02, -163193.25, -187500.02, -187500.02, -187500.02, 0.000, 0.000, 0.000, 17:56:43.765
164, 47668.16, 66937.77, -187500.02, -187500.02, -163014.98, -187500.02, -187500.02, -187500.02, 0.000, 0.000, 0.000, 17:56:43.766
165, 47367.77, 67353.72, -187500.02, -187500.02, -163131.09, -187500.02, -187500.02, -187500.02, 0.000, 0.000, 0.000, 17:56:43.766
166, 47904.66, 68175.75, -187500.02, -187500.02, -163245.83, -187500.02, -187500.02, -187500.02, 0.000, 0.000, 0.000, 17:56:43.766
167, 48191.95, 68245.15, -187500.02, -187500.02, -163223.34, -187500.02, -187500.02, -187500.02, 0.012, -0.016, 1.030, 17:56:43.766
168, 48137.48, 67768.88, -187500.02, -187500.02, -163095.75, -187500.02, -187500.02, -187500.02, 0.000, 0.000, 0.000, 17:56:43.766
169, 47678.23, 66953.42, -187500.02, -187500.02, -162932.97, -187500.02, -187500.02, -187500.02, 0.000, 0.000, 0.000, 17:56:43.766
170, 47391.24, 67373.74, -187500.02, -187500.02, -163092.78, -187500.02, -187500.02, -187500.02, 0.000, 0.000, 0.000, 17:56:43.766
171, 47931.04, 68208.65, -187500.02, -187500.02, -163268.69, -187500.02, -187500.02, -187500.02, 0.000, 0.000, 0.000, 17:56:43.766
172, 48219.84, 68280.76, -187500.02, -187500.02, -163305.69, -187500.02, -187500.02, -187500.02, 0.000, 0.000, 0.000, 17:56:43.767
173, 48158.13, 67793.69, -187500.02, -187500.02, -163177.61, -187500.02, -187500.02, -187500.02, 0.000, 0.000, 0.000, 17:56:43.767
174, 47695.13, 66963.45, -187500.02, -187500.02, -163034.72, -187500.02, -187500.02, -187500.02, 0.000, 0.000, 0.000, 17:56:43.767
175, 47377.89, 67355.35, -187500.02, -187500.02, -163167.86, -187500.02, -187500.02, -187500.02, 0.000, 0.000, 0.000, 17:56:43.767
176, 47906.63, 68184.06, -187500.02, -187500.02, -163297.92, -187500.02, -187500.02, -187500.02, 0.000, 0.000, 0.000, 17:56:43.767
177, 48202.68, 68259.86, -187500.02, -187500.02, -163304.56, -187500.02, -187500.02, -187500.02, 0.008, -0.020, 1.026, 17:56:43.767
178, 48146.13, 67797.04, -187500.02, -187500.02, -163161.73, -187500.02, -187500.02, -187500.02, 0.000, 0.000, 0.000, 17:56:43.767
179, 47685.72, 66964.33, -187500.02, -187500.02, -162977.98, -187500.02, -187500.02, -187500.02, 0.000, 0.000, 0.000, 17:56:43.767
180, 47368.46, 67345.47, -187500.02, -187500.02, -163070.95, -187500.02, -187500.02, -187500.02, 0.000, 0.000, 0.000, 17:56:43.768
181, 47902.11, 68182.59, -187500.02, -187500.02, -163212.25, -187500.02, -187500.02, -187500.02, 0.000, 0.000, 0.000, 17:56:43.768
182, 48206.88, 68266.98, -187500.02, -187500.02, -163246.67, -187500.02, -187500.02, -187500.02, 0.000, 0.000, 0.000, 17:56:43.768
183, 48148.36, 67793.17, -187500.02, -187500.02, -163090.25, -187500.02, -187500.02, -187500.02, 0.000, 0.000, 0.000, 17:56:43.768
184, 47706.13, 66969.16, -187500.02, -187500.02, -162951.30, -187500.02, -187500.02, -187500.02, 0.000, 0.000, 0.000, 17:56:43.768
185, 47383.30, 67342.95, -187500.02, -187500.02, -163095.67, -187500.02, -187500.02, -187500.02, 0.000, 0.000, 0.000, 17:56:43.768
186, 47908.64, 68181.49, -187500.02, -187500.02, -163223.77, -187500.02, -187500.02, -187500.02, 0.000, 0.000, 0.000, 17:56:43.768
187, 48208.55, 68265.91, -187500.02, -187500.02, -163210.36, -187500.02, -187500.02, -187500.02, 0.012, -0.014, 1.020, 17:56:43.768
188, 48169.30, 67822.39, -187500.02, -187500.02, -163125.02, -187500.02, -187500.02, -187500.02, 0.000, 0.000, 0.000, 17:56:43.768
189, 47721.55, 66988.98, -187500.02, -187500.02, -162985.42, -187500.02, -187500.02, -187500.02, 0.000, 0.000, 0.000, 17:56:43.769
190, 47389.83, 67347.70, -187500.02, -187500.02, -163138.94, -187500.02, -187500.02, -187500.02, 0.000, 0.000, 0.000, 17:56:43.769
191, 47910.43, 68188.09, -187500.02, -187500.02, -163291.80, -187500.02, -187500.02, -187500.02, 0.000, 0.000, 0.000, 17:56:43.769
192, 48218.39, 68277.05, -187500.02, -187500.02, -163311.09, -187500.02, -187500.02, -187500.02, 0.000, 0.000, 0.000, 17:56:43.769
193, 48168.36, 67822.41, -187500.02, -187500.02, -163186.08, -187500.02, -187500.02, -187500.02, 0.000, 0.000, 0.000, 17:56:43.769
194, 47719.32, 66980.45, -187500.02, -187500.02, -163017.39, -187500.02, -187500.02, -187500.02, 0.000, 0.000, 0.000, 17:56:43.770
195, 47372.98, 67318.52, -187500.02, -187500.02, -163088.80, -187500.02, -187500.02, -187500.02, 0.000, 0.000, 0.000, 17:56:43.770
196, 47897.80, 68170.83, -187500.02, -187500.02, -163229.16, -187500.02, -187500.02, -187500.02, 0.000, 0.000, 0.000, 17:56:43.770
197, 48216.33, 68272.75, -187500.02, -187500.02, -163280.88, -187500.02, -187500.02, -187500.02, 0.012, -0.012, 1.018, 17:56:43.770
198, 48162.11, 67823.33, -187500.02, -187500.02, -163174.17, -187500.02, -187500.02, -187500.02, 0.000, 0.000, 0.000, 17:56:43.770
199, 47719.95, 66979.99, -187500.02, -187500.02, -163003.47, -187500.02, -187500.02, -187500.02, 0.000, 0.000, 0.000, 17:56:43.770
200, 47376.22, 67318.06, -187500.02, -187500.02, -163127.36, -187500.02, -187500.02, -187500.02, 0.000, 0.000, 0.000, 17:56:43.771
201, 47894.40, 68175.08, -187500.02, -187500.02, -163261.36, -187500.02, -187500.02, -187500.02, 0.000, 0.000, 0.000, 17:56:43.771
202, 48210.66, 68273.24, -187500.02, -187500.02, -163295.48, -187500.02, -187500.02, -187500.02, 0.000, 0.000, 0.000, 17:56:43.771
203, 48157.77, 67824.11, -187500.02, -187500.02, -163185.41, -187500.02, -187500.02, -187500.02, 0.000, 0.000, 0.000, 17:56:43.771
204, 47721.18, 66981.98, -187500.02, -187500.02, -163025.73, -187500.02, -187500.02, -187500.02, 0.000, 0.000, 0.000, 17:56:43.771
205, 47370.45, 67305.77, -187500.02, -187500.02, -163156.55, -187500.02, -187500.02, -187500.02, 0.000, 0.000, 0.000, 17:56:43.772
206, 47873.84, 68151.27, -187500.02, -187500.02, -163278.84, -187500.02, -187500.02, -187500.02, 0.000, 0.000, 0.000, 17:56:43.772
207, 48195.41, 68255.19, -187500.02, -187500.02, -163297.53, -187500.02, -187500.02, -187500.02, 0.010, -0.014, 1.026, 17:56:43.772
208, 48153.28, 67823.53, -187500.02, -187500.02, -163218.75, -187500.02, -187500.02, -187500.02, 0.000, 0.000, 0.000, 17:56:43.772
209, 47711.77, 66969.78, -187500.02, -187500.02, -163038.41, -187500.02, -187500.02, -187500.02, 0.000, 0.000, 0.000, 17:56:43.772
210, 47351.45, 67276.31, -187500.02, -187500.02, -163129.78, -187500.02, -187500.02, -187500.02, 0.000, 0.000, 0.000, 17:56:43.772
211, 47859.93, 68140.12, -187500.02, -187500.02, -163272.94, -187500.02, -187500.02, -187500.02, 0.000, 0.000, 0.000, 17:56:43.773
212, 48184.82, 68249.51, -187500.02, -187500.02, -163300.78, -187500.02, -187500.02, -187500.02, 0.000, 0.000, 0.000, 17:56:43.773
213, 48137.81, 67813.54, -187500.02, -187500.02, -163172.69, -187500.02, -187500.02, -187500.02, 0.000, 0.000, 0.000, 17:56:43.773
214, 47703.27, 66962.38, -187500.02, -187500.02, -162974.03, -187500.02, -187500.02, -187500.02, 0.000, 0.000, 0.000, 17:56:43.773
215, 47342.07, 67265.12, -187500.02, -187500.02, -163075.55, -187500.02, -187500.02, -187500.02, 0.000, 0.000, 0.000, 17:56:43.773
216, 47850.99, 68131.40, -187500.02, -187500.02, -163210.16, -187500.02, -187500.02, -187500.02, 0.000, 0.000, 0.000, 17:56:43.773
217, 48187.88, 68252.34, -187500.02, -187500.02, -163256.16, -187500.02, -187500.02, -187500.02, 0.014, -0.008, 1.026, 17:56:43.774
218, 48158.06, 67836.73, -187500.02, -187500.02, -163188.25, -187500.02, -187500.02, -187500.02, 0.000, 0.000, 0.000, 17:56:43.774
219, 47730.74, 66989.36, -187500.02, -187500.02, -163042.14, -187500.02, -187500.02, -187500.02, 0.000, 0.000, 0.000, 17:56:43.774
220, 47354.98, 67266.81, -187500.02, -187500.02, -163131.83, -187500.02, -187500.02, -187500.02, 0.000, 0.000, 0.000, 17:56:43.774
221, 47859.42, 68140.43, -187500.02, -187500.02, -163255.48, -187500.02, -187500.02, -187500.02, 0.000, 0.000, 0.000, 17:56:43.774
222, 48190.96, 68264.04, -187500.02, -187500.02, -163299.78, -187500.02, -187500.02, -187500.02, 0.000, 0.000, 0.000, 17:56:43.774
223, 48147.73, 67839.29, -187500.02, -187500.02, -163190.42, -187500.02, -187500.02, -187500.02, 0.000, 0.000, 0.000, 17:56:43.775
224, 47728.98, 66991.64, -187500.02, -187500.02, -163009.50, -187500.02, -187500.02, -187500.02, 0.000, 0.000, 0.000, 17:56:44.237
225, 47354.27, 67266.16, -187500.02, -187500.02, -163103.69, -187500.02, -187500.02, -187500.02, 0.000, 0.000, 0.000, 17:56:44.237
226, 47854.30, 68139.91, -187500.02, -187500.02, -163230.20, -187500.02, -187500.02, -187500.02, 0.000, 0.000, 0.000, 17:56:44.237
227, 48191.07, 68269.11, -187500.02, -187500.02, -163260.52, -187500.02, -187500.02, -187500.02, 0.016, -0.016, 1.030, 17:56:44.238
228, 48151.60, 67850.80, -187500.02, -187500.02, -163143.50, -187500.02, -187500.02, -187500.02, 0.000, 0.000, 0.000, 17:56:44.238
229, 47735.46, 66999.06, -187500.02, -187500.02, -162942.69, -187500.02, -187500.02, -187500.02, 0.000, 0.000, 0.000, 17:56:44.238
230, 47361.51, 67270.43, -187500.02, -187500.02, -163082.80, -187500.02, -187500.02, -187500.02, 0.000, 0.000, 0.000, 17:56:44.238
231, 47862.10, 68151.56, -187500.02, -187500.02, -163243.64, -187500.02, -187500.02, -187500.02, 0.000, 0.000, 0.000, 17:56:44.238
232, 48204.17, 68284.02, -187500.02, -187500.02, -163275.94, -187500.02, -187500.02, -187500.02, 0.000, 0.000, 0.000, 17:56:44.239
233, 48168.19, 67876.01, -187500.02, -187500.02, -163178.25, -187500.02, -187500.02, -187500.02, 0.000, 0.000, 0.000, 17:56:44.239
234, 47762.39, 67027.91, -187500.02, -187500.02, -163031.05, -187500.02, -187500.02, -187500.02, 0.000, 0.000, 0.000, 17:56:44.239
235, 47378.21, 67276.76, -187500.02, -187500.02, -163166.28, -187500.02, -187500.02, -187500.02, 0.000, 0.000, 0.000, 17:56:44.239
236, 47860.58, 68145.52, -187500.02, -187500.02, -163303.69, -187500.02, -187500.02, -187500.02, 0.000, 0.000, 0.000, 17:56:44.239
237, 48198.88, 68269.49, -187500.02, -187500.02, -163288.47, -187500.02, -187500.02, -187500.02, 0.010, -0.022, 1.028, 17:56:44.239
238, 48167.25, 67866.45, -187500.02, -187500.02, -163184.78, -187500.02, -187500.02, -187500.02, 0.000, 0.000, 0.000, 17:56:44.240
239, 47761.38, 67016.02, -187500.02, -187500.02, -163013.77, -187500.02, -187500.02, -187500.02, 0.000, 0.000, 0.000, 17:56:44.240
240, 47359.16, 67247.59, -187500.02, -187500.02, -163099.48, -187500.02, -187500.02, -187500.02, 0.000, 0.000, 0.000, 17:56:44.240
241, 47844.89, 68132.14, -187500.02, -187500.02, -163237.00, -187500.02, -187500.02, -187500.02, 0.000, 0.000, 0.000, 17:56:44.240
242, 48200.04, 68276.71, -187500.02, -187500.02, -163273.16, -187500.02, -187500.02, -187500.02, 0.000, 0.000, 0.000, 17:56:44.240
243, 48166.06, 67868.25, -187500.02, -187500.02, -163163.84, -187500.02, -187500.02, -187500.02, 0.000, 0.000, 0.000, 17:56:44.241
244, 47759.33, 67010.73, -187500.02, -187500.02, -162989.23, -187500.02, -187500.02, -187500.02, 0.000, 0.000, 0.000, 17:56:44.241
245, 47356.17, 67238.49, -187500.02, -187500.02, -163094.55, -187500.02, -187500.02, -187500.02, 0.000, 0.000, 0.000, 17:56:44.241
246, 47851.42, 68139.98, -187500.02, -187500.02, -163268.41, -187500.02, -187500.02, -187500.02, 0.000, 0.000, 0.000, 17:56:44.241
247, 48214.86, 68288.40, -187500.02, -187500.02, -163312.25, -187500.02, -187500.02, -187500.02, 0.012, -0.018, 1.028, 17:56:44.241
248, 48188.46, 67899.66, -187500.02, -187500.02, -163239.28, -187500.02, -187500.02, -187500.02, 0.000, 0.000, 0.000, 17:56:44.241
249, 47791.40, 67043.85, -187500.02, -187500.02, -163087.31, -187500.02, -187500.02, -187500.02, 0.000, 0.000, 0.000, 17:56:44.242
250, 47377.23, 67245.55, -187500.02, -187500.02, -163178.84, -187500.02, -187500.02, -187500.02, 0.000, 0.000, 0.000, 17:56:44.242
251, 47843.75, 68128.96, -187500.02, -187500.02, -163264.27, -187500.02, -187500.02, -187500.02, 0.000, 0.000, 0.000, 17:56:44.242
252, 48202.74, 68281.98, -187500.02, -187500.02, -163291.72, -187500.02, -187500.02, -187500.02, 0.000, 0.000, 0.000, 17:56:44.242
253, 48170.11, 67889.38, -187500.02, -187500.02, -163198.81, -187500.02, -187500.02, -187500.02, 0.000, 0.000, 0.000, 17:56:44.242
254, 47776.36, 67029.95, -187500.02, -187500.02, -163037.48, -187500.02, -187500.02, -187500.02, 0.000, 0.000, 0.000, 17:56:44.242
255, 47355.14, 67221.77, -187500.02, -187500.02, -163128.19, -187500.02, -187500.02, -187500.02, 0.000, 0.000, 0.000, 17:56:44.243
0, 47824.55, 68115.44, -187500.02, -187500.02, -163250.97, -187500.02, -187500.02, -187500.02, 0.014, -0.018, 1.032, 17:56:44.243
1, 48199.77, 68281.60, -187500.02, -187500.02, -163297.39, -187500.02, -187500.02, -187500.02, 0.000, 0.000, 0.000, 17:56:44.243
2, 48174.73, 67896.17, -187500.02, -187500.02, -163184.02, -187500.02, -187500.02, -187500.02, 0.000, 0.000, 0.000, 17:56:44.243
3, 47795.34, 67050.42, -187500.02, -187500.02, -163050.58, -187500.02, -187500.02, -187500.02, 0.000, 0.000, 0.000, 17:56:44.243
4, 47378.95, 67236.88, -187500.02, -187500.02, -163160.67, -187500.02, -187500.02, -187500.02, 0.000, 0.000, 0.000, 17:56:44.243
5, 47848.00, 68139.13, -187500.02, -187500.02, -163316.13, -187500.02, -187500.02, -187500.02, 0.000, 0.000, 0.000, 17:56:44.244
6, 48222.05, 68302.15, -187500.02, -187500.02, -163379.38, -187500.02, -187500.02, -187500.02, 0.000, 0.000, 0.000, 17:56:44.244
7, 48203.03, 67925.12, -187500.02, -187500.02, -163319.09, -187500.02, -187500.02, -187500.02, 0.000, 0.000, 0.000, 17:56:44.244
8, 47808.50, 67062.09, -187500.02, -187500.02, -163128.30, -187500.02, -187500.02, -187500.02, 0.000, 0.000, 0.000, 17:56:44.244
9, 47380.36, 67233.46, -187500.02, -187500.02, -163207.25, -187500.02, -187500.02, -187500.02, 0.000, 0.000, 0.000, 17:56:44.244
10, 47841.18, 68130.26, -187500.02, -187500.02, -163342.94, -187500.02, -187500.02, -187500.02, 0.014, -0.010, 1.020, 17:56:44.244
11, 48218.43, 68298.84, -187500.02, -187500.02, -163365.14, -187500.02, -187500.02, -187500.02, 0.000, 0.000, 0.000, 17:56:44.245
12, 48197.38, 67926.19, -187500.02, -187500.02, -163274.48, -187500.02, -187500.02, -187500.02, 0.000, 0.000, 0.000, 17:56:44.245
13, 47811.74, 67063.73, -187500.02, -187500.02, -163094.39, -187500.02, -187500.02, -187500.02, 0.000, 0.000, 0.000, 17:56:44.245
14, 47378.84, 67223.98, -187500.02, -187500.02, -163170.50, -187500.02, -187500.02, -187500.02, 0.000, 0.000, 0.000, 17:56:44.245
15, 47836.22, 68122.17, -187500.02, -187500.02, -163321.33, -187500.02, -187500.02, -187500.02, 0.000, 0.000, 0.000, 17:56:44.245
16, 48213.11, 68295.30, -187500.02, -187500.02, -163342.81, -187500.02, -187500.02, -187500.02, 0.000, 0.000, 0.000, 17:56:44.245
17, 48190.94, 67923.95, -187500.02, -187500.02, -163234.27, -187500.02, -187500.02, -187500.02, 0.000, 0.000, 0.000, 17:56:44.246
18, 47815.68, 67064.69, -187500.02, -187500.02, -163080.36, -187500.02, -187500.02, -187500.02, 0.000, 0.000, 0.000, 17:56:44.246
19, 47377.61, 67215.02, -187500.02, -187500.02, -163184.81, -187500.02, -187500.02, -187500.02, 0.000, 0.000, 0.000, 17:56:44.246
20, 47834.74, 68130.33, -187500.02, -187500.02, -163337.58, -187500.02, -187500.02, -187500.02, 0.016, -0.012, 1.020, 17:56:44.246
21, 48219.13, 68311.16, -187500.02, -187500.02, -163397.59, -187500.02, -187500.02, -187500.02, 0.000, 0.000, 0.000, 17:56:44.246
22, 48199.10, 67943.13, -187500.02, -187500.02, -163296.45, -187500.02, -187500.02, -187500.02, 0.000, 0.000, 0.000, 17:56:44.246
23, 47824.02, 67078.21, -187500.02, -187500.02, -163119.25, -187500.02, -187500.02, -187500.02, 0.000, 0.000, 0.000, 17:56:44.247
24, 47388.56, 67213.17, -187500.02, -187500.02, -163254.05, -187500.02, -187500.02, -187500.02, 0.000, 0.000, 0.000, 17:56:44.247
25, 47830.41, 68119.64, -187500.02, -187500.02, -163407.73, -187500.02, -187500.02, -187500.02, 0.000, 0.000, 0.000, 17:56:44.247
26, 48210.95, 68300.20, -187500.02, -187500.02, -163426.27, -187500.02, -187500.02, -187500.02, 0.000, 0.000, 0.000, 17:56:44.247
27, 48189.60, 67931.82, -187500.02, -187500.02, -163314.17, -187500.02, -187500.02, -187500.02, 0.000, 0.000, 0.000, 17:56:44.247
28, 47816.53, 67067.28, -187500.02, -187500.02, -163105.25, -187500.02, -187500.02, -187500.02, 0.000, 0.000, 0.000, 17:56:44.247
29, 47365.67, 67186.10, -187500.02, -187500.02, -163179.39, -187500.02, -187500.02, -187500.02, 0.000, 0.000, 0.000, 17:56:44.248
30, 47810.71, 68095.03, -187500.02, -187500.02, -163305.58, -187500.02, -187500.02, -187500.02, 0.014, -0.014, 1.022, 17:56:44.248
31, 48196.71, 68281.07, -187500.02, -187500.02, -163345.22, -187500.02, -187500.02, -187500.02, 0.000, 0.000, 0.000, 17:56:44.248
32, 48179.43, 67925.01, -187500.02, -187500.02, -163238.41, -187500.02, -187500.02, -187500.02, 0.000, 0.000, 0.000, 17:56:44.248
33, 47815.21, 67067.99, -187500.02, -187500.02, -163046.00, -187500.02, -187500.02, -187500.02, 0.000, 0.000, 0.000, 17:56:44.248
34, 47369.63, 67182.26, -187500.02, -187500.02, -163153.92, -187500.02, -187500.02, -187500.02, 0.000, 0.000, 0.000, 17:56:44.248
35, 47812.77, 68103.51, -187500.02, -187500.02, -163326.09, -187500.02, -187500.02, -187500.02, 0.000, 0.000, 0.000, 17:56:44.249
36, 48204.35, 68293.05, -187500.02, -187500.02, -163373.86, -187500.02, -187500.02, -187500.02, 0.000, 0.000, 0.000, 17:56:44.249
37, 48195.88, 67943.58, -187500.02, -187500.02, -163334.94, -187500.02, -187500.02, -187500.02, 0.000, 0.000, 0.000, 17:56:44.249
38, 47829.49, 67082.12, -187500.02, -187500.02, -163156.80, -187500.02, -187500.02, -187500.02, 0.000, 0.000, 0.000, 17:56:44.249
39, 47369.67, 67175.08, -187500.02, -187500.02, -163238.63, -187500.02, -187500.02, -187500.02, 0.000, 0.000, 0.000, 17:56:44.249
40, 47804.95, 68091.16, -187500.02, -187500.02, -163396.61, -187500.02, -187500.02, -187500.02, 0.014, -0.014, 1.028, 17:56:44.249
41, 48196.08, 68286.68, -187500.02, -187500.02, -163422.41, -187500.02, -187500.02, -187500.02, 0.000, 0.000, 0.000, 17:56:44.250
42, 48182.22, 67937.88, -187500.02, -187500.02, -163330.09, -187500.02, -187500.02, -187500.02, 0.000, 0.000, 0.000, 17:56:44.250
43, 47821.53, 67073.76, -187500.02, -187500.02, -163144.34, -187500.02, -187500.02, -187500.02, 0.000, 0.000, 0.000, 17:56:44.250
44, 47356.64, 67147.68, -187500.02, -187500.02, -163200.42, -187500.02, -187500.02, -187500.02, 0.000, 0.000, 0.000, 17:56:44.250
45, 47783.67, 68065.51, -187500.02, -187500.02, -163341.98, -187500.02, -187500.02, -187500.02, 0.000, 0.000, 0.000, 17:56:44.250
46, 48185.40, 68268.06, -187500.02, -187500.02, -163371.53, -187500.02, -187500.02, -187500.02, 0.000, 0.000, 0.000, 17:56:44.250
47, 48179.47, 67934.19, -187500.02, -187500.02, -163297.53, -187500.02, -187500.02, -187500.02, 0.000, 0.000, 0.000, 17:56:44.251
48, 47826.61, 67077.45, -187500.02, -187500.02, -163100.86, -187500.02, -187500.02, -187500.02, 0.000, 0.000, 0.000, 17:56:44.251
49, 47360.35, 67144.59, -187500.02, -187500.02, -163177.94, -187500.02, -187500.02, -187500.02, 0.000, 0.000, 0.000, 17:56:44.251
50, 47781.61, 68068.63, -187500.02, -187500.02, -163326.22, -187500.02, -187500.02, -187500.02, 0.010, -0.006, 1.028, 17:56:44.251
51, 48194.07, 68287.39, -187500.02, -187500.02, -163377.61, -187500.02, -187500.02, -187500.02, 0.000, 0.000, 0.000, 17:56:44.251
52, 48194.11, 67956.07, -187500.02, -187500.02, -163348.31, -187500.02, -187500.02, -187500.02, 0.000, 0.000, 0.000, 17:56:44.252
53, 47840.69, 67091.42, -187500.02, -187500.02, -163160.48, -187500.02, -187500.02, -187500.02, 0.000, 0.000, 0.000, 17:56:44.252
54, 47376.93, 67156.10, -187500.02, -187500.02, -163258.91, -187500.02, -187500.02, -187500.02, 0.000, 0.000, 0.000, 17:56:44.252
55, 47785.52, 68077.47, -187500.02, -187500.02, -163431.69, -187500.02, -187500.02, -187500.02, 0.000, 0.000, 0.000, 17:56:44.252
56, 48186.49, 68284.91, -187500.02, -187500.02, -163450.45, -187500.02, -187500.02, -187500.02, 0.000, 0.000, 0.000, 17:56:44.252
57, 48174.24, 67945.21, -187500.02, -187500.02, -163356.17, -187500.02, -187500.02, -187500.02, 0.000, 0.000, 0.000, 17:56:44.252
58, 47827.21, 67083.33, -187500.02, -187500.02, -163165.38, -187500.02, -187500.02, -187500.02, 0.000, 0.000, 0.000, 17:56:44.253
59, 47355.72, 67129.13, -187500.02, -187500.02, -163221.95, -187500.02, -187500.02, -187500.02, 0.000, 0.000, 0.000, 17:56:44.253
60, 47770.23, 68057.84, -187500.02, -187500.02, -163354.80, -187500.02, -187500.02, -187500.02, 0.014, -0.006, 1.024, 17:56:44.253
61, 48192.19, 68286.03, -187500.02, -187500.02, -163409.55, -187500.02, -187500.02, -187500.02, 0.000, 0.000, 0.000, 17:56:44.253
62, 48190.18, 67960.61, -187500.02, -187500.02, -163358.67, -187500.02, -187500.02, -187500.02, 0.000, 0.000, 0.000, 17:56:44.253
63, 47843.32, 67097.54, -187500.02, -187500.02, -163175.16, -187500.02, -187500.02, -187500.02, 0.000, 0.000, 0.000, 17:56:44.253
64, 47360.06, 67128.14, -187500.02, -187500.02, -163222.64, -187500.02, -187500.02, -187500.02, 0.000, 0.000, 0.000, 17:56:44.254
65, 47774.55, 68060.45, -187500.02, -187500.02, -163387.98, -187500.02, -187500.02, -187500.02, 0.000, 0.000, 0.000, 17:56:44.254
66, 48194.14, 68284.04, -187500.02, -187500.02, -163433.63, -187500.02, -187500.02, -187500.02, 0.000, 0.000, 0.000, 17:56:44.254
67, 48187.72, 67962.45, -187500.02, -187500.02, -163356.53, -187500.02, -187500.02, -187500.02, 0.000, 0.000, 0.000, 17:56:44.254
68, 47855.02, 67110.22, -187500.02, -187500.02, -163203.09, -187500.02, -187500.02, -187500.02, 0.000, 0.000, 0.000, 17:56:44.254
69, 47367.39, 67118.87, -187500.02, -187500.02, -163273.92, -187500.02, -187500.02, -187500.02, 0.000, 0.000, 0.000, 17:56:44.255
70, 47769.30, 68052.32, -187500.02, -187500.02, -163454.25, -187500.02, -187500.02, -187500.02, 0.018, -0.010, 1.020, 17:56:44.255
71, 48185.02, 68279.73, -187500.02, -187500.02, -163508.97, -187500.02, -187500.02, -187500.02, 0.000, 0.000, 0.000, 17:56:44.255
72, 48177.48, 67950.84, -187500.02, -187500.02, -163419.39, -187500.02, -187500.02, -187500.02, 0.000, 0.000, 0.000, 17:56:44.255
73, 47838.52, 67089.30, -187500.02, -187500.02, -163192.78, -187500.02, -187500.02, -187500.02, 0.000, 0.000, 0.000, 17:56:44.255
74, 47350.07, 67092.54, -187500.02, -187500.02, -163232.38, -187500.02, -187500.02, -187500.02, 0.000, 0.000, 0.000, 17:56:44.255
75, 47743.66, 68021.72, -187500.02, -187500.02, -163375.47, -187500.02, -187500.02, -187500.02, 0.000, 0.000, 0.000, 17:56:44.256
76, 48166.73, 68255.79, -187500.02, -187500.02, -163393.97, -187500.02, -187500.02, -187500.02, 0.000, 0.000, 0.000, 17:56:44.256
77, 48168.41, 67944.18, -187500.02, -187500.02, -163300.55, -187500.02, -187500.02, -187500.02, 0.000, 0.000, 0.000, 17:56:44.256
78, 47847.17, 67101.55, -187500.02, -187500.02, -163109.13, -187500.02, -187500.02, -187500.02, 0.000, 0.000, 0.000, 17:56:44.256
79, 47367.43, 67111.09, -187500.02, -187500.02, -163233.94, -187500.02, -187500.02, -187500.02, 0.000, 0.000, 0.000, 17:56:44.256
80, 47749.43, 68035.20, -187500.02, -187500.02, -163362.53, -187500.02, -187500.02, -187500.02, 0.016, -0.016, 1.022, 17:56:44.256
81, 48185.04, 68279.39, -187500.02, -187500.02, -163406.98, -187500.02, -187500.02, -187500.02, 0.000, 0.000, 0.000, 17:56:44.257
82, 48192.84, 67975.30, -187500.02, -187500.02, -163374.77, -187500.02, -187500.02, -187500.02, 0.000, 0.000, 0.000, 17:56:44.257
83, 47869.16, 67122.58, -187500.02, -187500.02, -163197.25, -187500.02, -187500.02, -187500.02, 0.000, 0.000, 0.000, 17:56:44.257
84, 47375.95, 67102.35, -187500.02, -187500.02, -163239.59, -187500.02, -187500.02, -187500.02, 0.000, 0.000, 0.000, 17:56:44.257
85, 47760.31, 68037.30, -187500.02, -187500.02, -163415.75, -187500.02, -187500.02, -187500.02, 0.000, 0.000, 0.000, 17:56:44.257
86, 48191.10, 68287.13, -187500.02, -187500.02, -163475.78, -187500.02, -187500.02, -187500.02, 0.000, 0.000, 0.000, 17:56:44.257
87, 48189.44, 67980.64, -187500.02, -187500.02, -163387.61, -187500.02, -187500.02, -187500.02, 0.000, 0.000, 0.000, 17:56:44.258
88, 47866.68, 67115.80, -187500.02, -187500.02, -163159.39, -187500.02, -187500.02, -187500.02, 0.000, 0.000, 0.000, 17:56:44.258
89, 47369.13, 67084.98, -187500.02, -187500.02, -163208.94, -187500.02, -187500.02, -187500.02, 0.000, 0.000, 0.000, 17:56:44.716
90, 47742.72, 68019.24, -187500.02, -187500.02, -163381.09, -187500.02, -187500.02, -187500.02, 0.012, -0.006, 1.022, 17:56:44.716
91, 48182.52, 68274.77, -187500.02, -187500.02, -163452.63, -187500.02, -187500.02, -187500.02, 0.000, 0.000, 0.000, 17:56:44.717
92, 48182.34, 67964.01, -187500.02, -187500.02, -163348.16, -187500.02, -187500.02, -187500.02, 0.000, 0.000, 0.000, 17:56:44.717
93, 47863.51, 67115.24, -187500.02, -187500.02, -163124.17, -187500.02, -187500.02, -187500.02, 0.000, 0.000, 0.000, 17:56:44.717
94, 47372.60, 67086.14, -187500.02, -187500.02, -163212.55, -187500.02, -187500.02, -187500.02, 0.000, 0.000, 0.000, 17:56:44.717
95, 47744.13, 68023.46, -187500.02, -187500.02, -163389.80, -187500.02, -187500.02, -187500.02, 0.000, 0.000, 0.000, 17:56:44.717
96, 48185.22, 68286.95, -187500.02, -187500.02, -163434.47, -187500.02, -187500.02, -187500.02, 0.000, 0.000, 0.000, 17:56:44.717
97, 48202.38, 67993.34, -187500.02, -187500.02, -163398.67, -187500.02, -187500.02, -187500.02, 0.000, 0.000, 0.000, 17:56:44.718
98, 47886.62, 67141.38, -187500.02, -187500.02, -163210.08, -187500.02, -187500.02, -187500.02, 0.000, 0.000, 0.000, 17:56:44.718
99, 47383.28, 67084.09, -187500.02, -187500.02, -163284.00, -187500.02, -187500.02, -187500.02, 0.000, 0.000, 0.000, 17:56:44.718
100, 47741.92, 68014.05, -187500.02, -187500.02, -163437.33, -187500.02, -187500.02, -187500.02, 0.010, 0.000, 1.028, 17:56:44.718
101, 48183.65, 68279.75, -187500.02, -187500.02, -163483.94, -187500.02, -187500.02, -187500.02, 0.000, 0.000, 0.000, 17:56:44.718
102, 48192.04, 67991.57, -187500.02, -187500.02, -163413.00, -187500.02, -187500.02, -187500.02, 0.000, 0.000, 0.000, 17:56:44.718
103, 47878.55, 67141.42, -187500.02, -187500.02, -163186.38, -187500.02, -187500.02, -187500.02, 0.000, 0.000, 0.000, 17:56:44.718
104, 47362.56, 67069.02, -187500.02, -187500.02, -163230.47, -187500.02, -187500.02, -187500.02, 0.000, 0.000, 0.000, 17:56:44.718
105, 47722.29, 68007.73, -187500.02, -187500.02, -163387.05, -187500.02, -187500.02, -187500.02, 0.000, 0.000, 0.000, 17:56:44.718
106, 48167.09, 68278.56, -187500.02, -187500.02, -163423.17, -187500.02, -187500.02, -187500.02, 0.000, 0.000, 0.000, 17:56:44.719
107, 48179.83, 67989.78, -187500.02, -187500.02, -163340.63, -187500.02, -187500.02, -187500.02, 0.000, 0.000, 0.000, 17:56:44.719
108, 47882.22, 67148.15, -187500.02, -187500.02, -163143.08, -187500.02, -187500.02, -187500.02, 0.000, 0.000, 0.000, 17:56:44.719
109, 47365.94, 67068.33, -187500.02, -187500.02, -163186.03, -187500.02, -187500.02, -187500.02, 0.000, 0.000, 0.000, 17:56:44.719
110, 47721.18, 68005.98, -187500.02, -187500.02, -163353.20, -187500.02, -187500.02, -187500.02, 0.012, -0.006, 1.030, 17:56:44.719
111, 48175.16, 68289.02, -187500.02, -187500.02, -163436.48, -187500.02, -187500.02, -187500.02, 0.000, 0.000, 0.000, 17:56:44.719
112, 48184.19, 68003.64, -187500.02, -187500.02, -163398.58, -187500.02, -187500.02, -187500.02, 0.000, 0.000, 0.000, 17:56:44.719
113, 47882.33, 67154.85, -187500.02, -187500.02, -163214.16, -187500.02, -187500.02, -187500.02, 0.000, 0.000, 0.000, 17:56:44.719
114, 47362.99, 67055.84, -187500.02, -187500.02, -163239.98, -187500.02, -187500.02, -187500.02, 0.000, 0.000, 0.000, 17:56:44.720
115, 47710.11, 67992.84, -187500.02, -187500.02, -163415.59, -187500.02, -187500.02, -187500.02, 0.000, 0.000, 0.000, 17:56:44.720
116, 48156.41, 68265.76, -187500.02, -187500.02, -163449.00, -187500.02, -187500.02, -187500.02, 0.000, 0.000, 0.000, 17:56:44.720
117, 48178.49, 67995.08, -187500.02, -187500.02, -163363.69, -187500.02, -187500.02, -187500.02, 0.000, 0.000, 0.000, 17:56:44.720
118, 47886.53, 67156.24, -187500.02, -187500.02, -163162.13, -187500.02, -187500.02, -187500.02, 0.000, 0.000, 0.000, 17:56:44.720
119, 47366.61, 67053.31, -187500.02, -187500.02, -163205.89, -187500.02, -187500.02, -187500.02, 0.006, -0.008, 1.022, 17:56:44.720
120, 47710.89, 67993.80, -187500.02, -187500.02, -163388.08, -187500.02, -187500.02, -187500.02, 0.000, 0.000, 0.000, 17:56:44.720
121, 48165.15, 68277.63, -187500.02, -187500.02, -163434.70, -187500.02, -187500.02, -187500.02, 0.000, 0.000, 0.000, 17:56:44.720
122, 48178.36, 67999.03, -187500.02, -187500.02, -163356.63, -187500.02, -187500.02, -187500.02, 0.000, 0.000, 0.000, 17:56:44.720
123, 47891.65, 67157.02, -187500.02, -187500.02, -163131.45, -187500.02, -187500.02, -187500.02, 0.000, 0.000, 0.000, 17:56:44.721
124, 47378.30, 67046.36, -187500.02, -187500.02, -163195.33, -187500.02, -187500.02, -187500.02, 0.000, 0.000, 0.000, 17:56:44.721
125, 47716.99, 67990.12, -187500.02, -187500.02, -163392.23, -187500.02, -187500.02, -187500.02, 0.000, 0.000, 0.000, 17:56:44.721
126, 48177.93, 68287.46, -187500.02, -187500.02, -163427.83, -187500.02, -187500.02, -187500.02, 0.000, 0.000, 0.000, 17:56:44.721
127, 48202.00, 68021.34, -187500.02, -187500.02, -163365.20, -187500.02, -187500.02, -187500.02, 0.000, 0.000, 0.000, 17:56:44.721
128, 47912.04, 67183.06, -187500.02, -187500.02, -163184.47, -187500.02, -187500.02, -187500.02, 0.000, 0.000, 0.000, 17:56:44.721
129, 47391.93, 67054.36, -187500.02, -187500.02, -163257.03, -187500.02, -187500.02, -187500.02, 0.006, -0.012, 1.020, 17:56:44.722
130, 47716.46, 67984.41, -187500.02, -187500.02, -163453.30, -187500.02, -187500.02, -187500.02, 0.000, 0.000, 0.000, 17:56:44.722
131, 48172.32, 68275.86, -187500.02, -187500.02, -163494.64, -187500.02, -187500.02, -187500.02, 0.000, 0.000, 0.000, 17:56:44.722
132, 48192.13, 68007.70, -187500.02, -187500.02, -163439.30, -187500.02, -187500.02, -187500.02, 0.000, 0.000, 0.000, 17:56:44.722
133, 47904.64, 67172.09, -187500.02, -187500.02, -163213.58, -187500.02, -187500.02, -187500.02, 0.000, 0.000, 0.000, 17:56:44.722
134, 47370.74, 67026.17, -187500.02, -187500.02, -163217.81, -187500.02, -187500.02, -187500.02, 0.000, 0.000, 0.000, 17:56:44.722
135, 47698.87, 67968.81, -187500.02, -187500.02, -163368.84, -187500.02, -187500.02, -187500.02, 0.000, 0.000, 0.000, 17:56:44.722
136, 48178.82, 68283.59, -187500.02, -187500.02, -163447.78, -187500.02, -187500.02, -187500.02, 0.000, 0.000, 0.000, 17:56:44.722
137, 48199.05, 68021.30, -187500.02, -187500.02, -163373.52, -187500.02, -187500.02, -187500.02, 0.000, 0.000, 0.000, 17:56:44.723
138, 47926.65, 67193.79, -187500.02, -187500.02, -163196.58, -187500.02, -187500.02, -187500.02, 0.000, 0.000, 0.000, 17:56:44.723
139, 47388.96, 67035.38, -187500.02, -187500.02, -163240.86, -187500.02, -187500.02, -187500.02, 0.008, -0.018, 1.020, 17:56:44.723
140, 47702.22, 67975.56, -187500.02, -187500.02, -163401.44, -187500.02, -187500.02, -187500.02, 0.000, 0.000, 0.000, 17:56:44.723
141, 48180.48, 68300.31, -187500.02, -187500.02, -163481.80, -187500.02, -187500.02, -187500.02, 0.000, 0.000, 0.000, 17:56:44.723
142, 48206.88, 68035.29, -187500.02, -187500.02, -163420.44, -187500.02, -187500.02, -187500.02, 0.000, 0.000, 0.000, 17:56:44.723
143, 47930.88, 67201.30, -187500.02, -187500.02, -163229.28, -187500.02, -187500.02, -187500.02, 0.000, 0.000, 0.000, 17:56:44.723
144, 47397.50, 67039.72, -187500.02, -187500.02, -163277.86, -187500.02, -187500.02, -187500.02, 0.000, 0.000, 0.000, 17:56:44.723
145, 47705.57, 67978.05, -187500.02, -187500.02, -163459.98, -187500.02, -187500.02, -187500.02, 0.000, 0.000, 0.000, 17:56:44.723
146, 48176.01, 68296.94, -187500.02, -187500.02, -163493.08, -187500.02, -187500.02, -187500.02, 0.000, 0.000, 0.000, 17:56:44.724
147, 48201.98, 68046.15, -187500.02, -187500.02, -163405.11, -187500.02, -187500.02, -187500.02, 0.000, 0.000, 0.000, 17:56:44.724
148, 47929.80, 67211.18, -187500.02, -187500.02, -163186.23, -187500.02, -187500.02, -187500.02, 0.000, 0.000, 0.000, 17:56:44.724
149, 47393.27, 67030.95, -187500.02, -187500.02, -163234.31, -187500.02, -187500.02, -187500.02, 0.012, -0.014, 1.024, 17:56:44.724
150, 47692.14, 67963.13, -187500.02, -187500.02, -163400.98, -187500.02, -187500.02, -187500.02, 0.000, 0.000, 0.000, 17:56:44.724
151, 48176.61, 68287.84, -187500.02, -187500.02, -163450.36, -187500.02, -187500.02, -187500.02, 0.000, 0.000, 0.000, 17:56:44.724
152, 48209.00, 68045.30, -187500.02, -187500.02, -163426.05, -187500.02, -187500.02, -187500.02, 0.000, 0.000, 0.000, 17:56:44.724
153, 47941.76, 67221.84, -187500.02, -187500.02, -163221.64, -187500.02, -187500.02, -187500.02, 0.000, 0.000, 0.000, 17:56:44.724
154, 47399.29, 67029.28, -187500.02, -187500.02, -163232.75, -187500.02, -187500.02, -187500.02, 0.000, 0.000, 0.000, 17:56:44.725
155, 47695.63, 67963.20, -187500.02, -187500.02, -163386.00, -187500.02, -187500.02, -187500.02, 0.000, 0.000, 0.000, 17:56:44.725
156, 48190.00, 68311.47, -187500.02, -187500.02, -163492.09, -187500.02, -187500.02, -187500.02, 0.000, 0.000, 0.000, 17:56:44.725
157, 48227.55, 68071.52, -187500.02, -187500.02, -163498.73, -187500.02, -187500.02, -187500.02, 0.000, 0.000, 0.000, 17:56:44.725
158, 47961.88, 67242.96, -187500.02, -187500.02, -163312.61, -187500.02, -187500.02, -187500.02, 0.000, 0.000, 0.000, 17:56:44.725
159, 47415.78, 67028.86, -187500.02, -187500.02, -163342.55, -187500.02, -187500.02, -187500.02, 0.014, -0.010, 1.020, 17:56:44.725
160, 47699.25, 67958.11, -187500.02, -187500.02, -163525.83, -187500.02, -187500.02, -187500.02, 0.000, 0.000, 0.000, 17:56:44.725
161, 48182.83, 68296.09, -187500.02, -187500.02, -163585.73, -187500.02, -187500.02, -187500.02, 0.000, 0.000, 0.000, 17:56:44.725
162, 48213.83, 68054.33, -187500.02, -187500.02, -163514.92, -187500.02, -187500.02, -187500.02, 0.000, 0.000, 0.000, 17:56:44.725
163, 47944.25, 67229.77, -187500.02, -187500.02, -163261.53, -187500.02, -187500.02, -187500.02, 0.000, 0.000, 0.000, 17:56:44.726
164, 47399.64, 67013.68, -187500.02, -187500.02, -163267.66, -187500.02, -187500.02, -187500.02, 0.000, 0.000, 0.000, 17:56:44.726
165, 47681.05, 67947.20, -187500.02, -187500.02, -163442.03, -187500.02, -187500.02, -187500.02, 0.000, 0.000, 0.000, 17:56:44.726
166, 48171.65, 68291.88, -187500.02, -187500.02, -163486.00, -187500.02, -187500.02, -187500.02, 0.000, 0.000, 0.000, 17:56:44.726
167, 48213.94, 68056.41, -187500.02, -187500.02, -163425.09, -187500.02, -187500.02, -187500.02, 0.000, 0.000, 0.000, 17:56:44.726
168, 47955.27, 67234.09, -187500.02, -187500.02, -163206.02, -187500.02, -187500.02, -187500.02, 0.000, 0.000, 0.000, 17:56:44.726
169, 47409.30, 67004.02, -187500.02, -187500.02, -163252.38, -187500.02, -187500.02, -187500.02, 0.018, -0.004, 1.024, 17:56:44.727
170, 47682.46, 67933.09, -187500.02, -187500.02, -163458.02, -187500.02, -187500.02, -187500.02, 0.000, 0.000, 0.000, 17:56:44.727
171, 48172.95, 68286.34, -187500.02, -187500.02, -163538.41, -187500.02, -187500.02, -187500.02, 0.000, 0.000, 0.000, 17:56:44.727
172, 48208.87, 68054.35, -187500.02, -187500.02, -163506.98, -187500.02, -187500.02, -187500.02, 0.000, 0.000, 0.000, 17:56:44.727
173, 47948.27, 67238.59, -187500.02, -187500.02, -163304.09, -187500.02, -187500.02, -187500.02, 0.000, 0.000, 0.000, 17:56:44.727
174, 47403.31, 67000.83, -187500.02, -187500.02, -163344.98, -187500.02, -187500.02, -187500.02, 0.000, 0.000, 0.000, 17:56:44.728
175, 47668.58, 67932.65, -187500.02, -187500.02, -163533.88, -187500.02, -187500.02, -187500.02, 0.000, 0.000, 0.000, 17:56:44.728
176, 48164.07, 68290.03, -187500.02, -187500.02, -163567.63, -187500.02, -187500.02, -187500.02, 0.000, 0.000, 0.000, 17:56:44.728
177, 48209.40, 68064.88, -187500.02, -187500.02, -163538.03, -187500.02, -187500.02, -187500.02, 0.000, 0.000, 0.000, 17:56:44.728
178, 47957.03, 67250.05, -187500.02, -187500.02, -163331.30, -187500.02, -187500.02, -187500.02, 0.000, 0.000, 0.000, 17:56:44.728
179, 47398.66, 66987.08, -187500.02, -187500.02, -163302.48, -187500.02, -187500.02, -187500.02, 0.020, -0.008, 1.028, 17:56:44.728
180, 47658.19, 67917.07, -187500.02, -187500.02, -163477.25, -187500.02, -187500.02, -187500.02, 0.000, 0.000, 0.000, 17:56:44.729
181, 48161.26, 68289.41, -187500.02, -187500.02, -163557.70, -187500.02, -187500.02, -187500.02, 0.000, 0.000, 0.000, 17:56:44.729
182, 48210.50, 68073.04, -187500.02, -187500.02, -163546.69, -187500.02, -187500.02, -187500.02, 0.000, 0.000, 0.000, 17:56:44.729
183, 47955.62, 67251.10, -187500.02, -187500.02, -163300.91, -187500.02, -187500.02, -187500.02, 0.000, 0.000, 0.000, 17:56:44.729
184, 47404.38, 66980.15, -187500.02, -187500.02, -163291.63, -187500.02, -187500.02, -187500.02, 0.000, 0.000, 0.000, 17:56:44.729
185, 47662.30, 67914.27, -187500.02, -187500.02, -163481.08, -187500.02, -187500.02, -187500.02, 0.000, 0.000, 0.000, 17:56:44.730
186, 48175.14, 68293.02, -187500.02, -187500.02, -163565.83, -187500.02, -187500.02, -187500.02, 0.000, 0.000, 0.000, 17:56:44.730
187, 48231.66, 68084.17, -187500.02, -187500.02, -163574.22, -187500.02, -187500.02, -187500.02, 0.000, 0.000, 0.000, 17:56:44.730
188, 47978.75, 67273.25, -187500.02, -187500.02, -163368.27, -187500.02, -187500.02, -187500.02, 0.000, 0.000, 0.000, 17:56:44.730
189, 47425.46, 66997.85, -187500.02, -187500.02, -163389.48, -187500.02, -187500.02, -187500.02, 0.020, -0.008, 1.028, 17:56:44.730
190, 47676.52, 67929.03, -187500.02, -187500.02, -163594.25, -187500.02, -187500.02, -187500.02, 0.000, 0.000, 0.000, 17:56:44.730
191, 48186.96, 68313.23, -187500.02, -187500.02, -163664.30, -187500.02, -187500.02, -187500.02, 0.000, 0.000, 0.000, 17:56:44.731
192, 48236.05, 68101.16, -187500.02, -187500.02, -163610.78, -187500.02, -187500.02, -187500.02, 0.000, 0.000, 0.000, 17:56:44.731
193, 47986.76, 67284.41, -187500.02, -187500.02, -163383.52, -187500.02, -187500.02, -187500.02, 0.000, 0.000, 0.000, 17:56:44.731
194, 47419.29, 66978.90, -187500.02, -187500.02, -163379.48, -187500.02, -187500.02, -187500.02, 0.000, 0.000, 0.000, 17:56:44.731
195, 47657.58, 67898.23, -187500.02, -187500.02, -163545.45, -187500.02, -187500.02, -187500.02, 0.000, 0.000, 0.000, 17:56:44.731
196, 48182.25, 68308.85, -187500.02, -187500.02, -163616.00, -187500.02, -187500.02, -187500.02, 0.000, 0.000, 0.000, 17:56:44.732
197, 48238.13, 68107.28, -187500.02, -187500.02, -163568.92, -187500.02, -187500.02, -187500.02, 0.000, 0.000, 0.000, 17:56:44.732
198, 47996.08, 67300.97, -187500.02, -187500.02, -163348.36, -187500.02, -187500.02, -187500.02, 0.000, 0.000, 0.000, 17:56:44.732
199, 47419.85, 66968.30, -187500.02, -187500.02, -163329.91, -187500.02, -187500.02, -187500.02, 0.018, -0.010, 1.024, 17:56:44.732
200, 47663.55, 67895.45, -187500.02, -187500.02, -163545.25, -187500.02, -187500.02, -187500.02, 0.000, 0.000, 0.000, 17:56:44.732
201, 48193.00, 68313.88, -187500.02, -187500.02, -163648.63, -187500.02, -187500.02, -187500.02, 0.000, 0.000, 0.000, 17:56:44.732
202, 48249.99, 68121.32, -187500.02, -187500.02, -163585.95, -187500.02, -187500.02, -187500.02, 0.000, 0.000, 0.000, 17:56:44.733
203, 48009.29, 67316.61, -187500.02, -187500.02, -163399.83, -187500.02, -187500.02, -187500.02, 0.000, 0.000, 0.000, 17:56:44.733
204, 47432.01, 66972.73, -187500.02, -187500.02, -163415.41, -187500.02, -187500.02, -187500.02, 0.000, 0.000, 0.000, 17:56:44.733
205, 47648.08, 67882.02, -187500.02, -187500.02, -163600.22, -187500.02, -187500.02, -187500.02, 0.000, 0.000, 0.000, 17:56:44.733
206, 48172.66, 68295.62, -187500.02, -187500.02, -163667.33, -187500.02, -187500.02, -187500.02, 0.000, 0.000, 0.000, 17:56:44.733
207, 48237.32, 68102.70, -187500.02, -187500.02, -163652.06, -187500.02, -187500.02, -187500.02, 0.000, 0.000, 0.000, 17:56:44.734
208, 47998.04, 67297.63, -187500.02, -187500.02, -163443.92, -187500.02, -187500.02, -187500.02, 0.000, 0.000, 0.000, 17:56:44.734
209, 47420.21, 66949.71, -187500.02, -187500.02, -163388.86, -187500.02, -187500.02, -187500.02, 0.018, -0.006, 1.020, 17:56:45.198
210, 47641.07, 67873.35, -187500.02, -187500.02, -163569.02, -187500.02, -187500.02, -187500.02, 0.000, 0.000, 0.000, 17:56:45.198
211, 48174.67, 68297.12, -187500.02, -187500.02, -163655.13, -187500.02, -187500.02, -187500.02, 0.000, 0.000, 0.000, 17:56:45.198
212, 48244.27, 68109.92, -187500.02, -187500.02, -163623.69, -187500.02, -187500.02, -187500.02, 0.000, 0.000, 0.000, 17:56:45.198
213, 48021.83, 67325.11, -187500.02, -187500.02, -163446.20, -187500.02, -187500.02, -187500.02, 0.000, 0.000, 0.000, 17:56:45.199
214, 47444.01, 66969.91, -187500.02, -187500.02, -163430.86, -187500.02, -187500.02, -187500.02, 0.000, 0.000, 0.000, 17:56:45.199
215, 47647.46, 67874.22, -187500.02, -187500.02, -163571.64, -187500.02, -187500.02, -187500.02, 0.000, 0.000, 0.000, 17:56:45.199
216, 48180.66, 68305.03, -187500.02, -187500.02, -163675.03, -187500.02, -187500.02, -187500.02, 0.000, 0.000, 0.000, 17:56:45.199
217, 48247.38, 68115.73, -187500.02, -187500.02, -163680.56, -187500.02, -187500.02, -187500.02, 0.000, 0.000, 0.000, 17:56:45.199
218, 48019.73, 67325.09, -187500.02, -187500.02, -163493.22, -187500.02, -187500.02, -187500.02, 0.000, 0.000, 0.000, 17:56:45.200
219, 47450.54, 66967.23, -187500.02, -187500.02, -163489.86, -187500.02, -187500.02, -187500.02, 0.018, -0.008, 1.024, 17:56:45.200
220, 47638.96, 67864.30, -187500.02, -187500.02, -163635.91, -187500.02, -187500.02, -187500.02, 0.000, 0.000, 0.000, 17:56:45.200
221, 48165.57, 68292.18, -187500.02, -187500.02, -163723.48, -187500.02, -187500.02, -187500.02, 0.000, 0.000, 0.000, 17:56:45.200
222, 48226.64, 68103.15, -187500.02, -187500.02, -163669.55, -187500.02, -187500.02, -187500.02, 0.000, 0.000, 0.000, 17:56:45.200
223, 48011.30, 67325.73, -187500.02, -187500.02, -163464.83, -187500.02, -187500.02, -187500.02, 0.000, 0.000, 0.000, 17:56:45.200
224, 47437.51, 66953.48, -187500.02, -187500.02, -163423.08, -187500.02, -187500.02, -187500.02, 0.000, 0.000, 0.000, 17:56:45.201
225, 47626.54, 67855.05, -187500.02, -187500.02, -163577.91, -187500.02, -187500.02, -187500.02, 0.000, 0.000, 0.000, 17:56:45.201
226, 48145.50, 68277.36, -187500.02, -187500.02, -163633.36, -187500.02, -187500.02, -187500.02, 0.000, 0.000, 0.000, 17:56:45.201
227, 48217.81, 68096.09, -187500.02, -187500.02, -163587.03, -187500.02, -187500.02, -187500.02, 0.000, 0.000, 0.000, 17:56:45.201
228, 47999.05, 67319.48, -187500.02, -187500.02, -163380.83, -187500.02, -187500.02, -187500.02, 0.000, 0.000, 0.000, 17:56:45.201
229, 47425.26, 66937.59, -187500.02, -187500.02, -163395.50, -187500.02, -187500.02, -187500.02, 0.018, -0.004, 1.026, 17:56:45.203
230, 47603.04, 67826.91, -187500.02, -187500.02, -163580.09, -187500.02, -187500.02, -187500.02, 0.000, 0.000, 0.000, 17:56:45.203
231, 48131.93, 68257.80, -187500.02, -187500.02, -163674.13, -187500.02, -187500.02, -187500.02, 0.000, 0.000, 0.000, 17:56:45.203
232, 48205.47, 68072.93, -187500.02, -187500.02, -163666.42, -187500.02, -187500.02, -187500.02, 0.000, 0.000, 0.000, 17:56:45.204
233, 47999.88, 67300.45, -187500.02, -187500.02, -163495.94, -187500.02, -187500.02, -187500.02, 0.000, 0.000, 0.000, 17:56:45.204
234, 47417.61, 66898.32, -187500.02, -187500.02, -163462.23, -187500.02, -187500.02, -187500.02, 0.000, 0.000, 0.000, 17:56:45.204
235, 47576.31, 67788.08, -187500.02, -187500.02, -163666.83, -187500.02, -187500.02, -187500.02, 0.000, 0.000, 0.000, 17:56:45.204
236, 48083.43, 68202.28, -187500.02, -187500.02, -163742.23, -187500.02, -187500.02, -187500.02, 0.000, 0.000, 0.000, 17:56:45.204
237, 48136.85, 68003.70, -187500.02, -187500.02, -163691.08, -187500.02, -187500.02, -187500.02, 0.000, 0.000, 0.000, 17:56:45.204
238, 47916.35, 67223.56, -187500.02, -187500.02, -163475.72, -187500.02, -187500.02, -187500.02, 0.000, 0.000, 0.000, 17:56:45.204
239, 47332.45, 66814.19, -187500.02, -187500.02, -163444.33, -187500.02, -187500.02, -187500.02, 0.012, -0.014, 1.026, 17:56:45.205
240, 47487.33, 67696.70, -187500.02, -187500.02, -163599.55, -187500.02, -187500.02, -187500.02, 0.000, 0.000, 0.000, 17:56:45.205
241, 48016.75, 68146.91, -187500.02, -187500.02, -163687.98, -187500.02, -187500.02, -187500.02, 0.000, 0.000, 0.000, 17:56:45.205
242, 48085.44, 67969.91, -187500.02, -187500.02, -163656.70, -187500.02, -187500.02, -187500.02, 0.000, 0.000, 0.000, 17:56:45.205
243, 47874.95, 67195.69, -187500.02, -187500.02, -163471.98, -187500.02, -187500.02, -187500.02, 0.000, 0.000, 0.000, 17:56:45.205
244, 47298.70, 66785.65, -187500.02, -187500.02, -163461.97, -187500.02, -187500.02, -187500.02, 0.000, 0.000, 0.000, 17:56:45.205
245, 47435.18, 67652.29, -187500.02, -187500.02, -163622.25, -187500.02, -187500.02, -187500.02, 0.000, 0.000, 0.000, 17:56:45.206
246, 47963.45, 68100.13, -187500.02, -187500.02, -163690.36, -187500.02, -187500.02, -187500.02, 0.000, 0.000, 0.000, 17:56:45.206
247, 48048.45, 67940.38, -187500.02, -187500.02, -163701.80, -187500.02, -187500.02, -187500.02, 0.000, 0.000, 0.000, 17:56:45.206
248, 47839.86, 67174.55, -187500.02, -187500.02, -163534.52, -187500.02, -187500.02, -187500.02, 0.010, -0.012, 1.026, 17:56:45.206
249, 47253.48, 66742.27, -187500.02, -187500.02, -163505.06, -187500.02, -187500.02, -187500.02, 0.000, 0.000, 0.000, 17:56:45.206
250, 47387.33, 67607.25, -187500.02, -187500.02, -163666.67, -187500.02, -187500.02, -187500.02, 0.000, 0.000, 0.000, 17:56:45.207
251, 47929.76, 68073.94, -187500.02, -187500.02, -163745.56, -187500.02, -187500.02, -187500.02, 0.000, 0.000, 0.000, 17:56:45.207
252, 48006.65, 67911.10, -187500.02, -187500.02, -163700.08, -187500.02, -187500.02, -187500.02, 0.000, 0.000, 0.000, 17:56:45.207
253, 47813.04, 67162.59, -187500.02, -187500.02, -163506.16, -187500.02, -187500.02, -187500.02, 0.000, 0.000, 0.000, 17:56:45.207
254, 47244.30, 66729.74, -187500.02, -187500.02, -163484.03, -187500.02, -187500.02, -187500.02, 0.000, 0.000, 0.000, 17:56:45.207
255, 47382.32, 67611.74, -187500.02, -187500.02, -163622.61, -187500.02, -187500.02, -187500.02, 0.000, 0.000, 0.000, 17:56:45.208
0, 47925.67, 68084.95, -187500.02, -187500.02, -163696.28, -187500.02, -187500.02, -187500.02, 0.000, 0.000, 0.000, 17:56:45.208
1, 48012.68, 67930.37, -187500.02, -187500.02, -163636.59, -187500.02, -187500.02, -187500.02, 0.000, 0.000, 0.000, 17:56:45.208
2, 47833.27, 67195.42, -187500.02, -187500.02, -163468.47, -187500.02, -187500.02, -187500.02, 0.012, -0.012, 1.026, 17:56:45.208
3, 47271.28, 66765.35, -187500.02, -187500.02, -163435.38, -187500.02, -187500.02, -187500.02, 0.000, 0.000, 0.000, 17:56:45.208
4, 47409.34, 67641.77, -187500.02, -187500.02, -163626.09, -187500.02, -187500.02, -187500.02, 0.000, 0.000, 0.000, 17:56:45.208
5, 47960.94, 68128.70, -187500.02, -187500.02, -163710.11, -187500.02, -187500.02, -187500.02, 0.000, 0.000, 0.000, 17:56:45.209
6, 48059.78, 67987.70, -187500.02, -187500.02, -163700.84, -187500.02, -187500.02, -187500.02, 0.000, 0.000, 0.000, 17:56:45.209
7, 47878.06, 67246.34, -187500.02, -187500.02, -163524.78, -187500.02, -187500.02, -187500.02, 0.000, 0.000, 0.000, 17:56:45.209
8, 47313.30, 66803.64, -187500.02, -187500.02, -163523.28, -187500.02, -187500.02, -187500.02, 0.000, 0.000, 0.000, 17:56:45.209
9, 47432.70, 67665.01, -187500.02, -187500.02, -163680.02, -187500.02, -187500.02, -187500.02, 0.000, 0.000, 0.000, 17:56:45.209
10, 47983.74, 68154.80, -187500.02, -187500.02, -163754.38, -187500.02, -187500.02, -187500.02, 0.000, 0.000, 0.000, 17:56:45.209
11, 48086.36, 68017.41, -187500.02, -187500.02, -163747.36, -187500.02, -187500.02, -187500.02, 0.000, 0.000, 0.000, 17:56:45.210
12, 47905.13, 67281.48, -187500.02, -187500.02, -163568.58, -187500.02, -187500.02, -187500.02, 0.008, -0.014, 1.030, 17:56:45.210
13, 47325.10, 66807.08, -187500.02, -187500.02, -163497.00, -187500.02, -187500.02, -187500.02, 0.000, 0.000, 0.000, 17:56:45.210
14, 47440.82, 67665.55, -187500.02, -187500.02, -163649.50, -187500.02, -187500.02, -187500.02, 0.000, 0.000, 0.000, 17:56:45.210
15, 47997.44, 68167.61, -187500.02, -187500.02, -163700.08, -187500.02, -187500.02, -187500.02, 0.000, 0.000, 0.000, 17:56:45.210
16, 48108.46, 68035.42, -187500.02, -187500.02, -163658.97, -187500.02, -187500.02, -187500.02, 0.000, 0.000, 0.000, 17:56:45.210
17, 47933.56, 67302.91, -187500.02, -187500.02, -163446.36, -187500.02, -187500.02, -187500.02, 0.000, 0.000, 0.000, 17:56:45.211
18, 47371.86, 66841.23, -187500.02, -187500.02, -163417.11, -187500.02, -187500.02, -187500.02, 0.000, 0.000, 0.000, 17:56:45.211
19, 47481.92, 67698.36, -187500.02, -187500.02, -163567.41, -187500.02, -187500.02, -187500.02, 0.000, 0.000, 0.000, 17:56:45.211
20, 48035.66, 68199.51, -187500.02, -187500.02, -163639.08, -187500.02, -187500.02, -187500.02, 0.000, 0.000, 0.000, 17:56:45.211
21, 48150.89, 68070.60, -187500.02, -187500.02, -163628.73, -187500.02, -187500.02, -187500.02, 0.000, 0.000, 0.000, 17:56:45.211
22, 47984.34, 67349.49, -187500.02, -187500.02, -163468.81, -187500.02, -187500.02, -187500.02, 0.010, -0.006, 1.034, 17:56:45.211
23, 47414.73, 66866.49, -187500.02, -187500.02, -163440.17, -187500.02, -187500.02, -187500.02, 0.000, 0.000, 0.000, 17:56:45.212
24, 47510.49, 67708.80, -187500.02, -187500.02, -163612.84, -187500.02, -187500.02, -187500.02, 0.000, 0.000, 0.000, 17:56:45.212
25, 48065.68, 68217.39, -187500.02, -187500.02, -163691.00, -187500.02, -187500.02, -187500.02, 0.000, 0.000, 0.000, 17:56:45.212
26, 48172.55, 68082.52, -187500.02, -187500.02, -163665.50, -187500.02, -187500.02, -187500.02, 0.000, 0.000, 0.000, 17:56:45.212
27, 47993.98, 67357.09, -187500.02, -187500.02, -163450.13, -187500.02, -187500.02, -187500.02, 0.000, 0.000, 0.000, 17:56:45.212
28, 47423.49, 66862.70, -187500.02, -187500.02, -163375.58, -187500.02, -187500.02, -187500.02, 0.000, 0.000, 0.000, 17:56:45.212
29, 47519.54, 67710.61, -187500.02, -187500.02, -163540.64, -187500.02, -187500.02, -187500.02, 0.000, 0.000, 0.000, 17:56:45.213
30, 48078.62, 68232.25, -187500.02, -187500.02, -163625.73, -187500.02, -187500.02, -187500.02, 0.000, 0.000, 0.000, 17:56:45.213
31, 48192.21, 68111.04, -187500.02, -187500.02, -163590.47, -187500.02, -187500.02, -187500.02, 0.000, 0.000, 0.000, 17:56:45.213
32, 48024.04, 67390.17, -187500.02, -187500.02, -163385.30, -187500.02, -187500.02, -187500.02, 0.008, -0.006, 1.026, 17:56:45.213
33, 47459.30, 66895.95, -187500.02, -187500.02, -163349.14, -187500.02, -187500.02, -187500.02, 0.000, 0.000, 0.000, 17:56:45.213
34, 47543.07, 67739.73, -187500.02, -187500.02, -163530.36, -187500.02, -187500.02, -187500.02, 0.000, 0.000, 0.000, 17:56:45.213
35, 48109.51, 68271.08, -187500.02, -187500.02, -163640.41, -187500.02, -187500.02, -187500.02, 0.000, 0.000, 0.000, 17:56:45.214
36, 48232.40, 68151.09, -187500.02, -187500.02, -163673.70, -187500.02, -187500.02, -187500.02, 0.000, 0.000, 0.000, 17:56:45.214
37, 48066.73, 67437.47, -187500.02, -187500.02, -163518.70, -187500.02, -187500.02, -187500.02, 0.000, 0.000, 0.000, 17:56:45.214
38, 47488.16, 66916.56, -187500.02, -187500.02, -163457.09, -187500.02, -187500.02, -187500.02, 0.000, 0.000, 0.000, 17:56:45.214
39, 47557.16, 67744.56, -187500.02, -187500.02, -163607.88, -187500.02, -187500.02, -187500.02, 0.000, 0.000, 0.000, 17:56:45.214
40, 48122.12, 68276.24, -187500.02, -187500.02, -163689.34, -187500.02, -187500.02, -187500.02, 0.000, 0.000, 0.000, 17:56:45.214
41, 48236.18, 68151.31, -187500.02, -187500.02, -163654.08, -187500.02, -187500.02, -187500.02, 0.000, 0.000, 0.000, 17:56:45.215
42, 48076.32, 67446.59, -187500.02, -187500.02, -163471.36, -187500.02, -187500.02, -187500.02, 0.010, -0.008, 1.028, 17:56:45.215
43, 47503.80, 66924.20, -187500.02, -187500.02, -163410.83, -187500.02, -187500.02, -187500.02, 0.000, 0.000, 0.000, 17:56:45.215
44, 47564.64, 67741.30, -187500.02, -187500.02, -163552.45, -187500.02, -187500.02, -187500.02, 0.000, 0.000, 0.000, 17:56:45.215
45, 48121.23, 68271.81, -187500.02, -187500.02, -163594.53, -187500.02, -187500.02, -187500.02, 0.000, 0.000, 0.000, 17:56:45.215
46, 48245.28, 68160.03, -187500.02, -187500.02, -163568.03, -187500.02, -187500.02, -187500.02, 0.000, 0.000, 0.000, 17:56:45.216
47, 48084.14, 67448.42, -187500.02, -187500.02, -163383.58, -187500.02, -187500.02, -187500.02, 0.000, 0.000, 0.000, 17:56:45.216
48, 47521.95, 66923.84, -187500.02, -187500.02, -163339.81, -187500.02, -187500.02, -187500.02, 0.000, 0.000, 0.000, 17:56:45.216
49, 47582.41, 67751.80, -187500.02, -187500.02, -163502.72, -187500.02, -187500.02, -187500.02, 0.000, 0.000, 0.000, 17:56:45.216
50, 48156.18, 68309.79, -187500.02, -187500.02, -163654.53, -187500.02, -187500.02, -187500.02, 0.000, 0.000, 0.000, 17:56:45.216
51, 48278.96, 68199.26, -187500.02, -187500.02, -163671.30, -187500.02, -187500.02, -187500.02, 0.000, 0.000, 0.000, 17:56:45.216
52, 48119.06, 67494.31, -187500.02, -187500.02, -163475.80, -187500.02, -187500.02, -187500.02, 0.014, -0.010, 1.030, 17:56:45.216
53, 47557.87, 66960.26, -187500.02, -187500.02, -163456.47, -187500.02, -187500.02, -187500.02, 0.000, 0.000, 0.000, 17:56:45.217
54, 47598.91, 67765.93, -187500.02, -187500.02, -163617.89, -187500.02, -187500.02, -187500.02, 0.000, 0.000, 0.000, 17:56:45.217
55, 48156.05, 68307.45, -187500.02, -187500.02, -163657.33, -187500.02, -187500.02, -187500.02, 0.000, 0.000, 0.000, 17:56:45.217
56, 48280.53, 68197.07, -187500.02, -187500.02, -163652.42, -187500.02, -187500.02, -187500.02, 0.000, 0.000, 0.000, 17:56:45.217
57, 48121.80, 67497.28, -187500.02, -187500.02, -163469.19, -187500.02, -187500.02, -187500.02, 0.000, 0.000, 0.000, 17:56:45.217
58, 47554.32, 66941.46, -187500.02, -187500.02, -163391.05, -187500.02, -187500.02, -187500.02, 0.000, 0.000, 0.000, 17:56:45.217
59, 47592.29, 67746.93, -187500.02, -187500.02, -163552.89, -187500.02, -187500.02, -187500.02, 0.000, 0.000, 0.000, 17:56:45.217
60, 48151.98, 68306.34, -187500.02, -187500.02, -163607.41, -187500.02, -187500.02, -187500.02, 0.000, 0.000, 0.000, 17:56:45.217
61, 48280.68, 68201.23, -187500.02, -187500.02, -163575.06, -187500.02, -187500.02, -187500.02, 0.000, 0.000, 0.000, 17:56:45.218
62, 48134.05, 67514.31, -187500.02, -187500.02, -163398.27, -187500.02, -187500.02, -187500.02, 0.020, -0.008, 1.026, 17:56:45.218
63, 47574.46, 66958.63, -187500.02, -187500.02, -163349.36, -187500.02, -187500.02, -187500.02, 0.000, 0.000, 0.000, 17:56:45.218
64, 47607.43, 67760.00, -187500.02, -187500.02, -163527.86, -187500.02, -187500.02, -187500.02, 0.000, 0.000, 0.000, 17:56:45.218
65, 48177.17, 68335.49, -187500.02, -187500.02, -163634.23, -187500.02, -187500.02, -187500.02, 0.000, 0.000, 0.000, 17:56:45.218
66, 48312.73, 68236.19, -187500.02, -187500.02, -163653.48, -187500.02, -187500.02, -187500.02, 0.000, 0.000, 0.000, 17:56:45.218
67, 48155.00, 67538.54, -187500.02, -187500.02, -163450.81, -187500.02, -187500.02, -187500.02, 0.000, 0.000, 0.000, 17:56:45.218
68, 47589.07, 66970.85, -187500.02, -187500.02, -163411.66, -187500.02, -187500.02, -187500.02, 0.000, 0.000, 0.000, 17:56:45.218
69, 47605.66, 67759.67, -187500.02, -187500.02, -163590.94, -187500.02, -187500.02, -187500.02, 0.000, 0.000, 0.000, 17:56:45.218
70, 48171.81, 68327.27, -187500.02, -187500.02, -163696.77, -187500.02, -187500.02, -187500.02, 0.000, 0.000, 0.000, 17:56:45.219
71, 48306.34, 68232.05, -187500.02, -187500.02, -163684.92, -187500.02, -187500.02, -187500.02, 0.000, 0.000, 0.000, 17:56:45.219
72, 48162.87, 67548.18, -187500.02, -187500.02, -163507.36, -187500.02, -187500.02, -187500.02, 0.010, -0.004, 1.026, 17:56:45.219
73, 47595.71, 66962.78, -187500.02, -187500.02, -163433.47, -187500.02, -187500.02, -187500.02, 0.000, 0.000, 0.000, 17:56:45.677
74, 47604.83, 67747.17, -187500.02, -187500.02, -163608.22, -187500.02, -187500.02, -187500.02, 0.000, 0.000, 0.000, 17:56:45.678
75, 48161.32, 68319.40, -187500.02, -187500.02, -163667.42, -187500.02, -187500.02, -187500.02, 0.000, 0.000, 0.000, 17:56:45.678
76, 48302.90, 68227.27, -187500.02, -187500.02, -163650.38, -187500.02, -187500.02, -187500.02, 0.000, 0.000, 0.000, 17:56:45.678
77, 48159.40, 67550.34, -187500.02, -187500.02, -163491.92, -187500.02, -187500.02, -187500.02, 0.000, 0.000, 0.000, 17:56:45.678
78, 47596.63, 66963.45, -187500.02, -187500.02, -163424.97, -187500.02, -187500.02, -187500.02, 0.000, 0.000, 0.000, 17:56:45.678
79, 47602.87, 67738.50, -187500.02, -187500.02, -163585.69, -187500.02, -187500.02, -187500.02, 0.000, 0.000, 0.000, 17:56:45.678
80, 48169.37, 68319.05, -187500.02, -187500.02, -163654.34, -187500.02, -187500.02, -187500.02, 0.000, 0.000, 0.000, 17:56:45.679
81, 48319.87, 68240.12, -187500.02, -187500.02, -163635.81, -187500.02, -187500.02, -187500.02, 0.000, 0.000, 0.000, 17:56:45.679
82, 48185.09, 67576.66, -187500.02, -187500.02, -163489.80, -187500.02, -187500.02, -187500.02, 0.016, -0.008, 1.034, 17:56:45.679
83, 47621.91, 66976.13, -187500.02, -187500.02, -163447.17, -187500.02, -187500.02, -187500.02, 0.000, 0.000, 0.000, 17:56:45.679
84, 47611.81, 67741.67, -187500.02, -187500.02, -163637.20, -187500.02, -187500.02, -187500.02, 0.000, 0.000, 0.000, 17:56:45.679
85, 48176.37, 68329.55, -187500.02, -187500.02, -163727.50, -187500.02, -187500.02, -187500.02, 0.000, 0.000, 0.000, 17:56:45.679
86, 48319.66, 68241.62, -187500.02, -187500.02, -163734.48, -187500.02, -187500.02, -187500.02, 0.000, 0.000, 0.000, 17:56:45.680
87, 48168.03, 67562.37, -187500.02, -187500.02, -163550.77, -187500.02, -187500.02, -187500.02, 0.000, 0.000, 0.000, 17:56:45.680
88, 47603.67, 66950.83, -187500.02, -187500.02, -163456.84, -187500.02, -187500.02, -187500.02, 0.000, 0.000, 0.000, 17:56:45.680
89, 47595.49, 67723.13, -187500.02, -187500.02, -163612.13, -187500.02, -187500.02, -187500.02, 0.000, 0.000, 0.000, 17:56:45.680
90, 48174.07, 68329.75, -187500.02, -187500.02, -163681.91, -187500.02, -187500.02, -187500.02, 0.000, 0.000, 0.000, 17:56:45.680
91, 48319.73, 68233.91, -187500.02, -187500.02, -163669.19, -187500.02, -187500.02, -187500.02, 0.000, 0.000, 0.000, 17:56:45.681
92, 48177.82, 67569.57, -187500.02, -187500.02, -163513.38, -187500.02, -187500.02, -187500.02, 0.008, -0.004, 1.028, 17:56:45.681
93, 47620.79, 66957.84, -187500.02, -187500.02, -163420.80, -187500.02, -187500.02, -187500.02, 0.000, 0.000, 0.000, 17:56:45.681
94, 47602.15, 67712.30, -187500.02, -187500.02, -163578.78, -187500.02, -187500.02, -187500.02, 0.000, 0.000, 0.000, 17:56:45.681
95, 48177.48, 68325.68, -187500.02, -187500.02, -163688.88, -187500.02, -187500.02, -187500.02, 0.000, 0.000, 0.000, 17:56:45.681
96, 48337.39, 68255.90, -187500.02, -187500.02, -163717.31, -187500.02, -187500.02, -187500.02, 0.000, 0.000, 0.000, 17:56:45.681
97, 48204.87, 67602.11, -187500.02, -187500.02, -163556.11, -187500.02, -187500.02, -187500.02, 0.000, 0.000, 0.000, 17:56:45.682
98, 47645.49, 66976.40, -187500.02, -187500.02, -163481.69, -187500.02, -187500.02, -187500.02, 0.000, 0.000, 0.000, 17:56:45.682
99, 47613.35, 67723.57, -187500.02, -187500.02, -163650.89, -187500.02, -187500.02, -187500.02, 0.000, 0.000, 0.000, 17:56:45.682
100, 48181.38, 68336.32, -187500.02, -187500.02, -163758.83, -187500.02, -187500.02, -187500.02, 0.000, 0.000, 0.000, 17:56:45.682
101, 48329.68, 68256.86, -187500.02, -187500.02, -163742.45, -187500.02, -187500.02, -187500.02, 0.000, 0.000, 0.000, 17:56:45.682
102, 48196.26, 67603.12, -187500.02, -187500.02, -163561.44, -187500.02, -187500.02, -187500.02, 0.010, -0.014, 1.026, 17:56:45.682
103, 47636.10, 66966.85, -187500.02, -187500.02, -163451.84, -187500.02, -187500.02, -187500.02, 0.000, 0.000, 0.000, 17:56:45.683
104, 47599.43, 67707.09, -187500.02, -187500.02, -163596.17, -187500.02, -187500.02, -187500.02, 0.000, 0.000, 0.000, 17:56:45.683
105, 48169.55, 68329.86, -187500.02, -187500.02, -163687.11, -187500.02, -187500.02, -187500.02, 0.000, 0.000, 0.000, 17:56:45.683
106, 48328.96, 68257.04, -187500.02, -187500.02, -163654.73, -187500.02, -187500.02, -187500.02, 0.000, 0.000, 0.000, 17:56:45.683
107, 48205.63, 67616.82, -187500.02, -187500.02, -163494.00, -187500.02, -187500.02, -187500.02, 0.000, 0.000, 0.000, 17:56:45.683
108, 47642.90, 66970.45, -187500.02, -187500.02, -163400.08, -187500.02, -187500.02, -187500.02, 0.000, 0.000, 0.000, 17:56:45.684
109, 47601.21, 67706.18, -187500.02, -187500.02, -163582.69, -187500.02, -187500.02, -187500.02, 0.000, 0.000, 0.000, 17:56:45.684
110, 48180.61, 68343.14, -187500.02, -187500.02, -163703.09, -187500.02, -187500.02, -187500.02, 0.000, 0.000, 0.000, 17:56:45.684
111, 48343.27, 68280.04, -187500.02, -187500.02, -163698.34, -187500.02, -187500.02, -187500.02, 0.010, -0.014, 1.028, 17:56:45.684
112, 48228.02, 67648.96, -187500.02, -187500.02, -163565.72, -187500.02, -187500.02, -187500.02, 0.000, 0.000, 0.000, 17:56:45.684
113, 47673.83, 66995.73, -187500.02, -187500.02, -163516.89, -187500.02, -187500.02, -187500.02, 0.000, 0.000, 0.000, 17:56:45.685
114, 47606.82, 67707.48, -187500.02, -187500.02, -163657.13, -187500.02, -187500.02, -187500.02, 0.000, 0.000, 0.000, 17:56:45.685
115, 48184.10, 68349.48, -187500.02, -187500.02, -163729.36, -187500.02, -187500.02, -187500.02, 0.000, 0.000, 0.000, 17:56:45.685
116, 48352.77, 68283.77, -187500.02, -187500.02, -163728.09, -187500.02, -187500.02, -187500.02, 0.000, 0.000, 0.000, 17:56:45.685
117, 48226.93, 67643.22, -187500.02, -187500.02, -163561.05, -187500.02, -187500.02, -187500.02, 0.000, 0.000, 0.000, 17:56:45.685
118, 47674.14, 66983.80, -187500.02, -187500.02, -163473.77, -187500.02, -187500.02, -187500.02, 0.000, 0.000, 0.000, 17:56:45.685
119, 47603.80, 67697.13, -187500.02, -187500.02, -163613.44, -187500.02, -187500.02, -187500.02, 0.000, 0.000, 0.000, 17:56:45.686
120, 48182.02, 68341.22, -187500.02, -187500.02, -163717.16, -187500.02, -187500.02, -187500.02, 0.000, 0.000, 0.000, 17:56:45.686
121, 48355.41, 68286.23, -187500.02, -187500.02, -163717.16, -187500.02, -187500.02, -187500.02, 0.010, -0.016, 1.030, 17:56:45.686
122, 48226.39, 67644.00, -187500.02, -187500.02, -163512.08, -187500.02, -187500.02, -187500.02, 0.000, 0.000, 0.000, 17:56:45.686
123, 47682.46, 66982.01, -187500.02, -187500.02, -163431.17, -187500.02, -187500.02, -187500.02, 0.000, 0.000, 0.000, 17:56:45.686
124, 47610.24, 67695.41, -187500.02, -187500.02, -163604.13, -187500.02, -187500.02, -187500.02, 0.000, 0.000, 0.000, 17:56:45.686
125, 48186.54, 68346.80, -187500.02, -187500.02, -163730.39, -187500.02, -187500.02, -187500.02, 0.000, 0.000, 0.000, 17:56:45.687
126, 48356.30, 68287.10, -187500.02, -187500.02, -163730.97, -187500.02, -187500.02, -187500.02, 0.000, 0.000, 0.000, 17:56:45.687
127, 48238.62, 67665.52, -187500.02, -187500.02, -163583.52, -187500.02, -187500.02, -187500.02, 0.000, 0.000, 0.000, 17:56:45.687
128, 47695.34, 66995.15, -187500.02, -187500.02, -163525.64, -187500.02, -187500.02, -187500.02, 0.000, 0.000, 0.000, 17:56:45.687
129, 47606.44, 67681.80, -187500.02, -187500.02, -163676.81, -187500.02, -187500.02, -187500.02, 0.000, 0.000, 0.000, 17:56:45.687
130, 48176.57, 68340.14, -187500.02, -187500.02, -163765.86, -187500.02, -187500.02, -187500.02, 0.000, 0.000, 0.000, 17:56:45.688
131, 48354.85, 68292.04, -187500.02, -187500.02, -163774.98, -187500.02, -187500.02, -187500.02, 0.012, -0.010, 1.028, 17:56:45.688
132, 48237.57, 67670.71, -187500.02, -187500.02, -163642.13, -187500.02, -187500.02, -187500.02, 0.000, 0.000, 0.000, 17:56:45.688
133, 47687.00, 66983.80, -187500.02, -187500.02, -163533.17, -187500.02, -187500.02, -187500.02, 0.000, 0.000, 0.000, 17:56:45.688
134, 47587.20, 67661.66, -187500.02, -187500.02, -163672.14, -187500.02, -187500.02, -187500.02, 0.000, 0.000, 0.000, 17:56:45.688
135, 48158.80, 68321.97, -187500.02, -187500.02, -163743.05, -187500.02, -187500.02, -187500.02, 0.000, 0.000, 0.000, 17:56:45.688
136, 48341.57, 68276.22, -187500.02, -187500.02, -163717.88, -187500.02, -187500.02, -187500.02, 0.000, 0.000, 0.000, 17:56:45.688
137, 48226.30, 67665.05, -187500.02, -187500.02, -163563.22, -187500.02, -187500.02, -187500.02, 0.000, 0.000, 0.000, 17:56:45.688
138, 47693.61, 66984.73, -187500.02, -187500.02, -163488.97, -187500.02, -187500.02, -187500.02, 0.000, 0.000, 0.000, 17:56:45.689
139, 47592.18, 67657.99, -187500.02, -187500.02, -163634.77, -187500.02, -187500.02, -187500.02, 0.000, 0.000, 0.000, 17:56:45.689
140, 48169.37, 68334.63, -187500.02, -187500.02, -163764.50, -187500.02, -187500.02, -187500.02, 0.000, 0.000, 0.000, 17:56:45.689
141, 48362.56, 68297.90, -187500.02, -187500.02, -163802.98, -187500.02, -187500.02, -187500.02, 0.014, -0.012, 1.028, 17:56:45.689
142, 48254.00, 67693.58, -187500.02, -187500.02, -163622.16, -187500.02, -187500.02, -187500.02, 0.000, 0.000, 0.000, 17:56:45.689
143, 47713.64, 67001.79, -187500.02, -187500.02, -163549.19, -187500.02, -187500.02, -187500.02, 0.000, 0.000, 0.000, 17:56:45.689
144, 47590.13, 67660.05, -187500.02, -187500.02, -163755.16, -187500.02, -187500.02, -187500.02, 0.000, 0.000, 0.000, 17:56:45.689
145, 48165.13, 68339.31, -187500.02, -187500.02, -163901.16, -187500.02, -187500.02, -187500.02, 0.000, 0.000, 0.000, 17:56:45.689
146, 48347.58, 68294.77, -187500.02, -187500.02, -163892.47, -187500.02, -187500.02, -187500.02, 0.000, 0.000, 0.000, 17:56:45.689
147, 48228.83, 67685.02, -187500.02, -187500.02, -163664.86, -187500.02, -187500.02, -187500.02, 0.000, 0.000, 0.000, 17:56:45.690
148, 47690.44, 66984.16, -187500.02, -187500.02, -163533.47, -187500.02, -187500.02, -187500.02, 0.000, 0.000, 0.000, 17:56:45.690
