%OpenBCI Raw EEG Data
%
%Sample Rate = 250.0 Hz
%First Column = SampleIndex
%Last Column = Timestamp 
%Other Columns = EEG data in microvolts followed by Accel Data (in G) interleaved with Aux Data
0, 24930.44, 52196.42, 187500.00, -187500.02, -153186.30, -187500.02, -187500.02, -187500.02, 0.018, -0.018, 0.964, 18:11:57.412
1, 25491.34, 52947.28, 187500.00, -187500.02, -153265.03, -187500.02, -187500.02, -187500.02, 0.000, 0.000, 0.000, 18:11:57.892
2, 26154.83, 53570.45, 187500.00, -187500.02, -153449.59, -187500.02, -187500.02, -187500.02, 0.000, 0.000, 0.000, 18:11:57.892
3, 26015.51, 53246.84, 187500.00, -187500.02, -153540.92, -187500.02, -187500.02, -187500.02, 0.000, 0.000, 0.000, 18:11:57.892
4, 25466.37, 52660.80, 187500.00, -187500.02, -153395.84, -187500.02, -187500.02, -187500.02, 0.000, 0.000, 0.000, 18:11:57.892
5, 24918.82, 52190.50, 187500.00, -187500.02, -153128.05, -187500.02, -187500.02, -187500.02, 0.000, 0.000, 0.000, 18:11:57.893
6, 25484.74, 52938.83, 187500.00, -187500.02, -153209.41, -187500.02, -187500.02, -187500.02, 0.000, 0.000, 0.000, 18:11:57.893
7, 26169.71, 53585.15, 187500.00, -187500.02, -153453.44, -187500.02, -187500.02, -187500.02, 0.008, -0.008, 1.040, 18:11:57.893
8, 26030.26, 53263.42, 187500.00, -187500.02, -153567.25, -187500.02, -187500.02, -187500.02, 0.000, 0.000, 0.000, 18:11:57.893
9, 25488.65, 52673.43, 187500.00, -187500.02, -153447.27, -187500.02, -187500.02, -187500.02, 0.000, 0.000, 0.000, 18:11:57.893
10, 24931.94, 52193.42, 187500.00, -187500.02, -153198.56, -187500.02, -187500.02, -187500.02, 0.000, 0.000, 0.000, 18:11:57.893
11, 25495.34, 52945.49, 187500.00, -187500.02, -153323.89, -187500.02, -187500.02, -187500.02, 0.000, 0.000, 0.000, 18:11:57.894
12, 26180.46, 53596.26, 187500.00, -187500.02, -153577.89, -187500.02, -187500.02, -187500.02, 0.000, 0.000, 0.000, 18:11:57.894
13, 26020.22, 53252.76, 187500.00, -187500.02, -153673.25, -187500.02, -187500.02, -187500.02, 0.000, 0.000, 0.000, 18:11:57.894
14, 25475.42, 52656.53, 187500.00, -187500.02, -153540.23, -187500.02, -187500.02, -187500.02, 0.000, 0.000, 0.000, 18:11:57.894
15, 24911.55, 52168.37, 187500.00, -187500.02, -153264.75, -187500.02, -187500.02, -187500.02, 0.000, 0.000, 0.000, 18:11:57.894
16, 25454.68, 52898.44, 187500.00, -187500.02, -153303.61, -187500.02, -187500.02, -187500.02, 0.000, 0.000, 0.000, 18:11:57.894
17, 26142.17, 53553.57, 187500.00, -187500.02, -153488.84, -187500.02, -187500.02, -187500.02, 0.016, -0.014, 1.042, 18:11:57.895
18, 26002.19, 53233.29, 187500.00, -187500.02, -153566.42, -187500.02, -187500.02, -187500.02, 0.000, 0.000, 0.000, 18:11:57.895
19, 25461.32, 52635.29, 187500.00, -187500.02, -153413.56, -187500.02, -187500.02, -187500.02, 0.000, 0.000, 0.000, 18:11:57.895
20, 24903.62, 52144.00, 187500.00, -187500.02, -153171.94, -187500.02, -187500.02, -187500.02, 0.000, 0.000, 0.000, 18:11:57.895
21, 25449.03, 52877.45, 187500.00, -187500.02, -153260.34, -187500.02, -187500.02, -187500.02, 0.000, 0.000, 0.000, 18:11:57.895
22, 26131.56, 53528.31, 187500.00, -187500.02, -153471.34, -187500.02, -187500.02, -187500.02, 0.000, 0.000, 0.000, 18:11:57.896
23, 25994.41, 53211.54, 187500.00, -187500.02, -153599.03, -187500.02, -187500.02, -187500.02, 0.000, 0.000, 0.000, 18:11:57.896
24, 25461.50, 52630.51, 187500.00, -187500.02, -153503.64, -187500.02, -187500.02, -187500.02, 0.000, 0.000, 0.000, 18:11:57.896
25, 24901.43, 52141.21, 187500.00, -187500.02, -153261.14, -187500.02, -187500.02, -187500.02, 0.000, 0.000, 0.000, 18:11:57.896
26, 25430.32, 52859.71, 187500.00, -187500.02, -153363.27, -187500.02, -187500.02, -187500.02, 0.012, -0.008, 1.028, 18:11:57.896
27, 26123.02, 53515.57, 187500.00, -187500.02, -153552.83, -187500.02, -187500.02, -187500.02, 0.000, 0.000, 0.000, 18:11:57.896
28, 25987.17, 53196.55, 187500.00, -187500.02, -153626.11, -187500.02, -187500.02, -187500.02, 0.000, 0.000, 0.000, 18:11:57.897
29, 25442.52, 52609.70, 187500.00, -187500.02, -153503.11, -187500.02, -187500.02, -187500.02, 0.000, 0.000, 0.000, 18:11:57.897
30, 24889.98, 52127.91, 187500.00, -187500.02, -153255.33, -187500.02, -187500.02, -187500.02, 0.000, 0.000, 0.000, 18:11:57.897
31, 25417.20, 52843.63, 187500.00, -187500.02, -153322.88, -187500.02, -187500.02, -187500.02, 0.000, 0.000, 0.000, 18:11:57.897
32, 26110.21, 53504.53, 187500.00, -187500.02, -153505.97, -187500.02, -187500.02, -187500.02, 0.000, 0.000, 0.000, 18:11:57.897
33, 25989.91, 53207.95, 187500.00, -187500.02, -153600.28, -187500.02, -187500.02, -187500.02, 0.000, 0.000, 0.000, 18:11:57.897
34, 25452.67, 52621.73, 187500.00, -187500.02, -153463.47, -187500.02, -187500.02, -187500.02, 0.000, 0.000, 0.000, 18:11:57.898
35, 24879.39, 52120.80, 187500.00, -187500.02, -153171.73, -187500.02, -187500.02, -187500.02, 0.000, 0.000, 0.000, 18:11:57.898
36, 25407.07, 52843.55, 187500.00, -187500.02, -153235.89, -187500.02, -187500.02, -187500.02, 0.014, -0.008, 1.022, 18:11:57.898
37, 26122.13, 53523.69, 187500.00, -187500.02, -153455.30, -187500.02, -187500.02, -187500.02, 0.000, 0.000, 0.000, 18:11:57.898
38, 26012.02, 53226.74, 187500.00, -187500.02, -153584.59, -187500.02, -187500.02, -187500.02, 0.000, 0.000, 0.000, 18:11:57.898
39, 25476.49, 52641.39, 187500.00, -187500.02, -153479.52, -187500.02, -187500.02, -187500.02, 0.000, 0.000, 0.000, 18:11:57.898
40, 24903.17, 52140.65, 187500.00, -187500.02, -153231.39, -187500.02, -187500.02, -187500.02, 0.000, 0.000, 0.000, 18:11:57.899
41, 25423.39, 52861.45, 187500.00, -187500.02, -153346.91, -187500.02, -187500.02, -187500.02, 0.000, 0.000, 0.000, 18:11:57.899
42, 26128.38, 53538.91, 187500.00, -187500.02, -153572.95, -187500.02, -187500.02, -187500.02, 0.000, 0.000, 0.000, 18:11:57.899
43, 26013.61, 53235.48, 187500.00, -187500.02, -153658.67, -187500.02, -187500.02, -187500.02, 0.000, 0.000, 0.000, 18:11:57.899
44, 25468.89, 52644.50, 187500.00, -187500.02, -153515.98, -187500.02, -187500.02, -187500.02, 0.000, 0.000, 0.000, 18:11:57.899
45, 24883.71, 52128.80, 187500.00, -187500.02, -153244.61, -187500.02, -187500.02, -187500.02, 0.000, 0.000, 0.000, 18:11:57.900
46, 25396.83, 52836.35, 187500.00, -187500.02, -153317.52, -187500.02, -187500.02, -187500.02, 0.018, -0.016, 1.018, 18:11:57.900
47, 26116.54, 53528.85, 187500.00, -187500.02, -153517.94, -187500.02, -187500.02, -187500.02, 0.000, 0.000, 0.000, 18:11:57.900
48, 26008.40, 53236.09, 187500.00, -187500.02, -153586.55, -187500.02, -187500.02, -187500.02, 0.000, 0.000, 0.000, 18:11:57.900
49, 25479.42, 52649.42, 187500.00, -187500.02, -153479.14, -187500.02, -187500.02, -187500.02, 0.000, 0.000, 0.000, 18:11:57.900
50, 24897.43, 52137.27, 187500.00, -187500.02, -153210.78, -187500.02, -187500.02, -187500.02, 0.000, 0.000, 0.000, 18:11:57.900
51, 25405.28, 52846.03, 187500.00, -187500.02, -153248.86, -187500.02, -187500.02, -187500.02, 0.000, 0.000, 0.000, 18:11:57.901
52, 26123.69, 53538.48, 187500.00, -187500.02, -153439.89, -187500.02, -187500.02, -187500.02, 0.000, 0.000, 0.000, 18:11:57.901
53, 26031.82, 53260.94, 187500.00, -187500.02, -153586.23, -187500.02, -187500.02, -187500.02, 0.000, 0.000, 0.000, 18:11:57.901
54, 25512.73, 52684.89, 187500.00, -187500.02, -153498.92, -187500.02, -187500.02, -187500.02, 0.000, 0.000, 0.000, 18:11:57.901
55, 24928.18, 52170.29, 187500.00, -187500.02, -153241.91, -187500.02, -187500.02, -187500.02, 0.000, 0.000, 0.000, 18:11:57.901
56, 25431.03, 52871.26, 187500.00, -187500.02, -153346.58, -187500.02, -187500.02, -187500.02, 0.014, -0.012, 1.024, 18:11:57.901
57, 26152.28, 53565.21, 187500.00, -187500.02, -153586.05, -187500.02, -187500.02, -187500.02, 0.000, 0.000, 0.000, 18:11:57.902
58, 26048.65, 53276.92, 187500.00, -187500.02, -153686.28, -187500.02, -187500.02, -187500.02, 0.000, 0.000, 0.000, 18:11:57.902
59, 25515.88, 52691.44, 187500.00, -187500.02, -153540.91, -187500.02, -187500.02, -187500.02, 0.000, 0.000, 0.000, 18:11:57.902
60, 24939.36, 52176.82, 187500.00, -187500.02, -153261.33, -187500.02, -187500.02, -187500.02, 0.000, 0.000, 0.000, 18:11:57.902
61, 25432.39, 52867.64, 187500.00, -187500.02, -153337.50, -187500.02, -187500.02, -187500.02, 0.000, 0.000, 0.000, 18:11:57.902
62, 26161.87, 53566.25, 187500.00, -187500.02, -153549.34, -187500.02, -187500.02, -187500.02, 0.000, 0.000, 0.000, 18:11:57.903
63, 26065.35, 53285.13, 187500.00, -187500.02, -153652.72, -187500.02, -187500.02, -187500.02, 0.000, 0.000, 0.000, 18:11:57.903
64, 25533.38, 52705.68, 187500.00, -187500.02, -153548.34, -187500.02, -187500.02, -187500.02, 0.000, 0.000, 0.000, 18:11:57.923
65, 24952.59, 52196.46, 187500.00, -187500.02, -153275.20, -187500.02, -187500.02, -187500.02, 0.000, 0.000, 0.000, 18:11:57.923
66, 25449.88, 52896.72, 187500.00, -187500.02, -153336.20, -187500.02, -187500.02, -187500.02, 0.012, -0.012, 1.026, 18:11:57.923
67, 26183.82, 53615.75, 187500.00, -187500.02, -153573.89, -187500.02, -187500.02, -187500.02, 0.000, 0.000, 0.000, 18:11:57.923
68, 26093.02, 53338.70, 187500.00, -187500.02, -153696.89, -187500.02, -187500.02, -187500.02, 0.000, 0.000, 0.000, 18:11:57.924
69, 25575.49, 52765.45, 187500.00, -187500.02, -153612.30, -187500.02, -187500.02, -187500.02, 0.000, 0.000, 0.000, 18:11:57.924
70, 24986.75, 52238.80, 187500.00, -187500.02, -153363.88, -187500.02, -187500.02, -187500.02, 0.000, 0.000, 0.000, 18:11:57.924
71, 25471.13, 52917.93, 187500.00, -187500.02, -153452.03, -187500.02, -187500.02, -187500.02, 0.000, 0.000, 0.000, 18:11:57.924
72, 26206.71, 53631.76, 187500.00, -187500.02, -153689.41, -187500.02, -187500.02, -187500.02, 0.000, 0.000, 0.000, 18:11:57.924
73, 26106.97, 53347.67, 187500.00, -187500.02, -153799.05, -187500.02, -187500.02, -187500.02, 0.000, 0.000, 0.000, 18:11:57.924
74, 25576.05, 52756.95, 187500.00, -187500.02, -153636.92, -187500.02, -187500.02, -187500.02, 0.000, 0.000, 0.000, 18:11:57.925
75, 24978.14, 52226.59, 187500.00, -187500.02, -153340.38, -187500.02, -187500.02, -187500.02, 0.000, 0.000, 0.000, 18:11:57.925
76, 25452.22, 52901.50, 187500.00, -187500.02, -153412.09, -187500.02, -187500.02, -187500.02, 0.008, -0.010, 1.016, 18:11:57.925
77, 26188.87, 53622.70, 187500.00, -187500.02, -153664.30, -187500.02, -187500.02, -187500.02, 0.000, 0.000, 0.000, 18:11:57.925
78, 26093.16, 53344.52, 187500.00, -187500.02, -153771.45, -187500.02, -187500.02, -187500.02, 0.000, 0.000, 0.000, 18:11:57.925
79, 25569.37, 52758.79, 187500.00, -187500.02, -153615.64, -187500.02, -187500.02, -187500.02, 0.000, 0.000, 0.000, 18:11:57.925
80, 24980.49, 52234.01, 187500.00, -187500.02, -153343.67, -187500.02, -187500.02, -187500.02, 0.000, 0.000, 0.000, 18:11:57.925
81, 25451.73, 52906.46, 187500.00, -187500.02, -153432.19, -187500.02, -187500.02, -187500.02, 0.000, 0.000, 0.000, 18:11:57.925
82, 26192.55, 53631.87, 187500.00, -187500.02, -153682.83, -187500.02, -187500.02, -187500.02, 0.000, 0.000, 0.000, 18:11:57.926
83, 26097.36, 53352.14, 187500.00, -187500.02, -153796.52, -187500.02, -187500.02, -187500.02, 0.000, 0.000, 0.000, 18:11:57.926
84, 25576.05, 52772.71, 187500.00, -187500.02, -153691.17, -187500.02, -187500.02, -187500.02, 0.000, 0.000, 0.000, 18:11:57.926
85, 24985.32, 52232.20, 187500.00, -187500.02, -153443.31, -187500.02, -187500.02, -187500.02, 0.000, 0.000, 0.000, 18:11:57.926
86, 25444.38, 52889.77, 187500.00, -187500.02, -153522.75, -187500.02, -187500.02, -187500.02, 0.008, -0.006, 1.022, 18:11:57.926
87, 26178.83, 53616.76, 187500.00, -187500.02, -153749.91, -187500.02, -187500.02, -187500.02, 0.000, 0.000, 0.000, 18:11:57.926
88, 26091.77, 53346.44, 187500.00, -187500.02, -153859.64, -187500.02, -187500.02, -187500.02, 0.000, 0.000, 0.000, 18:11:57.926
89, 25575.96, 52766.45, 187500.00, -187500.02, -153765.17, -187500.02, -187500.02, -187500.02, 0.000, 0.000, 0.000, 18:11:57.926
90, 24974.36, 52221.47, 187500.00, -187500.02, -153490.30, -187500.02, -187500.02, -187500.02, 0.000, 0.000, 0.000, 18:11:57.926
91, 25422.61, 52871.80, 187500.00, -187500.02, -153524.72, -187500.02, -187500.02, -187500.02, 0.000, 0.000, 0.000, 18:11:57.927
92, 26155.21, 53597.31, 187500.00, -187500.02, -153700.33, -187500.02, -187500.02, -187500.02, 0.000, 0.000, 0.000, 18:11:57.927
93, 26066.98, 53327.82, 187500.00, -187500.02, -153772.38, -187500.02, -187500.02, -187500.02, 0.000, 0.000, 0.000, 18:11:57.927
94, 25548.51, 52745.11, 187500.00, -187500.02, -153651.63, -187500.02, -187500.02, -187500.02, 0.000, 0.000, 0.000, 18:11:57.927
95, 24949.24, 52198.70, 187500.00, -187500.02, -153380.77, -187500.02, -187500.02, -187500.02, 0.000, 0.000, 0.000, 18:11:57.927
96, 25396.99, 52847.90, 187500.00, -187500.02, -153425.47, -187500.02, -187500.02, -187500.02, 0.010, -0.010, 1.018, 18:11:57.927
97, 26147.94, 53588.62, 187500.00, -187500.02, -153639.09, -187500.02, -187500.02, -187500.02, 0.000, 0.000, 0.000, 18:11:57.928
98, 26089.04, 53343.31, 187500.00, -187500.02, -153780.91, -187500.02, -187500.02, -187500.02, 0.000, 0.000, 0.000, 18:11:57.928
99, 25580.97, 52772.76, 187500.00, -187500.02, -153744.66, -187500.02, -187500.02, -187500.02, 0.000, 0.000, 0.000, 18:11:57.928
100, 24960.33, 52212.09, 187500.00, -187500.02, -153480.19, -187500.02, -187500.02, -187500.02, 0.000, 0.000, 0.000, 18:11:57.928
101, 25394.78, 52845.63, 187500.00, -187500.02, -153515.48, -187500.02, -187500.02, -187500.02, 0.000, 0.000, 0.000, 18:11:57.928
102, 26143.20, 53586.56, 187500.00, -187500.02, -153744.38, -187500.02, -187500.02, -187500.02, 0.000, 0.000, 0.000, 18:11:57.928
103, 26077.18, 53334.66, 187500.00, -187500.02, -153866.25, -187500.02, -187500.02, -187500.02, 0.000, 0.000, 0.000, 18:11:57.929
104, 25566.28, 52758.88, 187500.00, -187500.02, -153785.05, -187500.02, -187500.02, -187500.02, 0.000, 0.000, 0.000, 18:11:57.930
105, 24946.67, 52199.79, 187500.00, -187500.02, -153503.33, -187500.02, -187500.02, -187500.02, 0.000, 0.000, 0.000, 18:11:57.930
106, 25368.54, 52831.01, 187500.00, -187500.02, -153539.58, -187500.02, -187500.02, -187500.02, 0.014, -0.010, 1.022, 18:11:57.931
107, 26125.57, 53574.80, 187500.00, -187500.02, -153753.08, -187500.02, -187500.02, -187500.02, 0.000, 0.000, 0.000, 18:11:57.931
108, 26064.39, 53325.05, 187500.00, -187500.02, -153888.67, -187500.02, -187500.02, -187500.02, 0.000, 0.000, 0.000, 18:11:57.931
109, 25550.86, 52741.44, 187500.00, -187500.02, -153764.63, -187500.02, -187500.02, -187500.02, 0.000, 0.000, 0.000, 18:11:57.931
110, 24941.57, 52185.31, 187500.00, -187500.02, -153469.78, -187500.02, -187500.02, -187500.02, 0.000, 0.000, 0.000, 18:11:57.931
111, 25361.85, 52809.08, 187500.00, -187500.02, -153484.64, -187500.02, -187500.02, -187500.02, 0.000, 0.000, 0.000, 18:11:57.931
112, 26118.21, 53562.78, 187500.00, -187500.02, -153712.83, -187500.02, -187500.02, -187500.02, 0.000, 0.000, 0.000, 18:11:57.932
113, 26070.65, 53331.46, 187500.00, -187500.02, -153827.66, -187500.02, -187500.02, -187500.02, 0.000, 0.000, 0.000, 18:11:57.932
114, 25569.28, 52768.89, 187500.00, -187500.02, -153779.48, -187500.02, -187500.02, -187500.02, 0.000, 0.000, 0.000, 18:11:57.932
115, 24949.60, 52203.91, 187500.00, -187500.02, -153528.61, -187500.02, -187500.02, -187500.02, 0.000, 0.000, 0.000, 18:11:57.932
116, 25369.07, 52823.12, 187500.00, -187500.02, -153592.67, -187500.02, -187500.02, -187500.02, 0.014, -0.010, 1.024, 18:11:57.932
117, 26135.74, 53576.88, 187500.00, -187500.02, -153836.39, -187500.02, -187500.02, -187500.02, 0.000, 0.000, 0.000, 18:11:57.932
118, 26070.29, 53326.41, 187500.00, -187500.02, -153914.86, -187500.02, -187500.02, -187500.02, 0.000, 0.000, 0.000, 18:11:57.932
119, 25560.67, 52756.55, 187500.00, -187500.02, -153807.94, -187500.02, -187500.02, -187500.02, 0.000, 0.000, 0.000, 18:11:57.933
120, 24936.70, 52187.61, 187500.00, -187500.02, -153526.28, -187500.02, -187500.02, -187500.02, 0.000, 0.000, 0.000, 18:11:57.933
121, 25356.11, 52802.22, 187500.00, -187500.02, -153552.88, -187500.02, -187500.02, -187500.02, 0.000, 0.000, 0.000, 18:11:58.373
122, 26131.22, 53569.66, 187500.00, -187500.02, -153787.73, -187500.02, -187500.02, -187500.02, 0.000, 0.000, 0.000, 18:11:58.373
123, 26060.05, 53321.98, 187500.00, -187500.02, -153900.30, -187500.02, -187500.02, -187500.02, 0.000, 0.000, 0.000, 18:11:58.373
124, 25553.32, 52752.60, 187500.00, -187500.02, -153779.34, -187500.02, -187500.02, -187500.02, 0.000, 0.000, 0.000, 18:11:58.373
125, 24944.17, 52189.80, 187500.00, -187500.02, -153479.56, -187500.02, -187500.02, -187500.02, 0.000, 0.000, 0.000, 18:11:58.373
126, 25336.71, 52793.52, 187500.00, -187500.02, -153524.89, -187500.02, -187500.02, -187500.02, 0.014, -0.008, 1.022, 18:11:58.373
127, 26109.05, 53573.64, 187500.00, -187500.02, -153772.08, -187500.02, -187500.02, -187500.02, 0.000, 0.000, 0.000, 18:11:58.373
128, 26071.21, 53353.90, 187500.00, -187500.02, -153934.53, -187500.02, -187500.02, -187500.02, 0.000, 0.000, 0.000, 18:11:58.373
129, 25564.56, 52772.67, 187500.00, -187500.02, -153826.38, -187500.02, -187500.02, -187500.02, 0.000, 0.000, 0.000, 18:11:58.374
130, 24946.07, 52197.45, 187500.00, -187500.02, -153537.75, -187500.02, -187500.02, -187500.02, 0.000, 0.000, 0.000, 18:11:58.374
131, 25335.66, 52788.31, 187500.00, -187500.02, -153576.13, -187500.02, -187500.02, -187500.02, 0.000, 0.000, 0.000, 18:11:58.374
132, 26117.21, 53561.28, 187500.00, -187500.02, -153788.98, -187500.02, -187500.02, -187500.02, 0.000, 0.000, 0.000, 18:11:58.374
133, 26079.48, 53337.88, 187500.00, -187500.02, -153909.77, -187500.02, -187500.02, -187500.02, 0.000, 0.000, 0.000, 18:11:58.374
134, 25576.72, 52768.06, 187500.00, -187500.02, -153835.19, -187500.02, -187500.02, -187500.02, 0.000, 0.000, 0.000, 18:11:58.374
135, 24950.00, 52197.82, 187500.00, -187500.02, -153546.73, -187500.02, -187500.02, -187500.02, 0.000, 0.000, 0.000, 18:11:58.374
136, 25343.90, 52794.66, 187500.00, -187500.02, -153565.80, -187500.02, -187500.02, -187500.02, 0.010, -0.012, 1.018, 18:11:58.374
137, 26113.10, 53558.71, 187500.00, -187500.02, -153769.84, -187500.02, -187500.02, -187500.02, 0.000, 0.000, 0.000, 18:11:58.375
138, 26070.07, 53330.99, 187500.00, -187500.02, -153880.02, -187500.02, -187500.02, -187500.02, 0.000, 0.000, 0.000, 18:11:58.375
139, 25569.32, 52759.01, 187500.00, -187500.02, -153781.72, -187500.02, -187500.02, -187500.02, 0.000, 0.000, 0.000, 18:11:58.375
140, 24949.80, 52184.04, 187500.00, -187500.02, -153496.11, -187500.02, -187500.02, -187500.02, 0.000, 0.000, 0.000, 18:11:58.375
141, 25332.15, 52769.98, 187500.00, -187500.02, -153541.09, -187500.02, -187500.02, -187500.02, 0.000, 0.000, 0.000, 18:11:58.375
142, 26121.46, 53564.77, 187500.00, -187500.02, -153808.50, -187500.02, -187500.02, -187500.02, 0.000, 0.000, 0.000, 18:11:58.375
143, 26102.46, 53356.29, 187500.00, -187500.02, -153947.23, -187500.02, -187500.02, -187500.02, 0.000, 0.000, 0.000, 18:11:58.376
144, 25604.66, 52790.95, 187500.00, -187500.02, -153877.27, -187500.02, -187500.02, -187500.02, 0.000, 0.000, 0.000, 18:11:58.376
145, 24963.77, 52196.66, 187500.00, -187500.02, -153589.09, -187500.02, -187500.02, -187500.02, 0.012, -0.014, 1.024, 18:11:58.376
146, 25336.84, 52771.10, 187500.00, -187500.02, -153613.03, -187500.02, -187500.02, -187500.02, 0.000, 0.000, 0.000, 18:11:58.376
147, 26127.42, 53565.13, 187500.00, -187500.02, -153851.36, -187500.02, -187500.02, -187500.02, 0.000, 0.000, 0.000, 18:11:58.376
148, 26098.14, 53353.41, 187500.00, -187500.02, -153965.66, -187500.02, -187500.02, -187500.02, 0.000, 0.000, 0.000, 18:11:58.376
149, 25589.42, 52777.52, 187500.00, -187500.02, -153871.11, -187500.02, -187500.02, -187500.02, 0.000, 0.000, 0.000, 18:11:58.377
150, 24951.65, 52182.83, 187500.00, -187500.02, -153564.45, -187500.02, -187500.02, -187500.02, 0.000, 0.000, 0.000, 18:11:58.377
151, 25322.04, 52756.89, 187500.00, -187500.02, -153582.30, -187500.02, -187500.02, -187500.02, 0.000, 0.000, 0.000, 18:11:58.377
152, 26109.41, 53544.54, 187500.00, -187500.02, -153820.31, -187500.02, -187500.02, -187500.02, 0.000, 0.000, 0.000, 18:11:58.377
153, 26094.07, 53338.84, 187500.00, -187500.02, -153940.73, -187500.02, -187500.02, -187500.02, 0.000, 0.000, 0.000, 18:11:58.377
154, 25593.80, 52769.16, 187500.00, -187500.02, -153880.83, -187500.02, -187500.02, -187500.02, 0.000, 0.000, 0.000, 18:11:58.377
155, 24947.99, 52177.04, 187500.00, -187500.02, -153568.75, -187500.02, -187500.02, -187500.02, 0.010, -0.012, 1.024, 18:11:58.378
156, 25298.29, 52733.75, 187500.00, -187500.02, -153556.72, -187500.02, -187500.02, -187500.02, 0.000, 0.000, 0.000, 18:11:58.378
157, 26102.70, 53542.44, 187500.00, -187500.02, -153787.17, -187500.02, -187500.02, -187500.02, 0.000, 0.000, 0.000, 18:11:58.378
158, 26093.16, 53345.59, 187500.00, -187500.02, -153953.94, -187500.02, -187500.02, -187500.02, 0.000, 0.000, 0.000, 18:11:58.378
159, 25593.17, 52765.38, 187500.00, -187500.02, -153892.69, -187500.02, -187500.02, -187500.02, 0.000, 0.000, 0.000, 18:11:58.378
160, 24956.08, 52179.05, 187500.00, -187500.02, -153618.13, -187500.02, -187500.02, -187500.02, 0.000, 0.000, 0.000, 18:11:58.378
161, 25303.94, 52730.85, 187500.00, -187500.02, -153668.30, -187500.02, -187500.02, -187500.02, 0.000, 0.000, 0.000, 18:11:58.379
162, 26081.58, 53512.71, 187500.00, -187500.02, -153878.56, -187500.02, -187500.02, -187500.02, 0.000, 0.000, 0.000, 18:11:58.379
163, 26063.25, 53314.23, 187500.00, -187500.02, -153961.92, -187500.02, -187500.02, -187500.02, 0.000, 0.000, 0.000, 18:11:58.379
164, 25556.96, 52738.40, 187500.00, -187500.02, -153886.59, -187500.02, -187500.02, -187500.02, 0.000, 0.000, 0.000, 18:11:58.379
165, 24919.65, 52142.15, 187500.00, -187500.02, -153592.16, -187500.02, -187500.02, -187500.02, 0.014, -0.012, 1.024, 18:11:58.379
166, 25269.12, 52684.25, 187500.00, -187500.02, -153585.36, -187500.02, -187500.02, -187500.02, 0.000, 0.000, 0.000, 18:11:58.379
167, 26057.01, 53488.80, 187500.00, -187500.02, -153796.17, -187500.02, -187500.02, -187500.02, 0.000, 0.000, 0.000, 18:11:58.380
168, 26040.65, 53286.91, 187500.00, -187500.02, -153905.48, -187500.02, -187500.02, -187500.02, 0.000, 0.000, 0.000, 18:11:58.380
169, 25533.27, 52705.57, 187500.00, -187500.02, -153828.64, -187500.02, -187500.02, -187500.02, 0.000, 0.000, 0.000, 18:11:58.380
170, 24889.14, 52107.73, 187500.00, -187500.02, -153529.13, -187500.02, -187500.02, -187500.02, 0.000, 0.000, 0.000, 18:11:58.380
171, 25234.09, 52659.55, 187500.00, -187500.02, -153562.83, -187500.02, -187500.02, -187500.02, 0.000, 0.000, 0.000, 18:11:58.380
172, 26033.77, 53469.93, 187500.00, -187500.02, -153845.73, -187500.02, -187500.02, -187500.02, 0.000, 0.000, 0.000, 18:11:58.380
173, 26014.86, 53268.77, 187500.00, -187500.02, -153954.14, -187500.02, -187500.02, -187500.02, 0.000, 0.000, 0.000, 18:11:58.381
174, 25524.53, 52700.65, 187500.00, -187500.02, -153887.86, -187500.02, -187500.02, -187500.02, 0.000, 0.000, 0.000, 18:11:58.381
175, 24882.52, 52100.17, 187500.00, -187500.02, -153597.97, -187500.02, -187500.02, -187500.02, 0.014, -0.012, 1.026, 18:11:58.381
176, 25205.57, 52627.92, 187500.00, -187500.02, -153599.34, -187500.02, -187500.02, -187500.02, 0.000, 0.000, 0.000, 18:11:58.381
177, 26006.57, 53440.76, 187500.00, -187500.02, -153822.38, -187500.02, -187500.02, -187500.02, 0.000, 0.000, 0.000, 18:11:58.381
178, 26000.24, 53250.59, 187500.00, -187500.02, -153928.34, -187500.02, -187500.02, -187500.02, 0.000, 0.000, 0.000, 18:11:58.381
179, 25508.01, 52677.20, 187500.00, -187500.02, -153863.61, -187500.02, -187500.02, -187500.02, 0.000, 0.000, 0.000, 18:11:58.382
180, 24861.29, 52077.46, 187500.00, -187500.02, -153574.47, -187500.02, -187500.02, -187500.02, 0.000, 0.000, 0.000, 18:11:58.382
181, 25173.00, 52596.92, 187500.00, -187500.02, -153556.34, -187500.02, -187500.02, -187500.02, 0.000, 0.000, 0.000, 18:11:58.382
182, 25982.45, 53418.68, 187500.00, -187500.02, -153760.30, -187500.02, -187500.02, -187500.02, 0.000, 0.000, 0.000, 18:11:58.382
183, 26001.00, 53253.50, 187500.00, -187500.02, -153896.19, -187500.02, -187500.02, -187500.02, 0.000, 0.000, 0.000, 18:11:58.382
184, 25515.32, 52691.87, 187500.00, -187500.02, -153857.27, -187500.02, -187500.02, -187500.02, 0.000, 0.000, 0.000, 18:11:58.382
185, 24868.73, 52090.83, 187500.00, -187500.02, -153562.31, -187500.02, -187500.02, -187500.02, 0.012, -0.010, 1.020, 18:11:58.382
186, 25183.98, 52612.56, 187500.00, -187500.02, -153556.13, -187500.02, -187500.02, -187500.02, 0.000, 0.000, 0.000, 18:11:58.382
187, 25995.99, 53439.46, 187500.00, -187500.02, -153779.13, -187500.02, -187500.02, -187500.02, 0.000, 0.000, 0.000, 18:11:58.383
188, 26011.35, 53274.29, 187500.00, -187500.02, -153912.19, -187500.02, -187500.02, -187500.02, 0.000, 0.000, 0.000, 18:11:58.383
189, 25520.26, 52705.23, 187500.00, -187500.02, -153860.66, -187500.02, -187500.02, -187500.02, 0.000, 0.000, 0.000, 18:11:58.383
190, 24877.78, 52105.67, 187500.00, -187500.02, -153610.66, -187500.02, -187500.02, -187500.02, 0.000, 0.000, 0.000, 18:11:58.383
191, 25184.67, 52618.08, 187500.00, -187500.02, -153591.84, -187500.02, -187500.02, -187500.02, 0.000, 0.000, 0.000, 18:11:58.383
192, 25998.19, 53447.04, 187500.00, -187500.02, -153811.13, -187500.02, -187500.02, -187500.02, 0.000, 0.000, 0.000, 18:11:58.383
193, 26016.96, 53283.63, 187500.00, -187500.02, -153931.91, -187500.02, -187500.02, -187500.02, 0.000, 0.000, 0.000, 18:11:58.384
194, 25537.34, 52719.00, 187500.00, -187500.02, -153872.78, -187500.02, -187500.02, -187500.02, 0.000, 0.000, 0.000, 18:11:58.384
195, 24893.43, 52106.63, 187500.00, -187500.02, -153582.42, -187500.02, -187500.02, -187500.02, 0.018, -0.010, 1.022, 18:11:58.384
196, 25198.22, 52606.50, 187500.00, -187500.02, -153574.16, -187500.02, -187500.02, -187500.02, 0.000, 0.000, 0.000, 18:11:58.384
197, 26015.44, 53448.34, 187500.00, -187500.02, -153802.38, -187500.02, -187500.02, -187500.02, 0.000, 0.000, 0.000, 18:11:58.384
198, 26023.98, 53285.39, 187500.00, -187500.02, -153913.02, -187500.02, -187500.02, -187500.02, 0.000, 0.000, 0.000, 18:11:58.385
199, 25539.46, 52720.68, 187500.00, -187500.02, -153802.42, -187500.02, -187500.02, -187500.02, 0.000, 0.000, 0.000, 18:11:58.385
200, 24907.91, 52124.29, 187500.00, -187500.02, -153535.80, -187500.02, -187500.02, -187500.02, 0.000, 0.000, 0.000, 18:11:58.385
201, 25205.23, 52623.40, 187500.00, -187500.02, -153561.23, -187500.02, -187500.02, -187500.02, 0.000, 0.000, 0.000, 18:11:58.385
202, 26013.54, 53447.63, 187500.00, -187500.02, -153778.59, -187500.02, -187500.02, -187500.02, 0.000, 0.000, 0.000, 18:11:58.385
203, 26043.87, 53300.82, 187500.00, -187500.02, -153916.30, -187500.02, -187500.02, -187500.02, 0.000, 0.000, 0.000, 18:11:58.385
204, 25572.41, 52755.28, 187500.00, -187500.02, -153896.19, -187500.02, -187500.02, -187500.02, 0.000, 0.000, 0.000, 18:11:58.386
205, 24923.04, 52146.04, 187500.00, -187500.02, -153625.36, -187500.02, -187500.02, -187500.02, 0.018, -0.008, 1.024, 18:11:58.386
206, 25208.72, 52630.85, 187500.00, -187500.02, -153633.56, -187500.02, -187500.02, -187500.02, 0.000, 0.000, 0.000, 18:11:58.386
207, 26022.64, 53465.32, 187500.00, -187500.02, -153876.73, -187500.02, -187500.02, -187500.02, 0.000, 0.000, 0.000, 18:11:58.386
208, 26047.87, 53315.37, 187500.00, -187500.02, -154028.17, -187500.02, -187500.02, -187500.02, 0.000, 0.000, 0.000, 18:11:58.386
209, 25571.85, 52748.04, 187500.00, -187500.02, -153954.31, -187500.02, -187500.02, -187500.02, 0.000, 0.000, 0.000, 18:11:58.387
210, 24914.15, 52131.51, 187500.00, -187500.02, -153652.06, -187500.02, -187500.02, -187500.02, 0.000, 0.000, 0.000, 18:11:58.387
211, 25181.32, 52606.95, 187500.00, -187500.02, -153616.58, -187500.02, -187500.02, -187500.02, 0.000, 0.000, 0.000, 18:11:58.387
212, 26004.15, 53448.18, 187500.00, -187500.02, -153812.27, -187500.02, -187500.02, -187500.02, 0.000, 0.000, 0.000, 18:11:58.387
213, 26043.42, 53312.89, 187500.00, -187500.02, -153945.84, -187500.02, -187500.02, -187500.02, 0.000, 0.000, 0.000, 18:11:58.387
214, 25576.18, 52755.21, 187500.00, -187500.02, -153889.34, -187500.02, -187500.02, -187500.02, 0.000, 0.000, 0.000, 18:11:58.387
215, 24927.54, 52136.14, 187500.00, -187500.02, -153595.58, -187500.02, -187500.02, -187500.02, 0.020, -0.006, 1.022, 18:11:58.387
216, 25200.00, 52617.73, 187500.00, -187500.02, -153603.08, -187500.02, -187500.02, -187500.02, 0.000, 0.000, 0.000, 18:11:58.387
217, 26020.85, 53466.53, 187500.00, -187500.02, -153818.80, -187500.02, -187500.02, -187500.02, 0.000, 0.000, 0.000, 18:11:58.388
218, 26053.62, 53327.39, 187500.00, -187500.02, -153957.69, -187500.02, -187500.02, -187500.02, 0.000, 0.000, 0.000, 18:11:58.388
219, 25584.72, 52769.54, 187500.00, -187500.02, -153930.22, -187500.02, -187500.02, -187500.02, 0.000, 0.000, 0.000, 18:11:58.388
220, 24935.02, 52153.61, 187500.00, -187500.02, -153639.31, -187500.02, -187500.02, -187500.02, 0.000, 0.000, 0.000, 18:11:58.388
221, 25198.06, 52623.78, 187500.00, -187500.02, -153626.31, -187500.02, -187500.02, -187500.02, 0.000, 0.000, 0.000, 18:11:58.388
222, 26028.25, 53480.55, 187500.00, -187500.02, -153884.20, -187500.02, -187500.02, -187500.02, 0.000, 0.000, 0.000, 18:11:58.388
223, 26064.68, 53335.66, 187500.00, -187500.02, -154020.34, -187500.02, -187500.02, -187500.02, 0.000, 0.000, 0.000, 18:11:58.389
224, 25578.58, 52758.83, 187500.00, -187500.02, -153957.47, -187500.02, -187500.02, -187500.02, 0.000, 0.000, 0.000, 18:11:58.389
225, 24922.44, 52144.20, 187500.00, -187500.02, -153657.94, -187500.02, -187500.02, -187500.02, 0.014, -0.008, 1.020, 18:11:58.389
226, 25181.09, 52611.45, 187500.00, -187500.02, -153650.25, -187500.02, -187500.02, -187500.02, 0.000, 0.000, 0.000, 18:11:58.389
227, 26007.21, 53461.97, 187500.00, -187500.02, -153874.19, -187500.02, -187500.02, -187500.02, 0.000, 0.000, 0.000, 18:11:58.389
228, 26043.27, 53319.73, 187500.00, -187500.02, -153985.98, -187500.02, -187500.02, -187500.02, 0.000, 0.000, 0.000, 18:11:58.389
229, 25577.30, 52763.10, 187500.00, -187500.02, -153952.69, -187500.02, -187500.02, -187500.02, 0.000, 0.000, 0.000, 18:11:58.390
230, 24926.26, 52141.21, 187500.00, -187500.02, -153628.72, -187500.02, -187500.02, -187500.02, 0.000, 0.000, 0.000, 18:11:58.390
231, 25178.99, 52596.76, 187500.00, -187500.02, -153608.98, -187500.02, -187500.02, -187500.02, 0.000, 0.000, 0.000, 18:11:58.390
232, 26019.60, 53457.88, 187500.00, -187500.02, -153835.58, -187500.02, -187500.02, -187500.02, 0.000, 0.000, 0.000, 18:11:58.390
233, 26071.37, 53335.98, 187500.00, -187500.02, -153953.63, -187500.02, -187500.02, -187500.02, 0.000, 0.000, 0.000, 18:11:58.390
234, 25600.64, 52777.00, 187500.00, -187500.02, -153908.03, -187500.02, -187500.02, -187500.02, 0.000, 0.000, 0.000, 18:11:58.390
235, 24950.36, 52153.28, 187500.00, -187500.02, -153655.11, -187500.02, -187500.02, -187500.02, 0.018, -0.006, 1.020, 18:11:58.391
236, 25195.02, 52601.50, 187500.00, -187500.02, -153672.03, -187500.02, -187500.02, -187500.02, 0.000, 0.000, 0.000, 18:11:58.391
237, 26022.21, 53465.21, 187500.00, -187500.02, -153908.94, -187500.02, -187500.02, -187500.02, 0.000, 0.000, 0.000, 18:11:58.391
238, 26071.16, 53342.59, 187500.00, -187500.02, -154038.83, -187500.02, -187500.02, -187500.02, 0.000, 0.000, 0.000, 18:11:58.391
239, 25601.20, 52776.89, 187500.00, -187500.02, -153995.06, -187500.02, -187500.02, -187500.02, 0.000, 0.000, 0.000, 18:11:58.391
240, 24949.64, 52154.44, 187500.00, -187500.02, -153704.36, -187500.02, -187500.02, -187500.02, 0.000, 0.000, 0.000, 18:11:58.391
241, 25182.79, 52594.10, 187500.00, -187500.02, -153668.14, -187500.02, -187500.02, -187500.02, 0.000, 0.000, 0.000, 18:11:58.853
242, 26021.59, 53457.46, 187500.00, -187500.02, -153890.95, -187500.02, -187500.02, -187500.02, 0.000, 0.000, 0.000, 18:11:58.853
243, 26074.40, 53338.08, 187500.00, -187500.02, -154015.98, -187500.02, -187500.02, -187500.02, 0.000, 0.000, 0.000, 18:11:58.853
244, 25600.30, 52773.99, 187500.00, -187500.02, -153927.45, -187500.02, -187500.02, -187500.02, 0.000, 0.000, 0.000, 18:11:58.853
245, 24941.33, 52142.48, 187500.00, -187500.02, -153607.94, -187500.02, -187500.02, -187500.02, 0.016, -0.010, 1.016, 18:11:58.853
246, 25173.94, 52574.88, 187500.00, -187500.02, -153584.91, -187500.02, -187500.02, -187500.02, 0.000, 0.000, 0.000, 18:11:58.854
247, 26021.90, 53458.24, 187500.00, -187500.02, -153854.50, -187500.02, -187500.02, -187500.02, 0.000, 0.000, 0.000, 18:11:58.854
248, 26089.54, 53348.65, 187500.00, -187500.02, -153991.59, -187500.02, -187500.02, -187500.02, 0.000, 0.000, 0.000, 18:11:58.854
249, 25632.78, 52800.72, 187500.00, -187500.02, -153983.42, -187500.02, -187500.02, -187500.02, 0.000, 0.000, 0.000, 18:11:58.854
250, 24970.68, 52164.68, 187500.00, -187500.02, -153715.09, -187500.02, -187500.02, -187500.02, 0.000, 0.000, 0.000, 18:11:58.854
251, 25182.41, 52585.25, 187500.00, -187500.02, -153686.77, -187500.02, -187500.02, -187500.02, 0.000, 0.000, 0.000, 18:11:58.855
252, 26024.72, 53463.80, 187500.00, -187500.02, -153932.03, -187500.02, -187500.02, -187500.02, 0.000, 0.000, 0.000, 18:11:58.855
253, 26085.89, 53349.99, 187500.00, -187500.02, -154059.48, -187500.02, -187500.02, -187500.02, 0.000, 0.000, 0.000, 18:11:58.855
254, 25621.40, 52793.16, 187500.00, -187500.02, -154029.38, -187500.02, -187500.02, -187500.02, 0.000, 0.000, 0.000, 18:11:58.855
255, 24962.16, 52161.35, 187500.00, -187500.02, -153741.97, -187500.02, -187500.02, -187500.02, 0.020, -0.010, 1.026, 18:11:58.855
0, 25172.04, 52576.57, 187500.00, -187500.02, -153694.52, -187500.02, -187500.02, -187500.02, 0.000, 0.000, 0.000, 18:11:58.855
1, 26006.28, 53446.21, 187500.00, -187500.02, -153894.13, -187500.02, -187500.02, -187500.02, 0.000, 0.000, 0.000, 18:11:58.855
2, 26072.48, 53341.72, 187500.00, -187500.02, -154006.95, -187500.02, -187500.02, -187500.02, 0.000, 0.000, 0.000, 18:11:58.856
3, 25605.69, 52777.94, 187500.00, -187500.02, -153972.53, -187500.02, -187500.02, -187500.02, 0.000, 0.000, 0.000, 18:11:58.856
4, 24943.94, 52140.79, 187500.00, -187500.02, -153658.53, -187500.02, -187500.02, -187500.02, 0.000, 0.000, 0.000, 18:11:58.856
5, 25157.49, 52556.01, 187500.00, -187500.02, -153605.30, -187500.02, -187500.02, -187500.02, 0.000, 0.000, 0.000, 18:11:58.856
6, 26007.91, 53443.69, 187500.00, -187500.02, -153842.63, -187500.02, -187500.02, -187500.02, 0.000, 0.000, 0.000, 18:11:58.856
7, 26091.91, 53362.44, 187500.00, -187500.02, -154026.20, -187500.02, -187500.02, -187500.02, 0.000, 0.000, 0.000, 18:11:58.856
8, 25623.10, 52797.52, 187500.00, -187500.02, -154016.19, -187500.02, -187500.02, -187500.02, 0.024, -0.008, 1.028, 18:11:58.856
9, 24954.74, 52156.77, 187500.00, -187500.02, -153748.59, -187500.02, -187500.02, -187500.02, 0.000, 0.000, 0.000, 18:11:58.856
10, 25156.40, 52558.43, 187500.00, -187500.02, -153731.45, -187500.02, -187500.02, -187500.02, 0.000, 0.000, 0.000, 18:11:58.857
11, 26006.95, 53445.32, 187500.00, -187500.02, -153984.09, -187500.02, -187500.02, -187500.02, 0.000, 0.000, 0.000, 18:11:58.857
12, 26083.39, 53351.09, 187500.00, -187500.02, -154114.13, -187500.02, -187500.02, -187500.02, 0.000, 0.000, 0.000, 18:11:58.857
13, 25616.19, 52790.32, 187500.00, -187500.02, -154099.47, -187500.02, -187500.02, -187500.02, 0.000, 0.000, 0.000, 18:11:58.857
14, 24957.82, 52154.13, 187500.00, -187500.02, -153825.61, -187500.02, -187500.02, -187500.02, 0.000, 0.000, 0.000, 18:11:58.857
15, 25145.06, 52541.17, 187500.00, -187500.02, -153767.66, -187500.02, -187500.02, -187500.02, 0.000, 0.000, 0.000, 18:11:58.857
16, 25986.38, 53422.93, 187500.00, -187500.02, -153945.42, -187500.02, -187500.02, -187500.02, 0.000, 0.000, 0.000, 18:11:58.857
17, 26078.47, 53342.37, 187500.00, -187500.02, -154068.25, -187500.02, -187500.02, -187500.02, 0.000, 0.000, 0.000, 18:11:58.857
18, 25623.61, 52796.67, 187500.00, -187500.02, -154038.98, -187500.02, -187500.02, -187500.02, 0.022, -0.008, 1.028, 18:11:58.857
19, 24964.93, 52164.01, 187500.00, -187500.02, -153727.78, -187500.02, -187500.02, -187500.02, 0.000, 0.000, 0.000, 18:11:58.858
20, 25153.89, 52554.85, 187500.00, -187500.02, -153696.42, -187500.02, -187500.02, -187500.02, 0.000, 0.000, 0.000, 18:11:58.858
21, 26006.01, 53460.52, 187500.00, -187500.02, -153962.20, -187500.02, -187500.02, -187500.02, 0.000, 0.000, 0.000, 18:11:58.858
22, 26107.87, 53385.64, 187500.00, -187500.02, -154122.56, -187500.02, -187500.02, -187500.02, 0.000, 0.000, 0.000, 18:11:58.858
23, 25652.00, 52831.32, 187500.00, -187500.02, -154090.22, -187500.02, -187500.02, -187500.02, 0.000, 0.000, 0.000, 18:11:58.858
24, 24994.03, 52199.26, 187500.00, -187500.02, -153830.64, -187500.02, -187500.02, -187500.02, 0.000, 0.000, 0.000, 18:11:58.858
25, 25163.88, 52570.74, 187500.00, -187500.02, -153787.94, -187500.02, -187500.02, -187500.02, 0.000, 0.000, 0.000, 18:11:58.858
26, 26014.59, 53474.51, 187500.00, -187500.02, -154043.14, -187500.02, -187500.02, -187500.02, 0.000, 0.000, 0.000, 18:11:58.858
27, 26102.54, 53392.66, 187500.00, -187500.02, -154194.86, -187500.02, -187500.02, -187500.02, 0.000, 0.000, 0.000, 18:11:58.859
28, 25654.35, 52839.50, 187500.00, -187500.02, -154155.11, -187500.02, -187500.02, -187500.02, 0.014, -0.004, 1.024, 18:11:58.859
29, 24991.66, 52197.98, 187500.00, -187500.02, -153854.67, -187500.02, -187500.02, -187500.02, 0.000, 0.000, 0.000, 18:11:58.859
30, 25149.04, 52559.95, 187500.00, -187500.02, -153789.25, -187500.02, -187500.02, -187500.02, 0.000, 0.000, 0.000, 18:11:58.859
31, 26000.40, 53452.05, 187500.00, -187500.02, -154028.17, -187500.02, -187500.02, -187500.02, 0.000, 0.000, 0.000, 18:11:58.859
32, 26111.89, 53392.41, 187500.00, -187500.02, -154166.88, -187500.02, -187500.02, -187500.02, 0.000, 0.000, 0.000, 18:11:58.859
33, 25657.39, 52841.82, 187500.00, -187500.02, -154133.64, -187500.02, -187500.02, -187500.02, 0.000, 0.000, 0.000, 18:11:58.859
34, 24990.90, 52198.00, 187500.00, -187500.02, -153834.52, -187500.02, -187500.02, -187500.02, 0.000, 0.000, 0.000, 18:11:58.859
35, 25150.70, 52559.66, 187500.00, -187500.02, -153795.08, -187500.02, -187500.02, -187500.02, 0.000, 0.000, 0.000, 18:11:58.859
36, 26004.64, 53455.45, 187500.00, -187500.02, -154013.61, -187500.02, -187500.02, -187500.02, 0.000, 0.000, 0.000, 18:11:58.860
37, 26128.81, 53412.35, 187500.00, -187500.02, -154177.55, -187500.02, -187500.02, -187500.02, 0.000, 0.000, 0.000, 18:11:58.860
38, 25686.13, 52867.21, 187500.00, -187500.02, -154213.31, -187500.02, -187500.02, -187500.02, 0.018, -0.004, 1.020, 18:11:58.860
39, 25021.57, 52221.05, 187500.00, -187500.02, -153937.39, -187500.02, -187500.02, -187500.02, 0.000, 0.000, 0.000, 18:11:58.860
40, 25162.95, 52567.37, 187500.00, -187500.02, -153892.16, -187500.02, -187500.02, -187500.02, 0.000, 0.000, 0.000, 18:11:58.860
41, 26005.11, 53463.94, 187500.00, -187500.02, -154121.42, -187500.02, -187500.02, -187500.02, 0.000, 0.000, 0.000, 18:11:58.860
42, 26116.87, 53400.42, 187500.00, -187500.02, -154273.33, -187500.02, -187500.02, -187500.02, 0.000, 0.000, 0.000, 18:11:58.860
43, 25672.79, 52855.05, 187500.00, -187500.02, -154266.81, -187500.02, -187500.02, -187500.02, 0.000, 0.000, 0.000, 18:11:58.860
44, 25005.54, 52213.54, 187500.00, -187500.02, -153985.83, -187500.02, -187500.02, -187500.02, 0.000, 0.000, 0.000, 18:11:58.861
45, 25136.10, 52544.46, 187500.00, -187500.02, -153902.66, -187500.02, -187500.02, -187500.02, 0.000, 0.000, 0.000, 18:11:58.861
46, 25995.93, 53441.81, 187500.00, -187500.02, -154110.22, -187500.02, -187500.02, -187500.02, 0.000, 0.000, 0.000, 18:11:58.861
47, 26107.19, 53396.30, 187500.00, -187500.02, -154255.23, -187500.02, -187500.02, -187500.02, 0.000, 0.000, 0.000, 18:11:58.861
48, 25650.93, 52848.86, 187500.00, -187500.02, -154235.56, -187500.02, -187500.02, -187500.02, 0.016, -0.012, 1.022, 18:11:58.861
49, 24995.11, 52211.95, 187500.00, -187500.02, -153955.50, -187500.02, -187500.02, -187500.02, 0.000, 0.000, 0.000, 18:11:58.861
50, 25133.20, 52546.65, 187500.00, -187500.02, -153908.88, -187500.02, -187500.02, -187500.02, 0.000, 0.000, 0.000, 18:11:58.861
51, 25986.54, 53452.92, 187500.00, -187500.02, -154130.73, -187500.02, -187500.02, -187500.02, 0.000, 0.000, 0.000, 18:11:58.861
52, 26114.53, 53413.14, 187500.00, -187500.02, -154251.78, -187500.02, -187500.02, -187500.02, 0.000, 0.000, 0.000, 18:11:58.861
53, 25662.64, 52852.29, 187500.00, -187500.02, -154223.34, -187500.02, -187500.02, -187500.02, 0.000, 0.000, 0.000, 18:11:58.862
54, 25003.73, 52210.79, 187500.00, -187500.02, -153974.05, -187500.02, -187500.02, -187500.02, 0.000, 0.000, 0.000, 18:11:58.862
55, 25130.42, 52533.26, 187500.00, -187500.02, -153969.19, -187500.02, -187500.02, -187500.02, 0.000, 0.000, 0.000, 18:11:58.862
56, 25967.65, 53426.16, 187500.00, -187500.02, -154214.56, -187500.02, -187500.02, -187500.02, 0.000, 0.000, 0.000, 18:11:58.862
57, 26077.87, 53374.04, 187500.00, -187500.02, -154297.13, -187500.02, -187500.02, -187500.02, 0.000, 0.000, 0.000, 18:11:58.862
58, 25636.71, 52825.13, 187500.00, -187500.02, -154266.42, -187500.02, -187500.02, -187500.02, 0.018, -0.016, 1.026, 18:11:58.862
59, 24968.78, 52176.37, 187500.00, -187500.02, -153996.27, -187500.02, -187500.02, -187500.02, 0.000, 0.000, 0.000, 18:11:58.863
60, 25076.78, 52477.78, 187500.00, -187500.02, -153918.59, -187500.02, -187500.02, -187500.02, 0.000, 0.000, 0.000, 18:11:58.863
61, 25931.13, 53377.57, 187500.00, -187500.02, -154145.27, -187500.02, -187500.02, -187500.02, 0.000, 0.000, 0.000, 18:11:58.863
62, 26054.94, 53347.33, 187500.00, -187500.02, -154270.81, -187500.02, -187500.02, -187500.02, 0.000, 0.000, 0.000, 18:11:58.863
63, 25609.40, 52793.50, 187500.00, -187500.02, -154213.59, -187500.02, -187500.02, -187500.02, 0.000, 0.000, 0.000, 18:11:58.863
64, 24946.38, 52145.48, 187500.00, -187500.02, -153920.09, -187500.02, -187500.02, -187500.02, 0.000, 0.000, 0.000, 18:11:58.863
65, 25060.48, 52460.84, 187500.00, -187500.02, -153874.70, -187500.02, -187500.02, -187500.02, 0.000, 0.000, 0.000, 18:11:58.863
66, 25913.36, 53372.79, 187500.00, -187500.02, -154109.95, -187500.02, -187500.02, -187500.02, 0.000, 0.000, 0.000, 18:11:58.864
67, 26047.56, 53340.38, 187500.00, -187500.02, -154265.92, -187500.02, -187500.02, -187500.02, 0.000, 0.000, 0.000, 18:11:58.864
68, 25614.61, 52794.21, 187500.00, -187500.02, -154272.77, -187500.02, -187500.02, -187500.02, 0.016, -0.012, 1.024, 18:11:58.864
69, 24948.41, 52145.12, 187500.00, -187500.02, -154006.86, -187500.02, -187500.02, -187500.02, 0.000, 0.000, 0.000, 18:11:58.864
70, 25044.23, 52439.18, 187500.00, -187500.02, -153950.20, -187500.02, -187500.02, -187500.02, 0.000, 0.000, 0.000, 18:11:58.864
71, 25895.50, 53349.54, 187500.00, -187500.02, -154165.77, -187500.02, -187500.02, -187500.02, 0.000, 0.000, 0.000, 18:11:58.864
72, 26040.92, 53331.95, 187500.00, -187500.02, -154345.50, -187500.02, -187500.02, -187500.02, 0.000, 0.000, 0.000, 18:11:58.865
73, 25597.51, 52778.41, 187500.00, -187500.02, -154352.64, -187500.02, -187500.02, -187500.02, 0.000, 0.000, 0.000, 18:11:58.865
74, 24924.85, 52115.39, 187500.00, -187500.02, -154057.73, -187500.02, -187500.02, -187500.02, 0.000, 0.000, 0.000, 18:11:58.865
75, 25016.41, 52404.94, 187500.00, -187500.02, -153991.69, -187500.02, -187500.02, -187500.02, 0.000, 0.000, 0.000, 18:11:58.865
76, 25861.17, 53315.97, 187500.00, -187500.02, -154160.95, -187500.02, -187500.02, -187500.02, 0.000, 0.000, 0.000, 18:11:58.865
77, 26015.28, 53306.67, 187500.00, -187500.02, -154290.91, -187500.02, -187500.02, -187500.02, 0.000, 0.000, 0.000, 18:11:58.865
78, 25585.21, 52755.57, 187500.00, -187500.02, -154271.63, -187500.02, -187500.02, -187500.02, 0.016, -0.012, 1.028, 18:11:58.866
79, 24915.56, 52103.32, 187500.00, -187500.02, -153956.73, -187500.02, -187500.02, -187500.02, 0.000, 0.000, 0.000, 18:11:58.866
80, 24999.02, 52382.96, 187500.00, -187500.02, -153889.66, -187500.02, -187500.02, -187500.02, 0.000, 0.000, 0.000, 18:11:58.866
81, 25854.53, 53300.59, 187500.00, -187500.02, -154114.92, -187500.02, -187500.02, -187500.02, 0.000, 0.000, 0.000, 18:11:58.866
82, 26009.43, 53296.41, 187500.00, -187500.02, -154284.00, -187500.02, -187500.02, -187500.02, 0.000, 0.000, 0.000, 18:11:58.866
83, 25576.21, 52750.74, 187500.00, -187500.02, -154274.13, -187500.02, -187500.02, -187500.02, 0.000, 0.000, 0.000, 18:11:58.866
84, 24913.57, 52101.60, 187500.00, -187500.02, -153998.53, -187500.02, -187500.02, -187500.02, 0.000, 0.000, 0.000, 18:11:58.866
85, 25000.29, 52382.41, 187500.00, -187500.02, -153948.39, -187500.02, -187500.02, -187500.02, 0.000, 0.000, 0.000, 18:11:58.867
86, 25850.89, 53294.38, 187500.00, -187500.02, -154172.98, -187500.02, -187500.02, -187500.02, 0.000, 0.000, 0.000, 18:11:58.867
87, 25991.93, 53277.84, 187500.00, -187500.02, -154315.67, -187500.02, -187500.02, -187500.02, 0.000, 0.000, 0.000, 18:11:58.867
88, 25566.55, 52741.24, 187500.00, -187500.02, -154308.28, -187500.02, -187500.02, -187500.02, 0.014, -0.016, 1.012, 18:11:58.867
89, 24902.21, 52094.52, 187500.00, -187500.02, -154030.05, -187500.02, -187500.02, -187500.02, 0.000, 0.000, 0.000, 18:11:58.867
90, 24969.92, 52355.50, 187500.00, -187500.02, -153964.11, -187500.02, -187500.02, -187500.02, 0.000, 0.000, 0.000, 18:11:58.867
91, 25820.64, 53269.01, 187500.00, -187500.02, -154181.41, -187500.02, -187500.02, -187500.02, 0.000, 0.000, 0.000, 18:11:58.867
92, 25981.13, 53266.98, 187500.00, -187500.02, -154294.53, -187500.02, -187500.02, -187500.02, 0.000, 0.000, 0.000, 18:11:58.867
93, 25557.39, 52724.28, 187500.00, -187500.02, -154274.11, -187500.02, -187500.02, -187500.02, 0.000, 0.000, 0.000, 18:11:58.867
94, 24890.16, 52070.98, 187500.00, -187500.02, -153974.39, -187500.02, -187500.02, -187500.02, 0.000, 0.000, 0.000, 18:11:58.868
95, 24958.27, 52332.56, 187500.00, -187500.02, -153901.59, -187500.02, -187500.02, -187500.02, 0.000, 0.000, 0.000, 18:11:58.868
96, 25823.75, 53262.11, 187500.00, -187500.02, -154113.78, -187500.02, -187500.02, -187500.02, 0.000, 0.000, 0.000, 18:11:58.868
97, 25998.23, 53282.49, 187500.00, -187500.02, -154284.05, -187500.02, -187500.02, -187500.02, 0.000, 0.000, 0.000, 18:11:58.868
98, 25584.10, 52749.42, 187500.00, -187500.02, -154340.67, -187500.02, -187500.02, -187500.02, 0.018, -0.014, 1.032, 18:11:58.868
99, 24917.84, 52092.41, 187500.00, -187500.02, -154050.50, -187500.02, -187500.02, -187500.02, 0.000, 0.000, 0.000, 18:11:58.868
100, 24960.95, 52333.77, 187500.00, -187500.02, -153952.75, -187500.02, -187500.02, -187500.02, 0.000, 0.000, 0.000, 18:11:58.868
101, 25817.63, 53258.24, 187500.00, -187500.02, -154194.22, -187500.02, -187500.02, -187500.02, 0.000, 0.000, 0.000, 18:11:58.868
102, 25985.85, 53267.58, 187500.00, -187500.02, -154341.11, -187500.02, -187500.02, -187500.02, 0.000, 0.000, 0.000, 18:11:58.869
103, 25570.17, 52736.17, 187500.00, -187500.02, -154355.63, -187500.02, -187500.02, -187500.02, 0.000, 0.000, 0.000, 18:11:58.869
104, 24907.91, 52084.28, 187500.00, -187500.02, -154091.56, -187500.02, -187500.02, -187500.02, 0.000, 0.000, 0.000, 18:11:58.869
105, 24943.99, 52313.45, 187500.00, -187500.02, -153983.55, -187500.02, -187500.02, -187500.02, 0.000, 0.000, 0.000, 18:11:59.334
106, 25798.61, 53236.40, 187500.00, -187500.02, -154177.95, -187500.02, -187500.02, -187500.02, 0.000, 0.000, 0.000, 18:11:59.334
107, 25984.82, 53263.51, 187500.00, -187500.02, -154316.73, -187500.02, -187500.02, -187500.02, 0.000, 0.000, 0.000, 18:11:59.334
108, 25564.67, 52723.76, 187500.00, -187500.02, -154304.14, -187500.02, -187500.02, -187500.02, 0.018, -0.010, 1.034, 18:11:59.335
109, 24904.83, 52081.02, 187500.00, -187500.02, -154013.45, -187500.02, -187500.02, -187500.02, 0.000, 0.000, 0.000, 18:11:59.335
110, 24957.26, 52324.16, 187500.00, -187500.02, -153965.72, -187500.02, -187500.02, -187500.02, 0.000, 0.000, 0.000, 18:11:59.335
111, 25818.23, 53252.83, 187500.00, -187500.02, -154182.86, -187500.02, -187500.02, -187500.02, 0.000, 0.000, 0.000, 18:11:59.335
112, 25989.60, 53274.18, 187500.00, -187500.02, -154332.17, -187500.02, -187500.02, -187500.02, 0.000, 0.000, 0.000, 18:11:59.335
113, 25569.46, 52735.12, 187500.00, -187500.02, -154348.53, -187500.02, -187500.02, -187500.02, 0.000, 0.000, 0.000, 18:11:59.335
114, 24898.23, 52079.43, 187500.00, -187500.02, -154057.83, -187500.02, -187500.02, -187500.02, 0.000, 0.000, 0.000, 18:11:59.336
115, 24944.21, 52313.16, 187500.00, -187500.02, -153987.00, -187500.02, -187500.02, -187500.02, 0.000, 0.000, 0.000, 18:11:59.336
116, 25805.67, 53240.33, 187500.00, -187500.02, -154220.64, -187500.02, -187500.02, -187500.02, 0.000, 0.000, 0.000, 18:11:59.336
117, 25995.82, 53273.79, 187500.00, -187500.02, -154388.28, -187500.02, -187500.02, -187500.02, 0.000, 0.000, 0.000, 18:11:59.336
118, 25574.37, 52733.48, 187500.00, -187500.02, -154412.23, -187500.02, -187500.02, -187500.02, 0.022, -0.018, 1.028, 18:11:59.336
119, 24911.60, 52077.84, 187500.00, -187500.02, -154142.75, -187500.02, -187500.02, -187500.02, 0.000, 0.000, 0.000, 18:11:59.337
120, 24927.60, 52289.47, 187500.00, -187500.02, -154040.75, -187500.02, -187500.02, -187500.02, 0.000, 0.000, 0.000, 18:11:59.337
121, 25789.42, 53225.58, 187500.00, -187500.02, -154209.80, -187500.02, -187500.02, -187500.02, 0.000, 0.000, 0.000, 18:11:59.337
122, 25991.41, 53267.11, 187500.00, -187500.02, -154350.77, -187500.02, -187500.02, -187500.02, 0.000, 0.000, 0.000, 18:11:59.337
123, 25566.95, 52724.16, 187500.00, -187500.02, -154319.81, -187500.02, -187500.02, -187500.02, 0.000, 0.000, 0.000, 18:11:59.337
124, 24905.07, 52074.51, 187500.00, -187500.02, -154038.41, -187500.02, -187500.02, -187500.02, 0.000, 0.000, 0.000, 18:11:59.338
125, 24926.80, 52283.99, 187500.00, -187500.02, -153937.33, -187500.02, -187500.02, -187500.02, 0.000, 0.000, 0.000, 18:11:59.338
126, 25788.75, 53216.57, 187500.00, -187500.02, -154157.89, -187500.02, -187500.02, -187500.02, 0.000, 0.000, 0.000, 18:11:59.338
127, 25997.20, 53270.55, 187500.00, -187500.02, -154343.53, -187500.02, -187500.02, -187500.02, 0.000, 0.000, 0.000, 18:11:59.338
128, 25579.18, 52731.77, 187500.00, -187500.02, -154341.78, -187500.02, -187500.02, -187500.02, 0.020, -0.014, 1.024, 18:11:59.338
129, 24916.34, 52082.60, 187500.00, -187500.02, -154098.94, -187500.02, -187500.02, -187500.02, 0.000, 0.000, 0.000, 18:11:59.338
130, 24920.00, 52275.41, 187500.00, -187500.02, -154005.84, -187500.02, -187500.02, -187500.02, 0.000, 0.000, 0.000, 18:11:59.339
131, 25788.35, 53218.59, 187500.00, -187500.02, -154254.69, -187500.02, -187500.02, -187500.02, 0.000, 0.000, 0.000, 18:11:59.339
132, 25990.63, 53266.62, 187500.00, -187500.02, -154434.61, -187500.02, -187500.02, -187500.02, 0.000, 0.000, 0.000, 18:11:59.339
133, 25561.63, 52716.57, 187500.00, -187500.02, -154411.36, -187500.02, -187500.02, -187500.02, 0.000, 0.000, 0.000, 18:11:59.339
134, 24899.80, 52060.63, 187500.00, -187500.02, -154129.16, -187500.02, -187500.02, -187500.02, 0.000, 0.000, 0.000, 18:11:59.339
135, 24904.85, 52253.75, 187500.00, -187500.02, -154038.36, -187500.02, -187500.02, -187500.02, 0.000, 0.000, 0.000, 18:11:59.339
136, 25753.05, 53187.29, 187500.00, -187500.02, -154239.02, -187500.02, -187500.02, -187500.02, 0.000, 0.000, 0.000, 18:11:59.340
137, 25965.78, 53245.77, 187500.00, -187500.02, -154388.66, -187500.02, -187500.02, -187500.02, 0.018, -0.010, 1.022, 18:11:59.340
138, 25549.81, 52703.98, 187500.00, -187500.02, -154371.05, -187500.02, -187500.02, -187500.02, 0.000, 0.000, 0.000, 18:11:59.340
139, 24883.10, 52044.38, 187500.00, -187500.02, -154064.44, -187500.02, -187500.02, -187500.02, 0.000, 0.000, 0.000, 18:11:59.340
140, 24890.12, 52239.69, 187500.00, -187500.02, -153963.53, -187500.02, -187500.02, -187500.02, 0.000, 0.000, 0.000, 18:11:59.340
141, 25760.41, 53192.75, 187500.00, -187500.02, -154203.70, -187500.02, -187500.02, -187500.02, 0.000, 0.000, 0.000, 18:11:59.340
142, 25974.27, 53259.13, 187500.00, -187500.02, -154375.64, -187500.02, -187500.02, -187500.02, 0.000, 0.000, 0.000, 18:11:59.341
143, 25559.69, 52723.83, 187500.00, -187500.02, -154371.67, -187500.02, -187500.02, -187500.02, 0.000, 0.000, 0.000, 18:11:59.341
144, 24895.21, 52066.51, 187500.00, -187500.02, -154108.39, -187500.02, -187500.02, -187500.02, 0.000, 0.000, 0.000, 18:11:59.341
145, 24883.08, 52238.80, 187500.00, -187500.02, -154021.38, -187500.02, -187500.02, -187500.02, 0.000, 0.000, 0.000, 18:11:59.341
146, 25744.13, 53180.88, 187500.00, -187500.02, -154256.53, -187500.02, -187500.02, -187500.02, 0.000, 0.000, 0.000, 18:11:59.341
147, 25964.99, 53245.54, 187500.00, -187500.02, -154426.00, -187500.02, -187500.02, -187500.02, 0.014, -0.012, 1.024, 18:11:59.341
148, 25559.91, 52708.63, 187500.00, -187500.02, -154434.25, -187500.02, -187500.02, -187500.02, 0.000, 0.000, 0.000, 18:11:59.342
149, 24886.19, 52052.72, 187500.00, -187500.02, -154127.72, -187500.02, -187500.02, -187500.02, 0.000, 0.000, 0.000, 18:11:59.342
150, 24867.61, 52221.27, 187500.00, -187500.02, -154024.61, -187500.02, -187500.02, -187500.02, 0.000, 0.000, 0.000, 18:11:59.342
151, 25724.87, 53158.28, 187500.00, -187500.02, -154197.34, -187500.02, -187500.02, -187500.02, 0.000, 0.000, 0.000, 18:11:59.342
152, 25948.16, 53228.24, 187500.00, -187500.02, -154341.72, -187500.02, -187500.02, -187500.02, 0.000, 0.000, 0.000, 18:11:59.342
153, 25538.79, 52695.78, 187500.00, -187500.02, -154325.77, -187500.02, -187500.02, -187500.02, 0.000, 0.000, 0.000, 18:11:59.342
154, 24879.64, 52046.28, 187500.00, -187500.02, -154036.06, -187500.02, -187500.02, -187500.02, 0.000, 0.000, 0.000, 18:11:59.343
155, 24855.72, 52211.59, 187500.00, -187500.02, -153962.31, -187500.02, -187500.02, -187500.02, 0.000, 0.000, 0.000, 18:11:59.343
156, 25722.36, 53157.79, 187500.00, -187500.02, -154179.33, -187500.02, -187500.02, -187500.02, 0.000, 0.000, 0.000, 18:11:59.343
157, 25967.03, 53248.20, 187500.00, -187500.02, -154368.09, -187500.02, -187500.02, -187500.02, 0.018, -0.018, 1.022, 18:11:59.343
158, 25560.96, 52714.91, 187500.00, -187500.02, -154400.95, -187500.02, -187500.02, -187500.02, 0.000, 0.000, 0.000, 18:11:59.343
159, 24895.84, 52057.95, 187500.00, -187500.02, -154128.06, -187500.02, -187500.02, -187500.02, 0.000, 0.000, 0.000, 18:11:59.343
160, 24862.40, 52207.68, 187500.00, -187500.02, -154018.80, -187500.02, -187500.02, -187500.02, 0.000, 0.000, 0.000, 18:11:59.343
161, 25720.67, 53151.35, 187500.00, -187500.02, -154242.05, -187500.02, -187500.02, -187500.02, 0.000, 0.000, 0.000, 18:11:59.344
162, 25952.45, 53237.90, 187500.00, -187500.02, -154413.98, -187500.02, -187500.02, -187500.02, 0.000, 0.000, 0.000, 18:11:59.344
163, 25546.97, 52703.60, 187500.00, -187500.02, -154424.59, -187500.02, -187500.02, -187500.02, 0.000, 0.000, 0.000, 18:11:59.344
164, 24884.73, 52045.01, 187500.00, -187500.02, -154124.53, -187500.02, -187500.02, -187500.02, 0.000, 0.000, 0.000, 18:11:59.344
165, 24844.39, 52182.31, 187500.00, -187500.02, -154023.55, -187500.02, -187500.02, -187500.02, 0.000, 0.000, 0.000, 18:11:59.344
166, 25701.85, 53127.10, 187500.00, -187500.02, -154224.02, -187500.02, -187500.02, -187500.02, 0.000, 0.000, 0.000, 18:11:59.344
167, 25941.25, 53222.34, 187500.00, -187500.02, -154351.22, -187500.02, -187500.02, -187500.02, 0.016, -0.018, 1.026, 18:11:59.345
168, 25540.09, 52686.05, 187500.00, -187500.02, -154338.28, -187500.02, -187500.02, -187500.02, 0.000, 0.000, 0.000, 18:11:59.345
169, 24881.02, 52035.82, 187500.00, -187500.02, -154068.25, -187500.02, -187500.02, -187500.02, 0.000, 0.000, 0.000, 18:11:59.345
170, 24829.68, 52173.77, 187500.00, -187500.02, -153940.23, -187500.02, -187500.02, -187500.02, 0.000, 0.000, 0.000, 18:11:59.345
171, 25697.26, 53126.36, 187500.00, -187500.02, -154170.91, -187500.02, -187500.02, -187500.02, 0.000, 0.000, 0.000, 18:11:59.345
172, 25951.89, 53226.23, 187500.00, -187500.02, -154352.11, -187500.02, -187500.02, -187500.02, 0.000, 0.000, 0.000, 18:11:59.345
173, 25551.91, 52691.84, 187500.00, -187500.02, -154391.16, -187500.02, -187500.02, -187500.02, 0.000, 0.000, 0.000, 18:11:59.346
174, 24889.70, 52038.46, 187500.00, -187500.02, -154124.75, -187500.02, -187500.02, -187500.02, 0.000, 0.000, 0.000, 18:11:59.346
175, 24830.62, 52158.42, 187500.00, -187500.02, -154014.98, -187500.02, -187500.02, -187500.02, 0.000, 0.000, 0.000, 18:11:59.346
176, 25689.73, 53106.60, 187500.00, -187500.02, -154258.34, -187500.02, -187500.02, -187500.02, 0.000, 0.000, 0.000, 18:11:59.346
177, 25938.51, 53211.70, 187500.00, -187500.02, -154413.98, -187500.02, -187500.02, -187500.02, 0.016, -0.012, 1.026, 18:11:59.346
178, 25539.13, 52673.56, 187500.00, -187500.02, -154403.55, -187500.02, -187500.02, -187500.02, 0.000, 0.000, 0.000, 18:11:59.346
179, 24874.09, 52010.16, 187500.00, -187500.02, -154123.16, -187500.02, -187500.02, -187500.02, 0.000, 0.000, 0.000, 18:11:59.347
180, 24800.22, 52120.82, 187500.00, -187500.02, -154003.88, -187500.02, -187500.02, -187500.02, 0.000, 0.000, 0.000, 18:11:59.347
181, 25655.96, 53070.53, 187500.00, -187500.02, -154191.25, -187500.02, -187500.02, -187500.02, 0.000, 0.000, 0.000, 18:11:59.347
182, 25910.25, 53178.40, 187500.00, -187500.02, -154331.59, -187500.02, -187500.02, -187500.02, 0.000, 0.000, 0.000, 18:11:59.347
183, 25520.19, 52657.94, 187500.00, -187500.02, -154343.89, -187500.02, -187500.02, -187500.02, 0.000, 0.000, 0.000, 18:11:59.347
184, 24866.34, 52013.20, 187500.00, -187500.02, -154067.95, -187500.02, -187500.02, -187500.02, 0.000, 0.000, 0.000, 18:11:59.348
185, 24796.85, 52124.82, 187500.00, -187500.02, -153940.75, -187500.02, -187500.02, -187500.02, 0.000, 0.000, 0.000, 18:11:59.348
186, 25659.71, 53081.99, 187500.00, -187500.02, -154158.72, -187500.02, -187500.02, -187500.02, 0.000, 0.000, 0.000, 18:11:59.348
187, 25928.20, 53208.24, 187500.00, -187500.02, -154346.75, -187500.02, -187500.02, -187500.02, 0.022, -0.010, 1.018, 18:11:59.348
188, 25539.39, 52684.09, 187500.00, -187500.02, -154375.69, -187500.02, -187500.02, -187500.02, 0.000, 0.000, 0.000, 18:11:59.348
189, 24888.69, 52031.93, 187500.00, -187500.02, -154137.05, -187500.02, -187500.02, -187500.02, 0.000, 0.000, 0.000, 18:11:59.348
190, 24808.89, 52129.12, 187500.00, -187500.02, -154053.14, -187500.02, -187500.02, -187500.02, 0.000, 0.000, 0.000, 18:11:59.349
191, 25660.52, 53074.46, 187500.00, -187500.02, -154273.72, -187500.02, -187500.02, -187500.02, 0.000, 0.000, 0.000, 18:11:59.349
192, 25916.42, 53191.81, 187500.00, -187500.02, -154401.11, -187500.02, -187500.02, -187500.02, 0.000, 0.000, 0.000, 18:11:59.349
193, 25532.24, 52675.77, 187500.00, -187500.02, -154431.97, -187500.02, -187500.02, -187500.02, 0.000, 0.000, 0.000, 18:11:59.349
194, 24875.59, 52017.92, 187500.00, -187500.02, -154147.70, -187500.02, -187500.02, -187500.02, 0.000, 0.000, 0.000, 18:11:59.349
195, 24784.31, 52101.56, 187500.00, -187500.02, -154004.78, -187500.02, -187500.02, -187500.02, 0.000, 0.000, 0.000, 18:11:59.349
196, 25648.16, 53057.09, 187500.00, -187500.02, -154228.64, -187500.02, -187500.02, -187500.02, 0.000, 0.000, 0.000, 18:11:59.349
197, 25916.42, 53195.32, 187500.00, -187500.02, -154399.31, -187500.02, -187500.02, -187500.02, 0.018, -0.004, 1.018, 18:11:59.350
198, 25531.30, 52673.83, 187500.00, -187500.02, -154397.67, -187500.02, -187500.02, -187500.02, 0.000, 0.000, 0.000, 18:11:59.350
199, 24876.17, 52016.42, 187500.00, -187500.02, -154113.63, -187500.02, -187500.02, -187500.02, 0.000, 0.000, 0.000, 18:11:59.350
200, 24779.93, 52101.60, 187500.00, -187500.02, -153978.44, -187500.02, -187500.02, -187500.02, 0.000, 0.000, 0.000, 18:11:59.350
201, 25638.97, 53062.05, 187500.00, -187500.02, -154188.77, -187500.02, -187500.02, -187500.02, 0.000, 0.000, 0.000, 18:11:59.350
202, 25924.29, 53208.01, 187500.00, -187500.02, -154363.20, -187500.02, -187500.02, -187500.02, 0.000, 0.000, 0.000, 18:11:59.350
203, 25552.76, 52697.12, 187500.00, -187500.02, -154402.97, -187500.02, -187500.02, -187500.02, 0.000, 0.000, 0.000, 18:11:59.350
204, 24895.19, 52039.48, 187500.00, -187500.02, -154137.00, -187500.02, -187500.02, -187500.02, 0.000, 0.000, 0.000, 18:11:59.350
205, 24790.32, 52117.63, 187500.00, -187500.02, -153993.33, -187500.02, -187500.02, -187500.02, 0.000, 0.000, 0.000, 18:11:59.350
206, 25652.34, 53074.02, 187500.00, -187500.02, -154220.81, -187500.02, -187500.02, -187500.02, 0.000, 0.000, 0.000, 18:11:59.351
207, 25940.85, 53229.63, 187500.00, -187500.02, -154410.97, -187500.02, -187500.02, -187500.02, 0.016, -0.006, 1.016, 18:11:59.351
208, 25558.24, 52708.81, 187500.00, -187500.02, -154420.83, -187500.02, -187500.02, -187500.02, 0.000, 0.000, 0.000, 18:11:59.351
209, 24907.91, 52051.20, 187500.00, -187500.02, -154145.05, -187500.02, -187500.02, -187500.02, 0.000, 0.000, 0.000, 18:11:59.351
210, 24791.39, 52108.71, 187500.00, -187500.02, -154004.72, -187500.02, -187500.02, -187500.02, 0.000, 0.000, 0.000, 18:11:59.351
211, 25642.90, 53057.27, 187500.00, -187500.02, -154215.83, -187500.02, -187500.02, -187500.02, 0.000, 0.000, 0.000, 18:11:59.351
212, 25930.32, 53214.05, 187500.00, -187500.02, -154350.41, -187500.02, -187500.02, -187500.02, 0.000, 0.000, 0.000, 18:11:59.352
213, 25560.61, 52708.18, 187500.00, -187500.02, -154369.20, -187500.02, -187500.02, -187500.02, 0.000, 0.000, 0.000, 18:11:59.352
214, 24915.49, 52064.16, 187500.00, -187500.02, -154126.20, -187500.02, -187500.02, -187500.02, 0.000, 0.000, 0.000, 18:11:59.352
215, 24797.07, 52117.70, 187500.00, -187500.02, -153970.13, -187500.02, -187500.02, -187500.02, 0.000, 0.000, 0.000, 18:11:59.352
216, 25655.22, 53079.31, 187500.00, -187500.02, -154178.27, -187500.02, -187500.02, -187500.02, 0.000, 0.000, 0.000, 18:11:59.352
217, 25957.84, 53247.31, 187500.00, -187500.02, -154368.67, -187500.02, -187500.02, -187500.02, 0.020, -0.008, 1.016, 18:11:59.352
218, 25589.01, 52740.66, 187500.00, -187500.02, -154453.14, -187500.02, -187500.02, -187500.02, 0.000, 0.000, 0.000, 18:11:59.353
219, 24937.82, 52080.93, 187500.00, -187500.02, -154196.23, -187500.02, -187500.02, -187500.02, 0.000, 0.000, 0.000, 18:11:59.353
220, 24811.42, 52122.68, 187500.00, -187500.02, -154081.13, -187500.02, -187500.02, -187500.02, 0.000, 0.000, 0.000, 18:11:59.353
221, 25661.12, 53080.45, 187500.00, -187500.02, -154295.86, -187500.02, -187500.02, -187500.02, 0.000, 0.000, 0.000, 18:11:59.353
222, 25956.03, 53249.25, 187500.00, -187500.02, -154460.20, -187500.02, -187500.02, -187500.02, 0.000, 0.000, 0.000, 18:11:59.353
223, 25587.36, 52738.92, 187500.00, -187500.02, -154470.70, -187500.02, -187500.02, -187500.02, 0.000, 0.000, 0.000, 18:11:59.354
224, 24937.68, 52085.73, 187500.00, -187500.02, -154196.05, -187500.02, -187500.02, -187500.02, 0.000, 0.000, 0.000, 18:11:59.354
225, 24797.61, 52110.90, 187500.00, -187500.02, -154046.19, -187500.02, -187500.02, -187500.02, 0.000, 0.000, 0.000, 18:11:59.354
226, 25649.70, 53067.31, 187500.00, -187500.02, -154228.11, -187500.02, -187500.02, -187500.02, 0.000, 0.000, 0.000, 18:11:59.813
227, 25962.11, 53248.49, 187500.00, -187500.02, -154400.56, -187500.02, -187500.02, -187500.02, 0.018, -0.008, 1.020, 18:11:59.814
228, 25594.33, 52742.54, 187500.00, -187500.02, -154429.06, -187500.02, -187500.02, -187500.02, 0.000, 0.000, 0.000, 18:11:59.814
229, 24944.97, 52092.59, 187500.00, -187500.02, -154166.72, -187500.02, -187500.02, -187500.02, 0.000, 0.000, 0.000, 18:11:59.814
230, 24798.95, 52113.63, 187500.00, -187500.02, -153998.53, -187500.02, -187500.02, -187500.02, 0.000, 0.000, 0.000, 18:11:59.814
231, 25648.58, 53069.66, 187500.00, -187500.02, -154210.69, -187500.02, -187500.02, -187500.02, 0.000, 0.000, 0.000, 18:11:59.814
232, 25976.15, 53265.55, 187500.00, -187500.02, -154420.19, -187500.02, -187500.02, -187500.02, 0.000, 0.000, 0.000, 18:11:59.815
233, 25625.36, 52769.43, 187500.00, -187500.02, -154474.08, -187500.02, -187500.02, -187500.02, 0.000, 0.000, 0.000, 18:11:59.815
234, 24972.66, 52110.92, 187500.00, -187500.02, -154219.92, -187500.02, -187500.02, -187500.02, 0.000, 0.000, 0.000, 18:11:59.815
235, 24810.41, 52123.39, 187500.00, -187500.02, -154079.64, -187500.02, -187500.02, -187500.02, 0.000, 0.000, 0.000, 18:11:59.815
236, 25661.39, 53082.64, 187500.00, -187500.02, -154272.61, -187500.02, -187500.02, -187500.02, 0.000, 0.000, 0.000, 18:11:59.815
237, 25976.88, 53265.79, 187500.00, -187500.02, -154406.14, -187500.02, -187500.02, -187500.02, 0.014, -0.008, 1.022, 18:11:59.815
238, 25617.91, 52765.58, 187500.00, -187500.02, -154441.27, -187500.02, -187500.02, -187500.02, 0.000, 0.000, 0.000, 18:11:59.816
239, 24968.46, 52109.45, 187500.00, -187500.02, -154228.73, -187500.02, -187500.02, -187500.02, 0.000, 0.000, 0.000, 18:11:59.816
240, 24805.07, 52103.55, 187500.00, -187500.02, -154056.02, -187500.02, -187500.02, -187500.02, 0.000, 0.000, 0.000, 18:11:59.816
241, 25658.62, 53059.08, 187500.00, -187500.02, -154238.86, -187500.02, -187500.02, -187500.02, 0.000, 0.000, 0.000, 18:11:59.816
242, 25988.60, 53260.36, 187500.00, -187500.02, -154408.34, -187500.02, -187500.02, -187500.02, 0.000, 0.000, 0.000, 18:11:59.816
243, 25628.93, 52760.98, 187500.00, -187500.02, -154448.77, -187500.02, -187500.02, -187500.02, 0.000, 0.000, 0.000, 18:11:59.817
244, 24982.28, 52105.96, 187500.00, -187500.02, -154191.14, -187500.02, -187500.02, -187500.02, 0.000, 0.000, 0.000, 18:11:59.817
245, 24828.50, 52115.30, 187500.00, -187500.02, -154087.48, -187500.02, -187500.02, -187500.02, 0.000, 0.000, 0.000, 18:11:59.817
246, 25666.96, 53067.78, 187500.00, -187500.02, -154281.19, -187500.02, -187500.02, -187500.02, 0.000, 0.000, 0.000, 18:11:59.817
247, 26003.13, 53274.06, 187500.00, -187500.02, -154451.94, -187500.02, -187500.02, -187500.02, 0.016, -0.012, 1.008, 18:11:59.817
248, 25653.68, 52780.87, 187500.00, -187500.02, -154496.22, -187500.02, -187500.02, -187500.02, 0.000, 0.000, 0.000, 18:11:59.817
249, 25004.92, 52120.87, 187500.00, -187500.02, -154243.39, -187500.02, -187500.02, -187500.02, 0.000, 0.000, 0.000, 18:11:59.818
250, 24831.65, 52111.93, 187500.00, -187500.02, -154091.41, -187500.02, -187500.02, -187500.02, 0.000, 0.000, 0.000, 18:11:59.818
251, 25672.03, 53063.02, 187500.00, -187500.02, -154324.23, -187500.02, -187500.02, -187500.02, 0.000, 0.000, 0.000, 18:11:59.818
252, 26004.35, 53269.32, 187500.00, -187500.02, -154516.47, -187500.02, -187500.02, -187500.02, 0.000, 0.000, 0.000, 18:11:59.818
253, 25640.24, 52760.22, 187500.00, -187500.02, -154512.63, -187500.02, -187500.02, -187500.02, 0.000, 0.000, 0.000, 18:11:59.818
254, 24990.05, 52107.14, 187500.00, -187500.02, -154248.38, -187500.02, -187500.02, -187500.02, 0.000, 0.000, 0.000, 18:11:59.819
255, 24816.83, 52099.19, 187500.00, -187500.02, -154105.69, -187500.02, -187500.02, -187500.02, 0.000, 0.000, 0.000, 18:11:59.819
0, 25655.40, 53053.52, 187500.00, -187500.02, -154308.48, -187500.02, -187500.02, -187500.02, 0.018, -0.012, 1.022, 18:11:59.819
1, 25994.77, 53261.43, 187500.00, -187500.02, -154465.66, -187500.02, -187500.02, -187500.02, 0.000, 0.000, 0.000, 18:11:59.819
2, 25645.81, 52759.59, 187500.00, -187500.02, -154475.63, -187500.02, -187500.02, -187500.02, 0.000, 0.000, 0.000, 18:11:59.819
3, 25011.78, 52109.04, 187500.00, -187500.02, -154226.77, -187500.02, -187500.02, -187500.02, 0.000, 0.000, 0.000, 18:11:59.819
4, 24816.96, 52087.14, 187500.00, -187500.02, -154077.20, -187500.02, -187500.02, -187500.02, 0.000, 0.000, 0.000, 18:11:59.819
5, 25649.03, 53046.68, 187500.00, -187500.02, -154244.63, -187500.02, -187500.02, -187500.02, 0.000, 0.000, 0.000, 18:11:59.820
6, 26004.94, 53274.84, 187500.00, -187500.02, -154422.88, -187500.02, -187500.02, -187500.02, 0.000, 0.000, 0.000, 18:11:59.820
7, 25657.63, 52783.38, 187500.00, -187500.02, -154487.63, -187500.02, -187500.02, -187500.02, 0.000, 0.000, 0.000, 18:11:59.820
8, 25018.73, 52133.00, 187500.00, -187500.02, -154248.63, -187500.02, -187500.02, -187500.02, 0.000, 0.000, 0.000, 18:11:59.820
9, 24826.73, 52094.38, 187500.00, -187500.02, -154127.88, -187500.02, -187500.02, -187500.02, 0.000, 0.000, 0.000, 18:11:59.820
10, 25664.34, 53048.67, 187500.00, -187500.02, -154345.39, -187500.02, -187500.02, -187500.02, 0.020, -0.014, 1.020, 18:11:59.820
11, 26012.74, 53276.68, 187500.00, -187500.02, -154508.28, -187500.02, -187500.02, -187500.02, 0.000, 0.000, 0.000, 18:11:59.820
12, 25666.22, 52780.25, 187500.00, -187500.02, -154557.53, -187500.02, -187500.02, -187500.02, 0.000, 0.000, 0.000, 18:11:59.820
13, 25017.55, 52123.59, 187500.00, -187500.02, -154288.28, -187500.02, -187500.02, -187500.02, 0.000, 0.000, 0.000, 18:11:59.820
14, 24818.19, 52089.69, 187500.00, -187500.02, -154123.56, -187500.02, -187500.02, -187500.02, 0.000, 0.000, 0.000, 18:11:59.821
15, 25645.63, 53037.54, 187500.00, -187500.02, -154289.75, -187500.02, -187500.02, -187500.02, 0.000, 0.000, 0.000, 18:11:59.821
16, 26000.17, 53272.95, 187500.00, -187500.02, -154444.48, -187500.02, -187500.02, -187500.02, 0.000, 0.000, 0.000, 18:11:59.821
17, 25665.97, 52784.89, 187500.00, -187500.02, -154477.08, -187500.02, -187500.02, -187500.02, 0.000, 0.000, 0.000, 18:11:59.821
18, 25029.08, 52137.99, 187500.00, -187500.02, -154226.05, -187500.02, -187500.02, -187500.02, 0.000, 0.000, 0.000, 18:11:59.821
19, 24820.52, 52088.79, 187500.00, -187500.02, -154088.09, -187500.02, -187500.02, -187500.02, 0.000, 0.000, 0.000, 18:11:59.821
20, 25648.36, 53037.00, 187500.00, -187500.02, -154280.20, -187500.02, -187500.02, -187500.02, 0.018, -0.016, 1.022, 18:11:59.821
21, 26018.30, 53288.70, 187500.00, -187500.02, -154471.66, -187500.02, -187500.02, -187500.02, 0.000, 0.000, 0.000, 18:11:59.821
22, 25674.60, 52791.33, 187500.00, -187500.02, -154520.11, -187500.02, -187500.02, -187500.02, 0.000, 0.000, 0.000, 18:11:59.822
23, 25033.77, 52140.32, 187500.00, -187500.02, -154270.11, -187500.02, -187500.02, -187500.02, 0.000, 0.000, 0.000, 18:11:59.822
24, 24825.72, 52082.89, 187500.00, -187500.02, -154125.64, -187500.02, -187500.02, -187500.02, 0.000, 0.000, 0.000, 18:11:59.822
25, 25655.69, 53036.20, 187500.00, -187500.02, -154338.95, -187500.02, -187500.02, -187500.02, 0.000, 0.000, 0.000, 18:11:59.822
26, 26010.12, 53272.77, 187500.00, -187500.02, -154487.47, -187500.02, -187500.02, -187500.02, 0.000, 0.000, 0.000, 18:11:59.822
27, 25671.80, 52782.86, 187500.00, -187500.02, -154524.52, -187500.02, -187500.02, -187500.02, 0.000, 0.000, 0.000, 18:11:59.822
28, 25040.70, 52147.04, 187500.00, -187500.02, -154281.88, -187500.02, -187500.02, -187500.02, 0.000, 0.000, 0.000, 18:11:59.822
29, 24805.14, 52065.39, 187500.00, -187500.02, -154095.42, -187500.02, -187500.02, -187500.02, 0.000, 0.000, 0.000, 18:11:59.822
30, 25620.31, 53006.20, 187500.00, -187500.02, -154254.48, -187500.02, -187500.02, -187500.02, 0.020, -0.014, 1.020, 18:11:59.822
31, 25994.65, 53266.60, 187500.00, -187500.02, -154400.89, -187500.02, -187500.02, -187500.02, 0.000, 0.000, 0.000, 18:11:59.823
32, 25673.75, 52790.10, 187500.00, -187500.02, -154473.84, -187500.02, -187500.02, -187500.02, 0.000, 0.000, 0.000, 18:11:59.823
33, 25036.66, 52137.07, 187500.00, -187500.02, -154229.64, -187500.02, -187500.02, -187500.02, 0.000, 0.000, 0.000, 18:11:59.823
34, 24808.04, 52058.80, 187500.00, -187500.02, -154067.03, -187500.02, -187500.02, -187500.02, 0.000, 0.000, 0.000, 18:11:59.823
35, 25637.12, 53013.44, 187500.00, -187500.02, -154271.53, -187500.02, -187500.02, -187500.02, 0.000, 0.000, 0.000, 18:11:59.823
36, 26024.65, 53283.23, 187500.00, -187500.02, -154467.42, -187500.02, -187500.02, -187500.02, 0.000, 0.000, 0.000, 18:11:59.824
37, 25695.50, 52802.42, 187500.00, -187500.02, -154534.03, -187500.02, -187500.02, -187500.02, 0.000, 0.000, 0.000, 18:11:59.824
38, 25059.10, 52158.64, 187500.00, -187500.02, -154321.95, -187500.02, -187500.02, -187500.02, 0.000, 0.000, 0.000, 18:11:59.824
39, 24816.94, 52069.28, 187500.00, -187500.02, -154143.48, -187500.02, -187500.02, -187500.02, 0.000, 0.000, 0.000, 18:11:59.824
40, 25643.66, 53017.13, 187500.00, -187500.02, -154351.91, -187500.02, -187500.02, -187500.02, 0.014, -0.008, 1.020, 18:11:59.824
41, 26017.74, 53279.88, 187500.00, -187500.02, -154509.88, -187500.02, -187500.02, -187500.02, 0.000, 0.000, 0.000, 18:11:59.824
42, 25684.23, 52792.25, 187500.00, -187500.02, -154562.06, -187500.02, -187500.02, -187500.02, 0.000, 0.000, 0.000, 18:11:59.824
43, 25056.93, 52156.32, 187500.00, -187500.02, -154356.61, -187500.02, -187500.02, -187500.02, 0.000, 0.000, 0.000, 18:11:59.824
44, 24802.30, 52051.27, 187500.00, -187500.02, -154171.13, -187500.02, -187500.02, -187500.02, 0.000, 0.000, 0.000, 18:11:59.824
45, 25615.61, 52990.22, 187500.00, -187500.02, -154348.77, -187500.02, -187500.02, -187500.02, 0.000, 0.000, 0.000, 18:11:59.825
46, 26002.97, 53268.18, 187500.00, -187500.02, -154493.63, -187500.02, -187500.02, -187500.02, 0.000, 0.000, 0.000, 18:11:59.825
47, 25682.56, 52792.61, 187500.00, -187500.02, -154547.48, -187500.02, -187500.02, -187500.02, 0.000, 0.000, 0.000, 18:11:59.825
48, 25053.71, 52143.22, 187500.00, -187500.02, -154279.88, -187500.02, -187500.02, -187500.02, 0.000, 0.000, 0.000, 18:11:59.825
49, 24799.80, 52040.83, 187500.00, -187500.02, -154078.19, -187500.02, -187500.02, -187500.02, 0.000, 0.000, 0.000, 18:11:59.825
50, 25625.96, 52998.58, 187500.00, -187500.02, -154283.72, -187500.02, -187500.02, -187500.02, 0.010, -0.010, 1.024, 18:11:59.825
51, 26027.80, 53293.42, 187500.00, -187500.02, -154494.41, -187500.02, -187500.02, -187500.02, 0.000, 0.000, 0.000, 18:11:59.825
52, 25703.81, 52812.10, 187500.00, -187500.02, -154534.41, -187500.02, -187500.02, -187500.02, 0.000, 0.000, 0.000, 18:11:59.825
53, 25087.73, 52179.90, 187500.00, -187500.02, -154338.39, -187500.02, -187500.02, -187500.02, 0.000, 0.000, 0.000, 18:11:59.826
54, 24830.08, 52072.61, 187500.00, -187500.02, -154192.81, -187500.02, -187500.02, -187500.02, 0.000, 0.000, 0.000, 18:11:59.826
55, 25638.14, 53010.82, 187500.00, -187500.02, -154390.75, -187500.02, -187500.02, -187500.02, 0.000, 0.000, 0.000, 18:11:59.826
56, 26028.45, 53294.11, 187500.00, -187500.02, -154554.11, -187500.02, -187500.02, -187500.02, 0.000, 0.000, 0.000, 18:11:59.826
57, 25703.07, 52813.39, 187500.00, -187500.02, -154578.16, -187500.02, -187500.02, -187500.02, 0.000, 0.000, 0.000, 18:11:59.826
58, 25073.72, 52174.02, 187500.00, -187500.02, -154335.59, -187500.02, -187500.02, -187500.02, 0.000, 0.000, 0.000, 18:11:59.826
59, 24807.37, 52050.68, 187500.00, -187500.02, -154158.39, -187500.02, -187500.02, -187500.02, 0.000, 0.000, 0.000, 18:11:59.826
60, 25626.41, 52999.80, 187500.00, -187500.02, -154364.09, -187500.02, -187500.02, -187500.02, 0.012, -0.014, 1.028, 18:11:59.826
61, 26030.13, 53294.13, 187500.00, -187500.02, -154551.48, -187500.02, -187500.02, -187500.02, 0.000, 0.000, 0.000, 18:11:59.826
62, 25701.33, 52811.65, 187500.00, -187500.02, -154579.66, -187500.02, -187500.02, -187500.02, 0.000, 0.000, 0.000, 18:11:59.827
63, 25072.09, 52168.70, 187500.00, -187500.02, -154346.30, -187500.02, -187500.02, -187500.02, 0.000, 0.000, 0.000, 18:11:59.827
64, 24800.47, 52043.18, 187500.00, -187500.02, -154130.67, -187500.02, -187500.02, -187500.02, 0.000, 0.000, 0.000, 18:11:59.827
65, 25616.39, 52994.66, 187500.00, -187500.02, -154299.27, -187500.02, -187500.02, -187500.02, 0.000, 0.000, 0.000, 18:11:59.827
66, 26043.31, 53305.18, 187500.00, -187500.02, -154512.70, -187500.02, -187500.02, -187500.02, 0.000, 0.000, 0.000, 18:11:59.827
67, 25714.03, 52818.58, 187500.00, -187500.02, -154561.06, -187500.02, -187500.02, -187500.02, 0.000, 0.000, 0.000, 18:11:59.827
68, 25091.51, 52178.83, 187500.00, -187500.02, -154347.03, -187500.02, -187500.02, -187500.02, 0.000, 0.000, 0.000, 18:11:59.827
69, 24815.44, 52050.21, 187500.00, -187500.02, -154178.08, -187500.02, -187500.02, -187500.02, 0.000, 0.000, 0.000, 18:11:59.827
70, 25619.30, 52987.74, 187500.00, -187500.02, -154357.92, -187500.02, -187500.02, -187500.02, 0.016, -0.010, 1.024, 18:11:59.828
71, 26034.42, 53295.45, 187500.00, -187500.02, -154523.61, -187500.02, -187500.02, -187500.02, 0.000, 0.000, 0.000, 18:11:59.828
72, 25722.77, 52827.86, 187500.00, -187500.02, -154611.64, -187500.02, -187500.02, -187500.02, 0.000, 0.000, 0.000, 18:11:59.828
73, 25094.95, 52182.25, 187500.00, -187500.02, -154402.83, -187500.02, -187500.02, -187500.02, 0.000, 0.000, 0.000, 18:11:59.828
74, 24800.20, 52031.55, 187500.00, -187500.02, -154198.28, -187500.02, -187500.02, -187500.02, 0.000, 0.000, 0.000, 18:11:59.828
75, 25601.29, 52965.45, 187500.00, -187500.02, -154331.06, -187500.02, -187500.02, -187500.02, 0.000, 0.000, 0.000, 18:11:59.828
76, 26029.30, 53284.10, 187500.00, -187500.02, -154489.70, -187500.02, -187500.02, -187500.02, 0.000, 0.000, 0.000, 18:11:59.829
77, 25714.99, 52807.27, 187500.00, -187500.02, -154535.73, -187500.02, -187500.02, -187500.02, 0.000, 0.000, 0.000, 18:11:59.829
78, 25095.64, 52166.69, 187500.00, -187500.02, -154297.53, -187500.02, -187500.02, -187500.02, 0.000, 0.000, 0.000, 18:11:59.829
79, 24798.50, 52021.96, 187500.00, -187500.02, -154135.92, -187500.02, -187500.02, -187500.02, 0.000, 0.000, 0.000, 18:11:59.829
80, 25598.76, 52957.23, 187500.00, -187500.02, -154328.70, -187500.02, -187500.02, -187500.02, 0.018, -0.016, 1.034, 18:11:59.829
81, 26037.72, 53291.34, 187500.00, -187500.02, -154540.22, -187500.02, -187500.02, -187500.02, 0.000, 0.000, 0.000, 18:11:59.829
82, 25731.44, 52827.65, 187500.00, -187500.02, -154604.69, -187500.02, -187500.02, -187500.02, 0.000, 0.000, 0.000, 18:11:59.830
83, 25109.21, 52191.75, 187500.00, -187500.02, -154382.75, -187500.02, -187500.02, -187500.02, 0.000, 0.000, 0.000, 18:11:59.830
84, 24818.64, 52042.97, 187500.00, -187500.02, -154232.42, -187500.02, -187500.02, -187500.02, 0.000, 0.000, 0.000, 18:11:59.830
85, 25611.39, 52978.06, 187500.00, -187500.02, -154398.27, -187500.02, -187500.02, -187500.02, 0.000, 0.000, 0.000, 18:11:59.830
86, 26042.87, 53300.28, 187500.00, -187500.02, -154570.67, -187500.02, -187500.02, -187500.02, 0.000, 0.000, 0.000, 18:11:59.830
87, 25734.68, 52829.57, 187500.00, -187500.02, -154634.59, -187500.02, -187500.02, -187500.02, 0.000, 0.000, 0.000, 18:11:59.830
88, 25115.04, 52192.37, 187500.00, -187500.02, -154384.48, -187500.02, -187500.02, -187500.02, 0.000, 0.000, 0.000, 18:11:59.831
89, 24812.98, 52026.84, 187500.00, -187500.02, -154198.47, -187500.02, -187500.02, -187500.02, 0.000, 0.000, 0.000, 18:11:59.831
90, 25610.05, 52963.62, 187500.00, -187500.02, -154365.03, -187500.02, -187500.02, -187500.02, 0.016, -0.014, 1.026, 18:12:00.295
91, 26043.83, 53300.86, 187500.00, -187500.02, -154556.55, -187500.02, -187500.02, -187500.02, 0.000, 0.000, 0.000, 18:12:00.295
92, 25735.98, 52825.91, 187500.00, -187500.02, -154587.77, -187500.02, -187500.02, -187500.02, 0.000, 0.000, 0.000, 18:12:00.295
93, 25118.49, 52192.98, 187500.00, -187500.02, -154347.81, -187500.02, -187500.02, -187500.02, 0.000, 0.000, 0.000, 18:12:00.295
94, 24816.11, 52029.59, 187500.00, -187500.02, -154163.31, -187500.02, -187500.02, -187500.02, 0.000, 0.000, 0.000, 18:12:00.296
95, 25607.54, 52961.72, 187500.00, -187500.02, -154337.73, -187500.02, -187500.02, -187500.02, 0.000, 0.000, 0.000, 18:12:00.296
96, 26064.44, 53313.45, 187500.00, -187500.02, -154554.47, -187500.02, -187500.02, -187500.02, 0.000, 0.000, 0.000, 18:12:00.296
97, 25763.25, 52843.46, 187500.00, -187500.02, -154633.55, -187500.02, -187500.02, -187500.02, 0.000, 0.000, 0.000, 18:12:00.296
98, 25144.75, 52214.34, 187500.00, -187500.02, -154430.03, -187500.02, -187500.02, -187500.02, 0.000, 0.000, 0.000, 18:12:00.296
99, 24831.51, 52038.08, 187500.00, -187500.02, -154241.72, -187500.02, -187500.02, -187500.02, 0.000, 0.000, 0.000, 18:12:00.296
100, 25618.63, 52967.93, 187500.00, -187500.02, -154422.98, -187500.02, -187500.02, -187500.02, 0.018, -0.012, 1.018, 18:12:00.297
101, 26079.01, 53322.90, 187500.00, -187500.02, -154620.52, -187500.02, -187500.02, -187500.02, 0.000, 0.000, 0.000, 18:12:00.297
102, 25766.80, 52854.23, 187500.00, -187500.02, -154663.36, -187500.02, -187500.02, -187500.02, 0.000, 0.000, 0.000, 18:12:00.297
103, 25146.58, 52216.47, 187500.00, -187500.02, -154424.48, -187500.02, -187500.02, -187500.02, 0.000, 0.000, 0.000, 18:12:00.297
104, 24828.99, 52030.07, 187500.00, -187500.02, -154254.75, -187500.02, -187500.02, -187500.02, 0.000, 0.000, 0.000, 18:12:00.297
105, 25613.53, 52959.77, 187500.00, -187500.02, -154418.09, -187500.02, -187500.02, -187500.02, 0.000, 0.000, 0.000, 18:12:00.297
106, 26060.41, 53305.38, 187500.00, -187500.02, -154571.00, -187500.02, -187500.02, -187500.02, 0.000, 0.000, 0.000, 18:12:00.298
107, 25757.12, 52841.40, 187500.00, -187500.02, -154609.94, -187500.02, -187500.02, -187500.02, 0.000, 0.000, 0.000, 18:12:00.298
108, 25137.64, 52208.46, 187500.00, -187500.02, -154364.14, -187500.02, -187500.02, -187500.02, 0.000, 0.000, 0.000, 18:12:00.298
109, 24809.72, 52014.54, 187500.00, -187500.02, -154154.03, -187500.02, -187500.02, -187500.02, 0.000, 0.000, 0.000, 18:12:00.298
110, 25609.58, 52957.05, 187500.00, -187500.02, -154345.55, -187500.02, -187500.02, -187500.02, 0.018, -0.012, 1.018, 18:12:00.298
111, 26080.55, 53330.10, 187500.00, -187500.02, -154581.11, -187500.02, -187500.02, -187500.02, 0.000, 0.000, 0.000, 18:12:00.299
112, 25793.64, 52876.74, 187500.00, -187500.02, -154664.50, -187500.02, -187500.02, -187500.02, 0.000, 0.000, 0.000, 18:12:00.299
113, 25183.64, 52255.49, 187500.00, -187500.02, -154476.20, -187500.02, -187500.02, -187500.02, 0.000, 0.000, 0.000, 18:12:00.299
114, 24840.05, 52053.07, 187500.00, -187500.02, -154253.67, -187500.02, -187500.02, -187500.02, 0.000, 0.000, 0.000, 18:12:00.299
115, 25618.92, 52979.06, 187500.00, -187500.02, -154407.23, -187500.02, -187500.02, -187500.02, 0.000, 0.000, 0.000, 18:12:00.299
116, 26082.76, 53347.49, 187500.00, -187500.02, -154581.11, -187500.02, -187500.02, -187500.02, 0.000, 0.000, 0.000, 18:12:00.300
117, 25794.27, 52894.71, 187500.00, -187500.02, -154640.63, -187500.02, -187500.02, -187500.02, 0.000, 0.000, 0.000, 18:12:00.300
118, 25180.31, 52255.34, 187500.00, -187500.02, -154441.61, -187500.02, -187500.02, -187500.02, 0.000, 0.000, 0.000, 18:12:00.300
119, 24833.55, 52039.08, 187500.00, -187500.02, -154214.56, -187500.02, -187500.02, -187500.02, 0.000, 0.000, 0.000, 18:12:00.300
120, 25613.85, 52962.57, 187500.00, -187500.02, -154385.84, -187500.02, -187500.02, -187500.02, 0.022, -0.018, 1.020, 18:12:00.300
121, 26083.55, 53334.81, 187500.00, -187500.02, -154563.22, -187500.02, -187500.02, -187500.02, 0.000, 0.000, 0.000, 18:12:00.300
122, 25789.02, 52881.30, 187500.00, -187500.02, -154616.38, -187500.02, -187500.02, -187500.02, 0.000, 0.000, 0.000, 18:12:00.301
123, 25179.28, 52249.61, 187500.00, -187500.02, -154383.41, -187500.02, -187500.02, -187500.02, 0.000, 0.000, 0.000, 18:12:00.301
124, 24833.44, 52037.61, 187500.00, -187500.02, -154160.73, -187500.02, -187500.02, -187500.02, 0.000, 0.000, 0.000, 18:12:00.301
125, 25614.72, 52966.08, 187500.00, -187500.02, -154344.58, -187500.02, -187500.02, -187500.02, 0.000, 0.000, 0.000, 18:12:00.301
126, 26092.38, 53353.81, 187500.00, -187500.02, -154574.17, -187500.02, -187500.02, -187500.02, 0.000, 0.000, 0.000, 18:12:00.301
127, 25805.60, 52902.91, 187500.00, -187500.02, -154624.80, -187500.02, -187500.02, -187500.02, 0.000, 0.000, 0.000, 18:12:00.301
128, 25198.24, 52273.20, 187500.00, -187500.02, -154454.42, -187500.02, -187500.02, -187500.02, 0.000, 0.000, 0.000, 18:12:00.302
129, 24841.01, 52045.45, 187500.00, -187500.02, -154260.72, -187500.02, -187500.02, -187500.02, 0.018, -0.016, 1.010, 18:12:00.302
130, 25607.37, 52961.72, 187500.00, -187500.02, -154414.50, -187500.02, -187500.02, -187500.02, 0.000, 0.000, 0.000, 18:12:00.302
131, 26091.59, 53351.45, 187500.00, -187500.02, -154599.97, -187500.02, -187500.02, -187500.02, 0.000, 0.000, 0.000, 18:12:00.302
132, 25799.50, 52890.68, 187500.00, -187500.02, -154652.31, -187500.02, -187500.02, -187500.02, 0.000, 0.000, 0.000, 18:12:00.302
133, 25188.54, 52262.20, 187500.00, -187500.02, -154469.91, -187500.02, -187500.02, -187500.02, 0.000, 0.000, 0.000, 18:12:00.302
134, 24828.50, 52028.51, 187500.00, -187500.02, -154254.91, -187500.02, -187500.02, -187500.02, 0.000, 0.000, 0.000, 18:12:00.303
135, 25602.04, 52954.14, 187500.00, -187500.02, -154432.48, -187500.02, -187500.02, -187500.02, 0.000, 0.000, 0.000, 18:12:00.303
136, 26085.69, 53346.01, 187500.00, -187500.02, -154605.05, -187500.02, -187500.02, -187500.02, 0.000, 0.000, 0.000, 18:12:00.303
137, 25799.19, 52890.04, 187500.00, -187500.02, -154665.80, -187500.02, -187500.02, -187500.02, 0.000, 0.000, 0.000, 18:12:00.303
138, 25196.32, 52264.90, 187500.00, -187500.02, -154442.86, -187500.02, -187500.02, -187500.02, 0.000, 0.000, 0.000, 18:12:00.303
139, 24829.48, 52029.79, 187500.00, -187500.02, -154235.45, -187500.02, -187500.02, -187500.02, 0.018, -0.016, 1.020, 18:12:00.303
140, 25589.26, 52943.82, 187500.00, -187500.02, -154370.55, -187500.02, -187500.02, -187500.02, 0.000, 0.000, 0.000, 18:12:00.304
141, 26092.06, 53352.18, 187500.00, -187500.02, -154551.84, -187500.02, -187500.02, -187500.02, 0.000, 0.000, 0.000, 18:12:00.304
142, 25818.19, 52907.74, 187500.00, -187500.02, -154638.53, -187500.02, -187500.02, -187500.02, 0.000, 0.000, 0.000, 18:12:00.304
143, 25219.58, 52284.64, 187500.00, -187500.02, -154478.02, -187500.02, -187500.02, -187500.02, 0.000, 0.000, 0.000, 18:12:00.304
144, 24843.81, 52040.07, 187500.00, -187500.02, -154281.61, -187500.02, -187500.02, -187500.02, 0.000, 0.000, 0.000, 18:12:00.304
145, 25605.91, 52953.34, 187500.00, -187500.02, -154450.38, -187500.02, -187500.02, -187500.02, 0.000, 0.000, 0.000, 18:12:00.304
146, 26104.91, 53359.96, 187500.00, -187500.02, -154659.00, -187500.02, -187500.02, -187500.02, 0.000, 0.000, 0.000, 18:12:00.304
147, 25822.50, 52909.82, 187500.00, -187500.02, -154689.06, -187500.02, -187500.02, -187500.02, 0.000, 0.000, 0.000, 18:12:00.304
148, 25218.31, 52290.21, 187500.00, -187500.02, -154478.63, -187500.02, -187500.02, -187500.02, 0.000, 0.000, 0.000, 18:12:00.305
149, 24824.94, 52032.76, 187500.00, -187500.02, -154252.61, -187500.02, -187500.02, -187500.02, 0.026, -0.012, 1.016, 18:12:00.305
150, 25571.78, 52937.49, 187500.00, -187500.02, -154417.36, -187500.02, -187500.02, -187500.02, 0.000, 0.000, 0.000, 18:12:00.305
151, 26077.64, 53356.32, 187500.00, -187500.02, -154586.38, -187500.02, -187500.02, -187500.02, 0.000, 0.000, 0.000, 18:12:00.305
152, 25811.30, 52911.59, 187500.00, -187500.02, -154641.83, -187500.02, -187500.02, -187500.02, 0.000, 0.000, 0.000, 18:12:00.305
153, 25213.44, 52287.72, 187500.00, -187500.02, -154440.56, -187500.02, -187500.02, -187500.02, 0.000, 0.000, 0.000, 18:12:00.305
154, 24839.92, 52034.25, 187500.00, -187500.02, -154236.11, -187500.02, -187500.02, -187500.02, 0.000, 0.000, 0.000, 18:12:00.305
155, 25581.73, 52941.25, 187500.00, -187500.02, -154375.52, -187500.02, -187500.02, -187500.02, 0.000, 0.000, 0.000, 18:12:00.305
156, 26084.60, 53364.88, 187500.00, -187500.02, -154577.42, -187500.02, -187500.02, -187500.02, 0.000, 0.000, 0.000, 18:12:00.306
157, 25814.30, 52923.77, 187500.00, -187500.02, -154643.98, -187500.02, -187500.02, -187500.02, 0.000, 0.000, 0.000, 18:12:00.306
158, 25216.14, 52301.76, 187500.00, -187500.02, -154453.81, -187500.02, -187500.02, -187500.02, 0.000, 0.000, 0.000, 18:12:00.306
159, 24839.87, 52046.35, 187500.00, -187500.02, -154257.70, -187500.02, -187500.02, -187500.02, 0.020, -0.006, 1.014, 18:12:00.306
160, 25588.41, 52948.33, 187500.00, -187500.02, -154420.95, -187500.02, -187500.02, -187500.02, 0.000, 0.000, 0.000, 18:12:00.306
161, 26090.32, 53361.52, 187500.00, -187500.02, -154609.73, -187500.02, -187500.02, -187500.02, 0.000, 0.000, 0.000, 18:12:00.306
162, 25821.27, 52921.31, 187500.00, -187500.02, -154682.27, -187500.02, -187500.02, -187500.02, 0.000, 0.000, 0.000, 18:12:00.306
163, 25226.98, 52307.95, 187500.00, -187500.02, -154490.14, -187500.02, -187500.02, -187500.02, 0.000, 0.000, 0.000, 18:12:00.306
164, 24827.11, 52036.78, 187500.00, -187500.02, -154272.58, -187500.02, -187500.02, -187500.02, 0.000, 0.000, 0.000, 18:12:00.306
165, 25567.27, 52935.72, 187500.00, -187500.02, -154419.08, -187500.02, -187500.02, -187500.02, 0.000, 0.000, 0.000, 18:12:00.307
166, 26090.72, 53372.63, 187500.00, -187500.02, -154609.89, -187500.02, -187500.02, -187500.02, 0.000, 0.000, 0.000, 18:12:00.307
167, 25827.35, 52930.52, 187500.00, -187500.02, -154683.14, -187500.02, -187500.02, -187500.02, 0.000, 0.000, 0.000, 18:12:00.307
168, 25229.17, 52306.19, 187500.00, -187500.02, -154471.83, -187500.02, -187500.02, -187500.02, 0.000, 0.000, 0.000, 18:12:00.307
169, 24827.18, 52022.57, 187500.00, -187500.02, -154223.03, -187500.02, -187500.02, -187500.02, 0.014, -0.006, 1.026, 18:12:00.307
170, 25568.63, 52924.97, 187500.00, -187500.02, -154359.48, -187500.02, -187500.02, -187500.02, 0.000, 0.000, 0.000, 18:12:00.308
171, 26100.67, 53374.94, 187500.00, -187500.02, -154560.39, -187500.02, -187500.02, -187500.02, 0.000, 0.000, 0.000, 18:12:00.308
172, 25848.45, 52950.30, 187500.00, -187500.02, -154638.44, -187500.02, -187500.02, -187500.02, 0.000, 0.000, 0.000, 18:12:00.308
173, 25261.63, 52338.17, 187500.00, -187500.02, -154515.17, -187500.02, -187500.02, -187500.02, 0.000, 0.000, 0.000, 18:12:00.308
174, 24858.07, 52045.50, 187500.00, -187500.02, -154280.66, -187500.02, -187500.02, -187500.02, 0.000, 0.000, 0.000, 18:12:00.308
175, 25582.96, 52935.61, 187500.00, -187500.02, -154439.95, -187500.02, -187500.02, -187500.02, 0.000, 0.000, 0.000, 18:12:00.308
176, 26104.47, 53380.46, 187500.00, -187500.02, -154623.38, -187500.02, -187500.02, -187500.02, 0.000, 0.000, 0.000, 18:12:00.309
177, 25847.45, 52953.32, 187500.00, -187500.02, -154666.75, -187500.02, -187500.02, -187500.02, 0.000, 0.000, 0.000, 18:12:00.309
178, 25252.73, 52327.13, 187500.00, -187500.02, -154466.80, -187500.02, -187500.02, -187500.02, 0.000, 0.000, 0.000, 18:12:00.309
179, 24845.26, 52042.41, 187500.00, -187500.02, -154231.19, -187500.02, -187500.02, -187500.02, 0.016, -0.016, 1.030, 18:12:00.309
180, 25568.67, 52931.63, 187500.00, -187500.02, -154362.02, -187500.02, -187500.02, -187500.02, 0.000, 0.000, 0.000, 18:12:00.309
181, 26103.24, 53385.78, 187500.00, -187500.02, -154575.31, -187500.02, -187500.02, -187500.02, 0.000, 0.000, 0.000, 18:12:00.309
182, 25852.76, 52961.59, 187500.00, -187500.02, -154650.42, -187500.02, -187500.02, -187500.02, 0.000, 0.000, 0.000, 18:12:00.310
183, 25260.20, 52340.05, 187500.00, -187500.02, -154451.13, -187500.02, -187500.02, -187500.02, 0.000, 0.000, 0.000, 18:12:00.310
184, 24843.65, 52038.75, 187500.00, -187500.02, -154214.98, -187500.02, -187500.02, -187500.02, 0.000, 0.000, 0.000, 18:12:00.310
185, 25566.95, 52925.13, 187500.00, -187500.02, -154357.34, -187500.02, -187500.02, -187500.02, 0.000, 0.000, 0.000, 18:12:00.310
186, 26108.36, 53394.54, 187500.00, -187500.02, -154553.28, -187500.02, -187500.02, -187500.02, 0.000, 0.000, 0.000, 18:12:00.310
187, 25866.73, 52978.13, 187500.00, -187500.02, -154666.72, -187500.02, -187500.02, -187500.02, 0.000, 0.000, 0.000, 18:12:00.311
188, 25271.35, 52352.34, 187500.00, -187500.02, -154493.17, -187500.02, -187500.02, -187500.02, 0.000, 0.000, 0.000, 18:12:00.311
189, 24858.29, 52045.23, 187500.00, -187500.02, -154269.28, -187500.02, -187500.02, -187500.02, 0.012, -0.012, 1.026, 18:12:00.311
190, 25573.93, 52924.08, 187500.00, -187500.02, -154397.91, -187500.02, -187500.02, -187500.02, 0.000, 0.000, 0.000, 18:12:00.311
191, 26112.13, 53399.30, 187500.00, -187500.02, -154597.00, -187500.02, -187500.02, -187500.02, 0.000, 0.000, 0.000, 18:12:00.311
192, 25867.56, 52983.24, 187500.00, -187500.02, -154697.58, -187500.02, -187500.02, -187500.02, 0.000, 0.000, 0.000, 18:12:00.311
193, 25281.54, 52366.38, 187500.00, -187500.02, -154537.20, -187500.02, -187500.02, -187500.02, 0.000, 0.000, 0.000, 18:12:00.312
194, 24845.15, 52043.31, 187500.00, -187500.02, -154296.25, -187500.02, -187500.02, -187500.02, 0.000, 0.000, 0.000, 18:12:00.312
195, 25554.82, 52923.88, 187500.00, -187500.02, -154377.30, -187500.02, -187500.02, -187500.02, 0.000, 0.000, 0.000, 18:12:00.312
196, 26106.08, 53404.20, 187500.00, -187500.02, -154568.20, -187500.02, -187500.02, -187500.02, 0.000, 0.000, 0.000, 18:12:00.312
197, 25864.05, 52981.19, 187500.00, -187500.02, -154653.81, -187500.02, -187500.02, -187500.02, 0.000, 0.000, 0.000, 18:12:00.312
198, 25268.40, 52358.13, 187500.00, -187500.02, -154460.45, -187500.02, -187500.02, -187500.02, 0.000, 0.000, 0.000, 18:12:00.312
199, 24841.64, 52039.78, 187500.00, -187500.02, -154219.75, -187500.02, -187500.02, -187500.02, 0.014, -0.008, 1.020, 18:12:00.313
200, 25558.57, 52918.96, 187500.00, -187500.02, -154341.67, -187500.02, -187500.02, -187500.02, 0.000, 0.000, 0.000, 18:12:00.313
201, 26127.04, 53411.32, 187500.00, -187500.02, -154548.36, -187500.02, -187500.02, -187500.02, 0.000, 0.000, 0.000, 18:12:00.313
202, 25886.52, 52997.30, 187500.00, -187500.02, -154639.11, -187500.02, -187500.02, -187500.02, 0.000, 0.000, 0.000, 18:12:00.313
203, 25292.41, 52377.55, 187500.00, -187500.02, -154474.78, -187500.02, -187500.02, -187500.02, 0.000, 0.000, 0.000, 18:12:00.313
204, 24858.25, 52055.60, 187500.00, -187500.02, -154269.41, -187500.02, -187500.02, -187500.02, 0.000, 0.000, 0.000, 18:12:00.314
205, 25559.20, 52926.07, 187500.00, -187500.02, -154420.78, -187500.02, -187500.02, -187500.02, 0.000, 0.000, 0.000, 18:12:00.314
206, 26119.00, 53407.43, 187500.00, -187500.02, -154624.69, -187500.02, -187500.02, -187500.02, 0.000, 0.000, 0.000, 18:12:00.314
207, 25877.82, 52990.24, 187500.00, -187500.02, -154684.28, -187500.02, -187500.02, -187500.02, 0.000, 0.000, 0.000, 18:12:00.314
208, 25299.22, 52377.29, 187500.00, -187500.02, -154481.02, -187500.02, -187500.02, -187500.02, 0.000, 0.000, 0.000, 18:12:00.314
209, 24852.39, 52037.79, 187500.00, -187500.02, -154237.77, -187500.02, -187500.02, -187500.02, 0.010, -0.010, 1.020, 18:12:00.315
210, 25550.99, 52909.37, 187500.00, -187500.02, -154398.31, -187500.02, -187500.02, -187500.02, 0.000, 0.000, 0.000, 18:12:00.774
211, 26118.75, 53405.91, 187500.00, -187500.02, -154590.58, -187500.02, -187500.02, -187500.02, 0.000, 0.000, 0.000, 18:12:00.774
212, 25881.78, 52993.57, 187500.00, -187500.02, -154648.81, -187500.02, -187500.02, -187500.02, 0.000, 0.000, 0.000, 18:12:00.774
213, 25295.42, 52381.31, 187500.00, -187500.02, -154483.97, -187500.02, -187500.02, -187500.02, 0.000, 0.000, 0.000, 18:12:00.774
214, 24847.34, 52042.91, 187500.00, -187500.02, -154243.44, -187500.02, -187500.02, -187500.02, 0.000, 0.000, 0.000, 18:12:00.775
215, 25545.90, 52913.73, 187500.00, -187500.02, -154380.97, -187500.02, -187500.02, -187500.02, 0.000, 0.000, 0.000, 18:12:00.775
216, 26122.01, 53418.39, 187500.00, -187500.02, -154571.83, -187500.02, -187500.02, -187500.02, 0.000, 0.000, 0.000, 18:12:00.775
217, 25898.03, 53016.28, 187500.00, -187500.02, -154696.33, -187500.02, -187500.02, -187500.02, 0.000, 0.000, 0.000, 18:12:00.775
218, 25319.56, 52407.26, 187500.00, -187500.02, -154533.86, -187500.02, -187500.02, -187500.02, 0.000, 0.000, 0.000, 18:12:00.775
219, 24869.98, 52062.73, 187500.00, -187500.02, -154300.97, -187500.02, -187500.02, -187500.02, 0.018, -0.008, 1.024, 18:12:00.776
220, 25556.49, 52921.57, 187500.00, -187500.02, -154424.05, -187500.02, -187500.02, -187500.02, 0.000, 0.000, 0.000, 18:12:00.776
221, 26136.27, 53434.82, 187500.00, -187500.02, -154640.83, -187500.02, -187500.02, -187500.02, 0.000, 0.000, 0.000, 18:12:00.776
222, 25908.24, 53028.64, 187500.00, -187500.02, -154724.31, -187500.02, -187500.02, -187500.02, 0.000, 0.000, 0.000, 18:12:00.776
223, 25325.26, 52412.20, 187500.00, -187500.02, -154537.56, -187500.02, -187500.02, -187500.02, 0.000, 0.000, 0.000, 18:12:00.776
224, 24864.33, 52057.05, 187500.00, -187500.02, -154294.84, -187500.02, -187500.02, -187500.02, 0.000, 0.000, 0.000, 18:12:00.776
225, 25543.86, 52905.73, 187500.00, -187500.02, -154395.63, -187500.02, -187500.02, -187500.02, 0.000, 0.000, 0.000, 18:12:00.777
226, 26125.54, 53419.95, 187500.00, -187500.02, -154576.80, -187500.02, -187500.02, -187500.02, 0.000, 0.000, 0.000, 18:12:00.777
227, 25904.71, 53026.14, 187500.00, -187500.02, -154663.16, -187500.02, -187500.02, -187500.02, 0.000, 0.000, 0.000, 18:12:00.777
228, 25322.47, 52414.79, 187500.00, -187500.02, -154488.30, -187500.02, -187500.02, -187500.02, 0.000, 0.000, 0.000, 18:12:00.777
229, 24868.26, 52064.92, 187500.00, -187500.02, -154261.30, -187500.02, -187500.02, -187500.02, 0.014, -0.014, 1.020, 18:12:00.777
230, 25552.09, 52921.20, 187500.00, -187500.02, -154405.53, -187500.02, -187500.02, -187500.02, 0.000, 0.000, 0.000, 18:12:00.777
231, 26140.90, 53444.43, 187500.00, -187500.02, -154624.83, -187500.02, -187500.02, -187500.02, 0.000, 0.000, 0.000, 18:12:00.778
232, 25924.07, 53053.52, 187500.00, -187500.02, -154740.34, -187500.02, -187500.02, -187500.02, 0.000, 0.000, 0.000, 18:12:00.778
233, 25358.25, 52448.68, 187500.00, -187500.02, -154618.34, -187500.02, -187500.02, -187500.02, 0.000, 0.000, 0.000, 18:12:00.778
234, 24885.00, 52075.72, 187500.00, -187500.02, -154359.78, -187500.02, -187500.02, -187500.02, 0.000, 0.000, 0.000, 18:12:00.778
235, 25548.78, 52921.78, 187500.00, -187500.02, -154477.80, -187500.02, -187500.02, -187500.02, 0.000, 0.000, 0.000, 18:12:00.778
236, 26140.01, 53446.86, 187500.00, -187500.02, -154690.92, -187500.02, -187500.02, -187500.02, 0.000, 0.000, 0.000, 18:12:00.779
237, 25918.39, 53049.09, 187500.00, -187500.02, -154786.27, -187500.02, -187500.02, -187500.02, 0.000, 0.000, 0.000, 18:12:00.779
238, 25338.76, 52440.16, 187500.00, -187500.02, -154600.16, -187500.02, -187500.02, -187500.02, 0.000, 0.000, 0.000, 18:12:00.779
239, 24865.42, 52072.37, 187500.00, -187500.02, -154366.81, -187500.02, -187500.02, -187500.02, 0.018, -0.016, 1.024, 18:12:00.779
240, 25527.35, 52908.99, 187500.00, -187500.02, -154469.55, -187500.02, -187500.02, -187500.02, 0.000, 0.000, 0.000, 18:12:00.779
241, 26122.42, 53442.26, 187500.00, -187500.02, -154642.73, -187500.02, -187500.02, -187500.02, 0.000, 0.000, 0.000, 18:12:00.779
242, 25919.26, 53067.53, 187500.00, -187500.02, -154731.56, -187500.02, -187500.02, -187500.02, 0.000, 0.000, 0.000, 18:12:00.780
243, 25349.29, 52453.82, 187500.00, -187500.02, -154543.78, -187500.02, -187500.02, -187500.02, 0.000, 0.000, 0.000, 18:12:00.780
244, 24857.24, 52066.02, 187500.00, -187500.02, -154287.63, -187500.02, -187500.02, -187500.02, 0.000, 0.000, 0.000, 18:12:00.780
245, 25525.54, 52909.10, 187500.00, -187500.02, -154395.27, -187500.02, -187500.02, -187500.02, 0.000, 0.000, 0.000, 18:12:00.780
246, 26143.94, 53459.25, 187500.00, -187500.02, -154616.73, -187500.02, -187500.02, -187500.02, 0.000, 0.000, 0.000, 18:12:00.780
247, 25940.56, 53080.23, 187500.00, -187500.02, -154746.86, -187500.02, -187500.02, -187500.02, 0.000, 0.000, 0.000, 18:12:00.781
248, 25367.46, 52473.54, 187500.00, -187500.02, -154613.84, -187500.02, -187500.02, -187500.02, 0.014, -0.010, 1.020, 18:12:00.781
249, 24879.68, 52083.90, 187500.00, -187500.02, -154368.14, -187500.02, -187500.02, -187500.02, 0.000, 0.000, 0.000, 18:12:00.781
250, 25540.42, 52917.93, 187500.00, -187500.02, -154506.25, -187500.02, -187500.02, -187500.02, 0.000, 0.000, 0.000, 18:12:00.781
251, 26150.04, 53463.45, 187500.00, -187500.02, -154722.28, -187500.02, -187500.02, -187500.02, 0.000, 0.000, 0.000, 18:12:00.781
252, 25939.06, 53067.00, 187500.00, -187500.02, -154782.73, -187500.02, -187500.02, -187500.02, 0.000, 0.000, 0.000, 18:12:00.781
253, 25371.38, 52461.84, 187500.00, -187500.02, -154603.22, -187500.02, -187500.02, -187500.02, 0.000, 0.000, 0.000, 18:12:00.782
254, 24884.78, 52075.02, 187500.00, -187500.02, -154364.50, -187500.02, -187500.02, -187500.02, 0.000, 0.000, 0.000, 18:12:00.782
255, 25532.29, 52906.62, 187500.00, -187500.02, -154450.14, -187500.02, -187500.02, -187500.02, 0.000, 0.000, 0.000, 18:12:00.782
0, 26142.53, 53455.92, 187500.00, -187500.02, -154625.52, -187500.02, -187500.02, -187500.02, 0.000, 0.000, 0.000, 18:12:00.782
1, 25939.96, 53078.21, 187500.00, -187500.02, -154694.05, -187500.02, -187500.02, -187500.02, 0.000, 0.000, 0.000, 18:12:00.782
2, 25374.62, 52481.89, 187500.00, -187500.02, -154555.41, -187500.02, -187500.02, -187500.02, 0.016, -0.006, 1.022, 18:12:00.782
3, 24887.79, 52084.95, 187500.00, -187500.02, -154316.64, -187500.02, -187500.02, -187500.02, 0.000, 0.000, 0.000, 18:12:00.783
4, 25537.56, 52910.69, 187500.00, -187500.02, -154433.25, -187500.02, -187500.02, -187500.02, 0.000, 0.000, 0.000, 18:12:00.783
5, 26156.90, 53478.13, 187500.00, -187500.02, -154646.22, -187500.02, -187500.02, -187500.02, 0.000, 0.000, 0.000, 18:12:00.783
6, 25955.94, 53099.52, 187500.00, -187500.02, -154734.38, -187500.02, -187500.02, -187500.02, 0.000, 0.000, 0.000, 18:12:00.783
7, 25398.51, 52498.01, 187500.00, -187500.02, -154632.47, -187500.02, -187500.02, -187500.02, 0.000, 0.000, 0.000, 18:12:00.783
8, 24903.24, 52095.97, 187500.00, -187500.02, -154419.13, -187500.02, -187500.02, -187500.02, 0.000, 0.000, 0.000, 18:12:00.784
9, 25538.61, 52915.74, 187500.00, -187500.02, -154565.42, -187500.02, -187500.02, -187500.02, 0.000, 0.000, 0.000, 18:12:00.784
10, 26152.12, 53472.77, 187500.00, -187500.02, -154774.81, -187500.02, -187500.02, -187500.02, 0.000, 0.000, 0.000, 18:12:00.784
11, 25960.16, 53096.99, 187500.00, -187500.02, -154830.03, -187500.02, -187500.02, -187500.02, 0.000, 0.000, 0.000, 18:12:00.784
12, 25385.17, 52490.90, 187500.00, -187500.02, -154650.02, -187500.02, -187500.02, -187500.02, 0.016, -0.006, 1.022, 18:12:00.784
13, 24875.88, 52078.71, 187500.00, -187500.02, -154376.94, -187500.02, -187500.02, -187500.02, 0.000, 0.000, 0.000, 18:12:00.784
14, 25511.74, 52892.83, 187500.00, -187500.02, -154468.92, -187500.02, -187500.02, -187500.02, 0.000, 0.000, 0.000, 18:12:00.785
15, 26141.66, 53471.09, 187500.00, -187500.02, -154661.81, -187500.02, -187500.02, -187500.02, 0.000, 0.000, 0.000, 18:12:00.785
16, 25955.49, 53101.57, 187500.00, -187500.02, -154729.63, -187500.02, -187500.02, -187500.02, 0.000, 0.000, 0.000, 18:12:00.785
17, 25393.35, 52501.90, 187500.00, -187500.02, -154553.86, -187500.02, -187500.02, -187500.02, 0.000, 0.000, 0.000, 18:12:00.785
18, 24894.28, 52097.64, 187500.00, -187500.02, -154324.28, -187500.02, -187500.02, -187500.02, 0.000, 0.000, 0.000, 18:12:00.785
19, 25532.35, 52907.43, 187500.00, -187500.02, -154442.30, -187500.02, -187500.02, -187500.02, 0.000, 0.000, 0.000, 18:12:00.785
20, 26160.79, 53482.58, 187500.00, -187500.02, -154658.53, -187500.02, -187500.02, -187500.02, 0.000, 0.000, 0.000, 18:12:00.785
21, 25972.90, 53122.68, 187500.00, -187500.02, -154778.00, -187500.02, -187500.02, -187500.02, 0.000, 0.000, 0.000, 18:12:00.786
22, 25411.52, 52526.51, 187500.00, -187500.02, -154653.69, -187500.02, -187500.02, -187500.02, 0.016, -0.010, 1.022, 18:12:00.786
23, 24904.38, 52106.12, 187500.00, -187500.02, -154399.63, -187500.02, -187500.02, -187500.02, 0.000, 0.000, 0.000, 18:12:00.786
24, 25529.25, 52906.60, 187500.00, -187500.02, -154497.28, -187500.02, -187500.02, -187500.02, 0.000, 0.000, 0.000, 18:12:00.786
25, 26159.56, 53489.27, 187500.00, -187500.02, -154710.00, -187500.02, -187500.02, -187500.02, 0.000, 0.000, 0.000, 18:12:00.786
26, 25961.08, 53115.28, 187500.00, -187500.02, -154780.27, -187500.02, -187500.02, -187500.02, 0.000, 0.000, 0.000, 18:12:00.786
27, 25407.88, 52526.17, 187500.00, -187500.02, -154647.28, -187500.02, -187500.02, -187500.02, 0.000, 0.000, 0.000, 18:12:00.786
28, 24892.47, 52100.42, 187500.00, -187500.02, -154409.56, -187500.02, -187500.02, -187500.02, 0.000, 0.000, 0.000, 18:12:00.786
29, 25498.33, 52884.70, 187500.00, -187500.02, -154476.95, -187500.02, -187500.02, -187500.02, 0.000, 0.000, 0.000, 18:12:00.786
30, 26137.64, 53474.73, 187500.00, -187500.02, -154668.95, -187500.02, -187500.02, -187500.02, 0.000, 0.000, 0.000, 18:12:00.787
31, 25956.14, 53111.52, 187500.00, -187500.02, -154752.13, -187500.02, -187500.02, -187500.02, 0.000, 0.000, 0.000, 18:12:00.787
32, 25400.86, 52510.04, 187500.00, -187500.02, -154588.09, -187500.02, -187500.02, -187500.02, 0.014, -0.016, 1.026, 18:12:00.787
33, 24883.53, 52080.57, 187500.00, -187500.02, -154337.50, -187500.02, -187500.02, -187500.02, 0.000, 0.000, 0.000, 18:12:00.787
34, 25498.58, 52879.58, 187500.00, -187500.02, -154448.05, -187500.02, -187500.02, -187500.02, 0.000, 0.000, 0.000, 18:12:00.787
35, 26147.94, 53471.61, 187500.00, -187500.02, -154650.69, -187500.02, -187500.02, -187500.02, 0.000, 0.000, 0.000, 18:12:00.787
36, 25971.34, 53114.70, 187500.00, -187500.02, -154765.66, -187500.02, -187500.02, -187500.02, 0.000, 0.000, 0.000, 18:12:00.787
37, 25421.44, 52528.18, 187500.00, -187500.02, -154655.17, -187500.02, -187500.02, -187500.02, 0.000, 0.000, 0.000, 18:12:00.787
38, 24896.47, 52087.34, 187500.00, -187500.02, -154403.47, -187500.02, -187500.02, -187500.02, 0.000, 0.000, 0.000, 18:12:00.787
39, 25497.84, 52873.45, 187500.00, -187500.02, -154510.70, -187500.02, -187500.02, -187500.02, 0.000, 0.000, 0.000, 18:12:00.788
40, 26140.86, 53470.89, 187500.00, -187500.02, -154706.50, -187500.02, -187500.02, -187500.02, 0.000, 0.000, 0.000, 18:12:00.788
41, 25968.81, 53115.07, 187500.00, -187500.02, -154799.03, -187500.02, -187500.02, -187500.02, 0.000, 0.000, 0.000, 18:12:00.788
42, 25412.35, 52518.08, 187500.00, -187500.02, -154656.14, -187500.02, -187500.02, -187500.02, 0.012, -0.012, 1.028, 18:12:00.788
43, 24882.99, 52074.49, 187500.00, -187500.02, -154400.95, -187500.02, -187500.02, -187500.02, 0.000, 0.000, 0.000, 18:12:00.788
44, 25478.95, 52852.33, 187500.00, -187500.02, -154484.80, -187500.02, -187500.02, -187500.02, 0.000, 0.000, 0.000, 18:12:00.788
45, 26137.21, 53463.14, 187500.00, -187500.02, -154681.58, -187500.02, -187500.02, -187500.02, 0.000, 0.000, 0.000, 18:12:00.789
46, 25964.54, 53117.69, 187500.00, -187500.02, -154775.70, -187500.02, -187500.02, -187500.02, 0.000, 0.000, 0.000, 18:12:00.789
47, 25408.10, 52520.07, 187500.00, -187500.02, -154594.41, -187500.02, -187500.02, -187500.02, 0.000, 0.000, 0.000, 18:12:00.789
48, 24880.08, 52078.38, 187500.00, -187500.02, -154340.48, -187500.02, -187500.02, -187500.02, 0.000, 0.000, 0.000, 18:12:00.789
49, 25476.36, 52857.43, 187500.00, -187500.02, -154444.16, -187500.02, -187500.02, -187500.02, 0.000, 0.000, 0.000, 18:12:00.789
50, 26143.14, 53477.38, 187500.00, -187500.02, -154645.81, -187500.02, -187500.02, -187500.02, 0.000, 0.000, 0.000, 18:12:00.790
51, 25977.89, 53128.11, 187500.00, -187500.02, -154747.22, -187500.02, -187500.02, -187500.02, 0.000, 0.000, 0.000, 18:12:00.790
52, 25433.24, 52538.06, 187500.00, -187500.02, -154638.30, -187500.02, -187500.02, -187500.02, 0.010, -0.008, 1.028, 18:12:00.790
53, 24900.87, 52080.99, 187500.00, -187500.02, -154406.36, -187500.02, -187500.02, -187500.02, 0.000, 0.000, 0.000, 18:12:00.790
54, 25477.39, 52846.41, 187500.00, -187500.02, -154502.67, -187500.02, -187500.02, -187500.02, 0.000, 0.000, 0.000, 18:12:00.790
55, 26135.36, 53464.23, 187500.00, -187500.02, -154705.56, -187500.02, -187500.02, -187500.02, 0.000, 0.000, 0.000, 18:12:00.791
56, 25979.14, 53122.68, 187500.00, -187500.02, -154812.84, -187500.02, -187500.02, -187500.02, 0.000, 0.000, 0.000, 18:12:00.791
57, 25428.33, 52521.03, 187500.00, -187500.02, -154661.08, -187500.02, -187500.02, -187500.02, 0.000, 0.000, 0.000, 18:12:00.791
58, 24876.55, 52059.63, 187500.00, -187500.02, -154381.84, -187500.02, -187500.02, -187500.02, 0.000, 0.000, 0.000, 18:12:00.791
59, 25456.83, 52828.14, 187500.00, -187500.02, -154475.06, -187500.02, -187500.02, -187500.02, 0.000, 0.000, 0.000, 18:12:00.791
60, 26125.77, 53453.59, 187500.00, -187500.02, -154665.39, -187500.02, -187500.02, -187500.02, 0.000, 0.000, 0.000, 18:12:00.791
61, 25965.13, 53111.39, 187500.00, -187500.02, -154728.30, -187500.02, -187500.02, -187500.02, 0.000, 0.000, 0.000, 18:12:00.791
62, 25420.86, 52526.20, 187500.00, -187500.02, -154605.83, -187500.02, -187500.02, -187500.02, 0.014, -0.010, 1.028, 18:12:00.791
63, 24877.98, 52066.11, 187500.00, -187500.02, -154360.00, -187500.02, -187500.02, -187500.02, 0.000, 0.000, 0.000, 18:12:00.792
64, 25446.39, 52820.68, 187500.00, -187500.02, -154453.20, -187500.02, -187500.02, -187500.02, 0.000, 0.000, 0.000, 18:12:00.792
65, 26122.57, 53453.70, 187500.00, -187500.02, -154647.47, -187500.02, -187500.02, -187500.02, 0.000, 0.000, 0.000, 18:12:00.792
66, 25982.09, 53126.50, 187500.00, -187500.02, -154750.27, -187500.02, -187500.02, -187500.02, 0.000, 0.000, 0.000, 18:12:00.792
67, 25432.80, 52534.15, 187500.00, -187500.02, -154638.28, -187500.02, -187500.02, -187500.02, 0.000, 0.000, 0.000, 18:12:00.792
68, 24886.03, 52065.79, 187500.00, -187500.02, -154395.05, -187500.02, -187500.02, -187500.02, 0.000, 0.000, 0.000, 18:12:00.792
69, 25453.03, 52822.60, 187500.00, -187500.02, -154502.47, -187500.02, -187500.02, -187500.02, 0.000, 0.000, 0.000, 18:12:00.792
70, 26122.35, 53461.04, 187500.00, -187500.02, -154693.06, -187500.02, -187500.02, -187500.02, 0.000, 0.000, 0.000, 18:12:00.792
71, 25970.56, 53124.15, 187500.00, -187500.02, -154785.94, -187500.02, -187500.02, -187500.02, 0.000, 0.000, 0.000, 18:12:00.792
72, 25429.09, 52534.13, 187500.00, -187500.02, -154649.92, -187500.02, -187500.02, -187500.02, 0.018, -0.012, 1.024, 18:12:00.793
73, 24874.27, 52048.76, 187500.00, -187500.02, -154360.14, -187500.02, -187500.02, -187500.02, 0.000, 0.000, 0.000, 18:12:00.793
74, 25430.65, 52794.10, 187500.00, -187500.02, -154434.17, -187500.02, -187500.02, -187500.02, 0.000, 0.000, 0.000, 18:12:01.255
75, 26111.26, 53444.67, 187500.00, -187500.02, -154634.92, -187500.02, -187500.02, -187500.02, 0.000, 0.000, 0.000, 18:12:01.256
76, 25967.16, 53117.85, 187500.00, -187500.02, -154717.20, -187500.02, -187500.02, -187500.02, 0.000, 0.000, 0.000, 18:12:01.256
77, 25426.38, 52528.48, 187500.00, -187500.02, -154573.45, -187500.02, -187500.02, -187500.02, 0.000, 0.000, 0.000, 18:12:01.256
78, 24871.14, 52052.27, 187500.00, -187500.02, -154303.56, -187500.02, -187500.02, -187500.02, 0.000, 0.000, 0.000, 18:12:01.256
79, 25433.45, 52801.64, 187500.00, -187500.02, -154401.33, -187500.02, -187500.02, -187500.02, 0.000, 0.000, 0.000, 18:12:01.256
80, 26124.56, 53455.98, 187500.00, -187500.02, -154625.39, -187500.02, -187500.02, -187500.02, 0.000, 0.000, 0.000, 18:12:01.256
81, 25981.06, 53131.57, 187500.00, -187500.02, -154707.14, -187500.02, -187500.02, -187500.02, 0.000, 0.000, 0.000, 18:12:01.256
82, 25443.86, 52541.37, 187500.00, -187500.02, -154587.67, -187500.02, -187500.02, -187500.02, 0.020, -0.016, 1.026, 18:12:01.257
83, 24885.83, 52062.13, 187500.00, -187500.02, -154349.39, -187500.02, -187500.02, -187500.02, 0.000, 0.000, 0.000, 18:12:01.257
84, 25434.23, 52806.53, 187500.00, -187500.02, -154447.86, -187500.02, -187500.02, -187500.02, 0.000, 0.000, 0.000, 18:12:01.257
85, 26123.76, 53462.15, 187500.00, -187500.02, -154650.75, -187500.02, -187500.02, -187500.02, 0.000, 0.000, 0.000, 18:12:01.257
86, 25979.83, 53143.15, 187500.00, -187500.02, -154758.33, -187500.02, -187500.02, -187500.02, 0.000, 0.000, 0.000, 18:12:01.257
87, 25432.82, 52545.06, 187500.00, -187500.02, -154605.25, -187500.02, -187500.02, -187500.02, 0.000, 0.000, 0.000, 18:12:01.257
88, 24868.62, 52052.09, 187500.00, -187500.02, -154325.02, -187500.02, -187500.02, -187500.02, 0.000, 0.000, 0.000, 18:12:01.258
89, 25411.23, 52784.65, 187500.00, -187500.02, -154419.61, -187500.02, -187500.02, -187500.02, 0.000, 0.000, 0.000, 18:12:01.258
90, 26100.15, 53439.53, 187500.00, -187500.02, -154588.03, -187500.02, -187500.02, -187500.02, 0.000, 0.000, 0.000, 18:12:01.258
91, 25972.46, 53132.69, 187500.00, -187500.02, -154670.36, -187500.02, -187500.02, -187500.02, 0.000, 0.000, 0.000, 18:12:01.258
92, 25437.94, 52550.80, 187500.00, -187500.02, -154560.31, -187500.02, -187500.02, -187500.02, 0.020, -0.020, 1.034, 18:12:01.258
93, 24870.54, 52062.11, 187500.00, -187500.02, -154297.91, -187500.02, -187500.02, -187500.02, 0.000, 0.000, 0.000, 18:12:01.258
94, 25412.50, 52792.18, 187500.00, -187500.02, -154366.75, -187500.02, -187500.02, -187500.02, 0.000, 0.000, 0.000, 18:12:01.259
95, 26116.45, 53462.40, 187500.00, -187500.02, -154590.61, -187500.02, -187500.02, -187500.02, 0.000, 0.000, 0.000, 18:12:01.259
96, 25982.43, 53151.20, 187500.00, -187500.02, -154717.36, -187500.02, -187500.02, -187500.02, 0.000, 0.000, 0.000, 18:12:01.259
97, 25447.48, 52568.77, 187500.00, -187500.02, -154606.11, -187500.02, -187500.02, -187500.02, 0.000, 0.000, 0.000, 18:12:01.259
98, 24876.73, 52075.63, 187500.00, -187500.02, -154323.70, -187500.02, -187500.02, -187500.02, 0.000, 0.000, 0.000, 18:12:01.259
99, 25407.94, 52798.26, 187500.00, -187500.02, -154411.02, -187500.02, -187500.02, -187500.02, 0.000, 0.000, 0.000, 18:12:01.259
100, 26108.92, 53471.61, 187500.00, -187500.02, -154678.14, -187500.02, -187500.02, -187500.02, 0.000, 0.000, 0.000, 18:12:01.260
101, 25967.99, 53148.96, 187500.00, -187500.02, -154753.84, -187500.02, -187500.02, -187500.02, 0.000, 0.000, 0.000, 18:12:01.260
102, 25439.64, 52572.57, 187500.00, -187500.02, -154646.38, -187500.02, -187500.02, -187500.02, 0.016, -0.020, 1.030, 18:12:01.260
103, 24868.35, 52071.47, 187500.00, -187500.02, -154373.08, -187500.02, -187500.02, -187500.02, 0.000, 0.000, 0.000, 18:12:01.260
104, 25384.52, 52778.26, 187500.00, -187500.02, -154434.81, -187500.02, -187500.02, -187500.02, 0.000, 0.000, 0.000, 18:12:01.260
105, 26090.16, 53450.62, 187500.00, -187500.02, -154633.52, -187500.02, -187500.02, -187500.02, 0.000, 0.000, 0.000, 18:12:01.260
106, 25976.59, 53152.09, 187500.00, -187500.02, -154712.38, -187500.02, -187500.02, -187500.02, 0.000, 0.000, 0.000, 18:12:01.261
107, 25437.89, 52564.13, 187500.00, -187500.02, -154591.50, -187500.02, -187500.02, -187500.02, 0.000, 0.000, 0.000, 18:12:01.261
108, 24857.64, 52053.16, 187500.00, -187500.02, -154318.09, -187500.02, -187500.02, -187500.02, 0.000, 0.000, 0.000, 18:12:01.261
109, 25379.27, 52769.85, 187500.00, -187500.02, -154400.81, -187500.02, -187500.02, -187500.02, 0.000, 0.000, 0.000, 18:12:01.261
110, 26096.98, 53461.39, 187500.00, -187500.02, -154636.53, -187500.02, -187500.02, -187500.02, 0.000, 0.000, 0.000, 18:12:01.261
111, 25980.42, 53159.98, 187500.00, -187500.02, -154769.16, -187500.02, -187500.02, -187500.02, 0.008, -0.010, 1.022, 18:12:01.261
112, 25447.10, 52570.18, 187500.00, -187500.02, -154658.58, -187500.02, -187500.02, -187500.02, 0.000, 0.000, 0.000, 18:12:01.262
113, 24872.57, 52062.06, 187500.00, -187500.02, -154395.20, -187500.02, -187500.02, -187500.02, 0.000, 0.000, 0.000, 18:12:01.262
114, 25386.42, 52767.84, 187500.00, -187500.02, -154454.02, -187500.02, -187500.02, -187500.02, 0.000, 0.000, 0.000, 18:12:01.262
115, 26105.76, 53457.44, 187500.00, -187500.02, -154692.13, -187500.02, -187500.02, -187500.02, 0.000, 0.000, 0.000, 18:12:01.262
116, 25987.05, 53163.11, 187500.00, -187500.02, -154818.28, -187500.02, -187500.02, -187500.02, 0.000, 0.000, 0.000, 18:12:01.262
117, 25448.98, 52570.65, 187500.00, -187500.02, -154702.94, -187500.02, -187500.02, -187500.02, 0.000, 0.000, 0.000, 18:12:01.262
118, 24858.40, 52052.59, 187500.00, -187500.02, -154374.13, -187500.02, -187500.02, -187500.02, 0.000, 0.000, 0.000, 18:12:01.263
119, 25360.54, 52751.01, 187500.00, -187500.02, -154411.91, -187500.02, -187500.02, -187500.02, 0.000, 0.000, 0.000, 18:12:01.263
120, 26086.25, 53450.13, 187500.00, -187500.02, -154634.77, -187500.02, -187500.02, -187500.02, 0.000, 0.000, 0.000, 18:12:01.263
121, 25981.89, 53162.06, 187500.00, -187500.02, -154768.81, -187500.02, -187500.02, -187500.02, 0.012, -0.012, 1.022, 18:12:01.263
122, 25457.92, 52588.31, 187500.00, -187500.02, -154656.16, -187500.02, -187500.02, -187500.02, 0.000, 0.000, 0.000, 18:12:01.263
123, 24874.32, 52069.82, 187500.00, -187500.02, -154382.06, -187500.02, -187500.02, -187500.02, 0.000, 0.000, 0.000, 18:12:01.263
124, 25363.11, 52752.64, 187500.00, -187500.02, -154400.02, -187500.02, -187500.02, -187500.02, 0.000, 0.000, 0.000, 18:12:01.264
125, 26097.83, 53462.87, 187500.00, -187500.02, -154615.58, -187500.02, -187500.02, -187500.02, 0.000, 0.000, 0.000, 18:12:01.264
126, 25995.26, 53170.98, 187500.00, -187500.02, -154756.19, -187500.02, -187500.02, -187500.02, 0.000, 0.000, 0.000, 18:12:01.264
127, 25470.35, 52596.63, 187500.00, -187500.02, -154692.02, -187500.02, -187500.02, -187500.02, 0.000, 0.000, 0.000, 18:12:01.264
128, 24884.44, 52080.10, 187500.00, -187500.02, -154428.52, -187500.02, -187500.02, -187500.02, 0.000, 0.000, 0.000, 18:12:01.264
129, 25366.68, 52752.30, 187500.00, -187500.02, -154482.72, -187500.02, -187500.02, -187500.02, 0.000, 0.000, 0.000, 18:12:01.264
130, 26090.12, 53455.60, 187500.00, -187500.02, -154714.50, -187500.02, -187500.02, -187500.02, 0.000, 0.000, 0.000, 18:12:01.265
131, 25989.60, 53171.63, 187500.00, -187500.02, -154809.03, -187500.02, -187500.02, -187500.02, 0.012, -0.014, 1.018, 18:12:01.265
132, 25465.19, 52589.43, 187500.00, -187500.02, -154665.81, -187500.02, -187500.02, -187500.02, 0.000, 0.000, 0.000, 18:12:01.265
133, 24872.75, 52065.01, 187500.00, -187500.02, -154409.94, -187500.02, -187500.02, -187500.02, 0.000, 0.000, 0.000, 18:12:01.265
134, 25348.20, 52737.69, 187500.00, -187500.02, -154473.86, -187500.02, -187500.02, -187500.02, 0.000, 0.000, 0.000, 18:12:01.265
135, 26076.13, 53444.67, 187500.00, -187500.02, -154672.77, -187500.02, -187500.02, -187500.02, 0.000, 0.000, 0.000, 18:12:01.265
136, 25985.58, 53167.15, 187500.00, -187500.02, -154751.94, -187500.02, -187500.02, -187500.02, 0.000, 0.000, 0.000, 18:12:01.266
137, 25456.67, 52585.54, 187500.00, -187500.02, -154620.16, -187500.02, -187500.02, -187500.02, 0.000, 0.000, 0.000, 18:12:01.266
138, 24856.84, 52053.19, 187500.00, -187500.02, -154336.05, -187500.02, -187500.02, -187500.02, 0.000, 0.000, 0.000, 18:12:01.266
139, 25334.27, 52723.61, 187500.00, -187500.02, -154408.30, -187500.02, -187500.02, -187500.02, 0.000, 0.000, 0.000, 18:12:01.266
140, 26077.20, 53445.99, 187500.00, -187500.02, -154622.77, -187500.02, -187500.02, -187500.02, 0.000, 0.000, 0.000, 18:12:01.266
141, 25998.16, 53186.29, 187500.00, -187500.02, -154755.78, -187500.02, -187500.02, -187500.02, 0.010, -0.012, 1.024, 18:12:01.267
142, 25482.78, 52613.61, 187500.00, -187500.02, -154674.95, -187500.02, -187500.02, -187500.02, 0.000, 0.000, 0.000, 18:12:01.267
143, 24877.69, 52070.93, 187500.00, -187500.02, -154393.58, -187500.02, -187500.02, -187500.02, 0.000, 0.000, 0.000, 18:12:01.267
144, 25338.92, 52729.37, 187500.00, -187500.02, -154444.61, -187500.02, -187500.02, -187500.02, 0.000, 0.000, 0.000, 18:12:01.267
145, 26081.31, 53453.50, 187500.00, -187500.02, -154691.02, -187500.02, -187500.02, -187500.02, 0.000, 0.000, 0.000, 18:12:01.267
146, 25985.44, 53178.20, 187500.00, -187500.02, -154785.11, -187500.02, -187500.02, -187500.02, 0.000, 0.000, 0.000, 18:12:01.267
147, 25460.07, 52592.07, 187500.00, -187500.02, -154641.50, -187500.02, -187500.02, -187500.02, 0.000, 0.000, 0.000, 18:12:01.268
148, 24855.09, 52049.07, 187500.00, -187500.02, -154350.30, -187500.02, -187500.02, -187500.02, 0.000, 0.000, 0.000, 18:12:01.268
149, 25314.11, 52705.39, 187500.00, -187500.02, -154402.53, -187500.02, -187500.02, -187500.02, 0.000, 0.000, 0.000, 18:12:01.268
150, 26066.34, 53442.19, 187500.00, -187500.02, -154614.56, -187500.02, -187500.02, -187500.02, 0.000, 0.000, 0.000, 18:12:01.268
151, 25984.26, 53176.27, 187500.00, -187500.02, -154733.09, -187500.02, -187500.02, -187500.02, 0.016, -0.014, 1.024, 18:12:01.268
152, 25461.52, 52597.70, 187500.00, -187500.02, -154604.70, -187500.02, -187500.02, -187500.02, 0.000, 0.000, 0.000, 18:12:01.269
153, 24867.68, 52068.25, 187500.00, -187500.02, -154340.38, -187500.02, -187500.02, -187500.02, 0.000, 0.000, 0.000, 18:12:01.269
154, 25314.96, 52716.70, 187500.00, -187500.02, -154393.73, -187500.02, -187500.02, -187500.02, 0.000, 0.000, 0.000, 18:12:01.269
155, 26072.13, 53456.95, 187500.00, -187500.02, -154655.81, -187500.02, -187500.02, -187500.02, 0.000, 0.000, 0.000, 18:12:01.269
