%OpenBCI Raw EEG Data
%
%Sample Rate = 250.0 Hz
%First Column = SampleIndex
%Last Column = Timestamp 
%Other Columns = EEG data in microvolts followed by Accel Data (in G) interleaved with Aux Data
0, -3572.34, 11983.13, 187500.00, 187500.00, 187500.00, -187500.02, -187500.02, 187500.00, 0.002, -0.018, 1.020, 17:23:45.598
1, -3662.22, 11859.41, 187500.00, 187500.00, 187500.00, -187500.02, -187500.02, 187500.00, 0.000, 0.000, 0.000, 17:23:45.598
2, -4179.31, 11307.81, 187500.00, 187500.00, 187500.00, -187500.02, -187500.02, 187500.00, 0.000, 0.000, 0.000, 17:23:45.599
3, -4827.93, 10659.88, 187500.00, 187500.00, 187500.00, -187500.02, -187500.02, 187500.00, 0.000, 0.000, 0.000, 17:23:45.599
4, -4260.82, 11304.39, 187500.00, 187500.00, 187500.00, -187500.02, -187500.02, 187500.00, 0.000, 0.000, 0.000, 17:23:45.599
5, -3589.02, 11975.97, 187500.00, 187500.00, 187500.00, -187500.02, -187500.02, 187500.00, 0.000, 0.000, 0.000, 17:23:45.599
6, -3665.46, 11862.81, 187500.00, 187500.00, 187500.00, -187500.02, -187500.02, 187500.00, 0.000, 0.000, 0.000, 17:23:45.599
7, -4185.68, 11304.46, 187500.00, 187500.00, 187500.00, -187500.02, -187500.02, 187500.00, 0.008, -0.012, 1.032, 17:23:45.599
8, -4833.32, 10658.83, 187500.00, 187500.00, 187500.00, -187500.02, -187500.02, 187500.00, 0.000, 0.000, 0.000, 17:23:45.600
9, -4263.24, 11303.59, 187500.00, 187500.00, 187500.00, -187500.02, -187500.02, 187500.00, 0.000, 0.000, 0.000, 17:23:45.600
10, -3582.16, 11985.21, 187500.00, 187500.00, 187500.00, -187500.02, -187500.02, 187500.00, 0.000, 0.000, 0.000, 17:23:45.600
11, -3658.04, 11874.97, 187500.00, 187500.00, 187500.00, -187500.02, -187500.02, 187500.00, 0.000, 0.000, 0.000, 17:23:45.600
12, -4175.10, 11324.69, 187500.00, 187500.00, 187500.00, -187500.02, -187500.02, 187500.00, 0.000, 0.000, 0.000, 17:23:45.600
13, -4823.57, 10678.88, 187500.00, 187500.00, 187500.00, -187500.02, -187500.02, 187500.00, 0.000, 0.000, 0.000, 17:23:45.600
14, -4250.85, 11320.96, 187500.00, 187500.00, 187500.00, -187500.02, -187500.02, 187500.00, 0.000, 0.000, 0.000, 17:23:45.601
15, -3563.00, 12006.19, 187500.00, 187500.00, 187500.00, -187500.02, -187500.02, 187500.00, 0.000, 0.000, 0.000, 17:23:45.601
16, -3640.74, 11892.29, 187500.00, 187500.00, 187500.00, -187500.02, -187500.02, 187500.00, 0.000, 0.000, 0.000, 17:23:45.601
17, -4160.87, 11335.37, 187500.00, 187500.00, 187500.00, -187500.02, -187500.02, 187500.00, 0.006, -0.016, 1.034, 17:23:45.601
18, -4829.74, 10670.03, 187500.00, 187500.00, 187500.00, -187500.02, -187500.02, 187500.00, 0.000, 0.000, 0.000, 17:23:45.601
19, -4264.51, 11308.44, 187500.00, 187500.00, 187500.00, -187500.02, -187500.02, 187500.00, 0.000, 0.000, 0.000, 17:23:45.601
20, -3566.98, 12004.34, 187500.00, 187500.00, 187500.00, -187500.02, -187500.02, 187500.00, 0.000, 0.000, 0.000, 17:23:45.602
21, -3633.41, 11904.23, 187500.00, 187500.00, 187500.00, -187500.02, -187500.02, 187500.00, 0.000, 0.000, 0.000, 17:23:45.602
22, -4146.52, 11358.35, 187500.00, 187500.00, 187500.00, -187500.02, -187500.02, 187500.00, 0.000, 0.000, 0.000, 17:23:45.602
23, -4819.13, 10680.33, 187500.00, 187500.00, 187500.00, -187500.02, -187500.02, 187500.00, 0.000, 0.000, 0.000, 17:23:45.602
24, -4274.21, 11296.08, 187500.00, 187500.00, 187500.00, -187500.02, -187500.02, 187500.00, 0.000, 0.000, 0.000, 17:23:45.602
25, -3579.34, 11998.30, 187500.00, 187500.00, 187500.00, -187500.02, -187500.02, 187500.00, 0.000, 0.000, 0.000, 17:23:45.602
26, -3652.54, 11880.91, 187500.00, 187500.00, 187500.00, -187500.02, -187500.02, 187500.00, 0.006, -0.012, 1.038, 17:23:45.603
27, -4176.36, 11325.70, 187500.00, 187500.00, 187500.00, -187500.02, -187500.02, 187500.00, 0.000, 0.000, 0.000, 17:23:45.603
28, -4838.95, 10662.41, 187500.00, 187500.00, 187500.00, -187500.02, -187500.02, 187500.00, 0.000, 0.000, 0.000, 17:23:45.603
29, -4298.26, 11275.76, 187500.00, 187500.00, 187500.00, -187500.02, -187500.02, 187500.00, 0.000, 0.000, 0.000, 17:23:45.603
30, -3604.29, 11973.47, 187500.00, 187500.00, 187500.00, -187500.02, -187500.02, 187500.00, 0.000, 0.000, 0.000, 17:23:45.603
31, -3664.26, 11876.33, 187500.00, 187500.00, 187500.00, -187500.02, -187500.02, 187500.00, 0.000, 0.000, 0.000, 17:23:45.604
32, -4179.33, 11323.59, 187500.00, 187500.00, 187500.00, -187500.02, -187500.02, 187500.00, 0.000, 0.000, 0.000, 17:23:45.604
33, -4851.04, 10654.25, 187500.00, 187500.00, 187500.00, -187500.02, -187500.02, 187500.00, 0.000, 0.000, 0.000, 17:23:45.604
34, -4304.90, 11274.26, 187500.00, 187500.00, 187500.00, -187500.02, -187500.02, 187500.00, 0.000, 0.000, 0.000, 17:23:45.604
35, -3595.70, 11977.72, 187500.00, 187500.00, 187500.00, -187500.02, -187500.02, 187500.00, 0.000, 0.000, 0.000, 17:23:45.604
36, -3656.99, 11877.18, 187500.00, 187500.00, 187500.00, -187500.02, -187500.02, 187500.00, 0.010, -0.012, 1.020, 17:23:45.605
37, -4149.51, 11346.64, 187500.00, 187500.00, 187500.00, -187500.02, -187500.02, 187500.00, 0.000, 0.000, 0.000, 17:23:45.605
38, -4823.42, 10672.64, 187500.00, 187500.00, 187500.00, -187500.02, -187500.02, 187500.00, 0.000, 0.000, 0.000, 17:23:45.605
39, -4283.42, 11287.79, 187500.00, 187500.00, 187500.00, -187500.02, -187500.02, 187500.00, 0.000, 0.000, 0.000, 17:23:45.605
40, -3583.83, 11984.02, 187500.00, 187500.00, 187500.00, -187500.02, -187500.02, 187500.00, 0.000, 0.000, 0.000, 17:23:45.605
41, -3652.54, 11876.64, 187500.00, 187500.00, 187500.00, -187500.02, -187500.02, 187500.00, 0.000, 0.000, 0.000, 17:23:45.605
42, -4161.22, 11332.83, 187500.00, 187500.00, 187500.00, -187500.02, -187500.02, 187500.00, 0.000, 0.000, 0.000, 17:23:45.606
43, -4832.58, 10663.32, 187500.00, 187500.00, 187500.00, -187500.02, -187500.02, 187500.00, 0.000, 0.000, 0.000, 17:23:45.606
44, -4298.06, 11273.21, 187500.00, 187500.00, 187500.00, -187500.02, -187500.02, 187500.00, 0.000, 0.000, 0.000, 17:23:45.606
45, -3591.72, 11985.65, 187500.00, 187500.00, 187500.00, -187500.02, -187500.02, 187500.00, 0.000, 0.000, 0.000, 17:23:45.606
46, -3644.47, 11896.63, 187500.00, 187500.00, 187500.00, -187500.02, -187500.02, 187500.00, 0.000, -0.020, 1.030, 17:23:45.606
47, -4147.17, 11352.76, 187500.00, 187500.00, 187500.00, -187500.02, -187500.02, 187500.00, 0.000, 0.000, 0.000, 17:23:45.607
48, -4824.89, 10677.29, 187500.00, 187500.00, 187500.00, -187500.02, -187500.02, 187500.00, 0.000, 0.000, 0.000, 17:23:45.607
49, -4302.35, 11282.29, 187500.00, 187500.00, 187500.00, -187500.02, -187500.02, 187500.00, 0.000, 0.000, 0.000, 17:23:45.607
50, -3582.38, 11997.81, 187500.00, 187500.00, 187500.00, -187500.02, -187500.02, 187500.00, 0.000, 0.000, 0.000, 17:23:45.607
51, -3637.17, 11903.96, 187500.00, 187500.00, 187500.00, -187500.02, -187500.02, 187500.00, 0.000, 0.000, 0.000, 17:23:45.607
52, -4135.56, 11369.91, 187500.00, 187500.00, 187500.00, -187500.02, -187500.02, 187500.00, 0.000, 0.000, 0.000, 17:23:45.607
53, -4819.17, 10684.56, 187500.00, 187500.00, 187500.00, -187500.02, -187500.02, 187500.00, 0.000, 0.000, 0.000, 17:23:45.608
54, -4297.95, 11288.77, 187500.00, 187500.00, 187500.00, -187500.02, -187500.02, 187500.00, 0.000, 0.000, 0.000, 17:23:45.608
55, -3579.90, 12007.27, 187500.00, 187500.00, 187500.00, -187500.02, -187500.02, 187500.00, 0.000, 0.000, 0.000, 17:23:45.608
56, -3637.05, 11909.37, 187500.00, 187500.00, 187500.00, -187500.02, -187500.02, 187500.00, 0.004, -0.020, 1.034, 17:23:45.608
57, -4144.39, 11366.38, 187500.00, 187500.00, 187500.00, -187500.02, -187500.02, 187500.00, 0.000, 0.000, 0.000, 17:23:45.608
58, -4824.33, 10688.74, 187500.00, 187500.00, 187500.00, -187500.02, -187500.02, 187500.00, 0.000, 0.000, 0.000, 17:23:45.609
59, -4300.21, 11291.30, 187500.00, 187500.00, 187500.00, -187500.02, -187500.02, 187500.00, 0.000, 0.000, 0.000, 17:23:45.609
60, -3577.04, 12017.44, 187500.00, 187500.00, 187500.00, -187500.02, -187500.02, 187500.00, 0.000, 0.000, 0.000, 17:23:45.609
61, -3632.20, 11920.95, 187500.00, 187500.00, 187500.00, -187500.02, -187500.02, 187500.00, 0.000, 0.000, 0.000, 17:23:45.609
62, -4128.39, 11386.18, 187500.00, 187500.00, 187500.00, -187500.02, -187500.02, 187500.00, 0.000, 0.000, 0.000, 17:23:45.609
63, -4813.92, 10701.63, 187500.00, 187500.00, 187500.00, -187500.02, -187500.02, 187500.00, 0.000, 0.000, 0.000, 17:23:45.610
64, -4293.95, 11304.60, 187500.00, 187500.00, 187500.00, -187500.02, -187500.02, 187500.00, 0.000, 0.000, 0.000, 17:23:45.610
65, -3566.47, 12034.40, 187500.00, 187500.00, 187500.00, -187500.02, -187500.02, 187500.00, 0.000, 0.000, 0.000, 17:23:45.611
66, -3614.86, 11947.79, 187500.00, 187500.00, 187500.00, -187500.02, -187500.02, 187500.00, 0.002, -0.022, 1.036, 17:23:45.611
67, -4106.37, 11413.78, 187500.00, 187500.00, 187500.00, -187500.02, -187500.02, 187500.00, 0.000, 0.000, 0.000, 17:23:45.611
68, -4800.91, 10716.70, 187500.00, 187500.00, 187500.00, -187500.02, -187500.02, 187500.00, 0.000, 0.000, 0.000, 17:23:45.612
69, -4294.71, 11304.44, 187500.00, 187500.00, 187500.00, -187500.02, -187500.02, 187500.00, 0.000, 0.000, 0.000, 17:23:45.612
70, -3569.82, 12027.12, 187500.00, 187500.00, 187500.00, -187500.02, -187500.02, 187500.00, 0.000, 0.000, 0.000, 17:23:45.612
71, -3616.87, 11936.41, 187500.00, 187500.00, 187500.00, -187500.02, -187500.02, 187500.00, 0.000, 0.000, 0.000, 17:23:45.612
72, -4110.11, 11408.20, 187500.00, 187500.00, 187500.00, -187500.02, -187500.02, 187500.00, 0.000, 0.000, 0.000, 17:23:45.612
73, -4797.96, 10722.00, 187500.00, 187500.00, 187500.00, -187500.02, -187500.02, 187500.00, 0.000, 0.000, 0.000, 17:23:45.612
74, -4300.16, 11299.50, 187500.00, 187500.00, 187500.00, -187500.02, -187500.02, 187500.00, 0.000, 0.000, 0.000, 17:23:45.613
75, -3573.62, 12022.62, 187500.00, 187500.00, 187500.00, -187500.02, -187500.02, 187500.00, 0.000, 0.000, 0.000, 17:23:45.613
76, -3616.15, 11939.88, 187500.00, 187500.00, 187500.00, -187500.02, -187500.02, 187500.00, 0.004, -0.018, 1.034, 17:23:45.613
77, -4101.52, 11417.63, 187500.00, 187500.00, 187500.00, -187500.02, -187500.02, 187500.00, 0.000, 0.000, 0.000, 17:23:45.613
78, -4800.26, 10720.14, 187500.00, 187500.00, 187500.00, -187500.02, -187500.02, 187500.00, 0.000, 0.000, 0.000, 17:23:45.613
79, -4302.35, 11298.20, 187500.00, 187500.00, 187500.00, -187500.02, -187500.02, 187500.00, 0.000, 0.000, 0.000, 17:23:45.613
80, -3574.29, 12029.02, 187500.00, 187500.00, 187500.00, -187500.02, -187500.02, 187500.00, 0.000, 0.000, 0.000, 17:23:45.614
81, -3608.26, 11957.69, 187500.00, 187500.00, 187500.00, -187500.02, -187500.02, 187500.00, 0.000, 0.000, 0.000, 17:23:45.614
82, -4084.38, 11440.05, 187500.00, 187500.00, 187500.00, -187500.02, -187500.02, 187500.00, 0.000, 0.000, 0.000, 17:23:45.614
83, -4780.55, 10740.79, 187500.00, 187500.00, 187500.00, -187500.02, -187500.02, 187500.00, 0.000, 0.000, 0.000, 17:23:45.614
84, -4296.30, 11307.99, 187500.00, 187500.00, 187500.00, -187500.02, -187500.02, 187500.00, 0.000, 0.000, 0.000, 17:23:45.614
85, -3560.90, 12043.97, 187500.00, 187500.00, 187500.00, -187500.02, -187500.02, 187500.00, 0.000, 0.000, 0.000, 17:23:45.615
86, -3602.03, 11964.62, 187500.00, 187500.00, 187500.00, -187500.02, -187500.02, 187500.00, 0.008, -0.018, 1.040, 17:23:45.615
87, -4083.57, 11448.47, 187500.00, 187500.00, 187500.00, -187500.02, -187500.02, 187500.00, 0.000, 0.000, 0.000, 17:23:45.615
88, -4781.86, 10743.90, 187500.00, 187500.00, 187500.00, -187500.02, -187500.02, 187500.00, 0.000, 0.000, 0.000, 17:23:45.615
89, -4298.96, 11310.90, 187500.00, 187500.00, 187500.00, -187500.02, -187500.02, 187500.00, 0.000, 0.000, 0.000, 17:23:45.615
90, -3560.88, 12054.47, 187500.00, 187500.00, 187500.00, -187500.02, -187500.02, 187500.00, 0.000, 0.000, 0.000, 17:23:45.616
91, -3596.78, 11980.96, 187500.00, 187500.00, 187500.00, -187500.02, -187500.02, 187500.00, 0.000, 0.000, 0.000, 17:23:45.616
92, -4074.59, 11465.35, 187500.00, 187500.00, 187500.00, -187500.02, -187500.02, 187500.00, 0.000, 0.000, 0.000, 17:23:45.616
93, -4782.60, 10755.61, 187500.00, 187500.00, 187500.00, -187500.02, -187500.02, 187500.00, 0.000, 0.000, 0.000, 17:23:45.616
94, -4302.82, 11316.15, 187500.00, 187500.00, 187500.00, -187500.02, -187500.02, 187500.00, 0.000, 0.000, 0.000, 17:23:45.616
95, -3558.00, 12060.67, 187500.00, 187500.00, 187500.00, -187500.02, -187500.02, 187500.00, 0.000, 0.000, 0.000, 17:23:45.616
96, -3589.51, 11986.77, 187500.00, 187500.00, 187500.00, -187500.02, -187500.02, 187500.00, 0.004, -0.018, 1.026, 17:23:45.617
97, -4075.19, 11467.52, 187500.00, 187500.00, 187500.00, -187500.02, -187500.02, 187500.00, 0.000, 0.000, 0.000, 17:23:45.617
98, -4783.54, 10758.65, 187500.00, 187500.00, 187500.00, -187500.02, -187500.02, 187500.00, 0.000, 0.000, 0.000, 17:23:45.617
99, -4311.58, 11314.39, 187500.00, 187500.00, 187500.00, -187500.02, -187500.02, 187500.00, 0.000, 0.000, 0.000, 17:23:45.617
100, -3564.70, 12063.48, 187500.00, 187500.00, 187500.00, -187500.02, -187500.02, 187500.00, 0.000, 0.000, 0.000, 17:23:45.617
101, -3589.33, 11993.54, 187500.00, 187500.00, 187500.00, -187500.02, -187500.02, 187500.00, 0.000, 0.000, 0.000, 17:23:45.618
102, -4066.50, 11479.79, 187500.00, 187500.00, 187500.00, -187500.02, -187500.02, 187500.00, 0.000, 0.000, 0.000, 17:23:45.618
103, -4779.36, 10762.12, 187500.00, 187500.00, 187500.00, -187500.02, -187500.02, 187500.00, 0.000, 0.000, 0.000, 17:23:45.618
104, -4311.47, 11312.28, 187500.00, 187500.00, 187500.00, -187500.02, -187500.02, 187500.00, 0.000, 0.000, 0.000, 17:23:45.618
105, -3561.01, 12070.75, 187500.00, 187500.00, 187500.00, -187500.02, -187500.02, 187500.00, 0.000, 0.000, 0.000, 17:23:45.618
106, -3595.12, 11996.67, 187500.00, 187500.00, 187500.00, -187500.02, -187500.02, 187500.00, 0.004, -0.018, 1.028, 17:23:45.618
107, -4072.06, 11481.78, 187500.00, 187500.00, 187500.00, -187500.02, -187500.02, 187500.00, 0.000, 0.000, 0.000, 17:23:45.619
108, -4783.32, 10766.50, 187500.00, 187500.00, 187500.00, -187500.02, -187500.02, 187500.00, 0.000, 0.000, 0.000, 17:23:45.619
109, -4325.84, 11308.10, 187500.00, 187500.00, 187500.00, -187500.02, -187500.02, 187500.00, 0.000, 0.000, 0.000, 17:23:45.619
110, -3573.02, 12067.86, 187500.00, 187500.00, 187500.00, -187500.02, -187500.02, 187500.00, 0.000, 0.000, 0.000, 17:23:45.619
111, -3596.55, 12005.77, 187500.00, 187500.00, 187500.00, -187500.02, -187500.02, 187500.00, 0.000, 0.000, 0.000, 17:23:45.619
112, -4069.05, 11496.46, 187500.00, 187500.00, 187500.00, -187500.02, -187500.02, 187500.00, 0.000, 0.000, 0.000, 17:23:45.619
113, -4778.94, 10780.00, 187500.00, 187500.00, 187500.00, -187500.02, -187500.02, 187500.00, 0.000, 0.000, 0.000, 17:23:45.620
114, -4323.36, 11312.89, 187500.00, 187500.00, 187500.00, -187500.02, -187500.02, 187500.00, 0.000, 0.000, 0.000, 17:23:45.620
115, -3565.82, 12074.17, 187500.00, 187500.00, 187500.00, -187500.02, -187500.02, 187500.00, 0.000, 0.000, 0.000, 17:23:45.620
116, -3591.79, 12011.33, 187500.00, 187500.00, 187500.00, -187500.02, -187500.02, 187500.00, 0.006, -0.018, 1.026, 17:23:45.620
117, -4065.36, 11504.96, 187500.00, 187500.00, 187500.00, -187500.02, -187500.02, 187500.00, 0.000, 0.000, 0.000, 17:23:45.620
118, -4783.54, 10781.10, 187500.00, 187500.00, 187500.00, -187500.02, -187500.02, 187500.00, 0.000, 0.000, 0.000, 17:23:45.621
119, -4327.41, 11319.35, 187500.00, 187500.00, 187500.00, -187500.02, -187500.02, 187500.00, 0.000, 0.000, 0.000, 17:23:45.621
120, -3568.86, 12087.82, 187500.00, 187500.00, 187500.00, -187500.02, -187500.02, 187500.00, 0.000, 0.000, 0.000, 17:23:46.078
121, -3593.18, 12021.19, 187500.00, 187500.00, 187500.00, -187500.02, -187500.02, 187500.00, 0.000, 0.000, 0.000, 17:23:46.078
122, -4057.56, 11520.49, 187500.00, 187500.00, 187500.00, -187500.02, -187500.02, 187500.00, 0.000, 0.000, 0.000, 17:23:46.078
123, -4778.20, 10792.47, 187500.00, 187500.00, 187500.00, -187500.02, -187500.02, 187500.00, 0.000, 0.000, 0.000, 17:23:46.078
124, -4338.63, 11313.00, 187500.00, 187500.00, 187500.00, -187500.02, -187500.02, 187500.00, 0.000, 0.000, 0.000, 17:23:46.078
125, -3564.19, 12091.47, 187500.00, 187500.00, 187500.00, -187500.02, -187500.02, 187500.00, 0.000, 0.000, 0.000, 17:23:46.079
126, -3579.72, 12031.25, 187500.00, 187500.00, 187500.00, -187500.02, -187500.02, 187500.00, 0.006, -0.020, 1.022, 17:23:46.079
127, -4043.81, 11530.55, 187500.00, 187500.00, 187500.00, -187500.02, -187500.02, 187500.00, 0.000, 0.000, 0.000, 17:23:46.079
128, -4769.66, 10797.26, 187500.00, 187500.00, 187500.00, -187500.02, -187500.02, 187500.00, 0.000, 0.000, 0.000, 17:23:46.079
129, -4333.60, 11312.84, 187500.00, 187500.00, 187500.00, -187500.02, -187500.02, 187500.00, 0.000, 0.000, 0.000, 17:23:46.080
130, -3563.49, 12090.35, 187500.00, 187500.00, 187500.00, -187500.02, -187500.02, 187500.00, 0.000, 0.000, 0.000, 17:23:46.080
131, -3584.26, 12027.96, 187500.00, 187500.00, 187500.00, -187500.02, -187500.02, 187500.00, 0.000, 0.000, 0.000, 17:23:46.080
132, -4039.54, 11540.74, 187500.00, 187500.00, 187500.00, -187500.02, -187500.02, 187500.00, 0.000, 0.000, 0.000, 17:23:46.080
133, -4770.04, 10803.83, 187500.00, 187500.00, 187500.00, -187500.02, -187500.02, 187500.00, 0.000, 0.000, 0.000, 17:23:46.080
134, -4347.08, 11300.68, 187500.00, 187500.00, 187500.00, -187500.02, -187500.02, 187500.00, 0.000, 0.000, 0.000, 17:23:46.080
135, -3568.88, 12089.50, 187500.00, 187500.00, 187500.00, -187500.02, -187500.02, 187500.00, 0.000, 0.000, 0.000, 17:23:46.081
136, -3577.22, 12045.73, 187500.00, 187500.00, 187500.00, -187500.02, -187500.02, 187500.00, 0.008, -0.016, 1.020, 17:23:46.081
137, -4040.23, 11548.77, 187500.00, 187500.00, 187500.00, -187500.02, -187500.02, 187500.00, 0.000, 0.000, 0.000, 17:23:46.081
138, -4758.91, 10821.13, 187500.00, 187500.00, 187500.00, -187500.02, -187500.02, 187500.00, 0.000, 0.000, 0.000, 17:23:46.081
139, -4334.63, 11321.00, 187500.00, 187500.00, 187500.00, -187500.02, -187500.02, 187500.00, 0.000, 0.000, 0.000, 17:23:46.081
140, -3569.53, 12094.84, 187500.00, 187500.00, 187500.00, -187500.02, -187500.02, 187500.00, 0.000, 0.000, 0.000, 17:23:46.081
141, -3590.76, 12036.01, 187500.00, 187500.00, 187500.00, -187500.02, -187500.02, 187500.00, 0.000, 0.000, 0.000, 17:23:46.082
142, -4038.09, 11559.05, 187500.00, 187500.00, 187500.00, -187500.02, -187500.02, 187500.00, 0.000, 0.000, 0.000, 17:23:46.082
143, -4760.45, 10831.50, 187500.00, 187500.00, 187500.00, -187500.02, -187500.02, 187500.00, 0.000, 0.000, 0.000, 17:23:46.082
144, -4341.47, 11329.03, 187500.00, 187500.00, 187500.00, -187500.02, -187500.02, 187500.00, 0.000, 0.000, 0.000, 17:23:46.082
145, -3567.20, 12110.89, 187500.00, 187500.00, 187500.00, -187500.02, -187500.02, 187500.00, 0.000, 0.000, 0.000, 17:23:46.082
146, -3569.66, 12069.72, 187500.00, 187500.00, 187500.00, -187500.02, -187500.02, 187500.00, 0.006, -0.018, 1.026, 17:23:46.083
147, -4035.03, 11572.37, 187500.00, 187500.00, 187500.00, -187500.02, -187500.02, 187500.00, 0.000, 0.000, 0.000, 17:23:46.083
148, -4771.45, 10827.03, 187500.00, 187500.00, 187500.00, -187500.02, -187500.02, 187500.00, 0.000, 0.000, 0.000, 17:23:46.083
149, -4352.15, 11320.17, 187500.00, 187500.00, 187500.00, -187500.02, -187500.02, 187500.00, 0.000, 0.000, 0.000, 17:23:46.083
150, -3569.55, 12111.96, 187500.00, 187500.00, 187500.00, -187500.02, -187500.02, 187500.00, 0.000, 0.000, 0.000, 17:23:46.083
151, -3575.09, 12070.57, 187500.00, 187500.00, 187500.00, -187500.02, -187500.02, 187500.00, 0.000, 0.000, 0.000, 17:23:46.083
152, -4027.90, 11580.42, 187500.00, 187500.00, 187500.00, -187500.02, -187500.02, 187500.00, 0.000, 0.000, 0.000, 17:23:46.084
153, -4754.19, 10845.58, 187500.00, 187500.00, 187500.00, -187500.02, -187500.02, 187500.00, 0.000, 0.000, 0.000, 17:23:46.084
154, -4347.01, 11327.75, 187500.00, 187500.00, 187500.00, -187500.02, -187500.02, 187500.00, 0.000, 0.000, 0.000, 17:23:46.084
155, -3569.13, 12113.13, 187500.00, 187500.00, 187500.00, -187500.02, -187500.02, 187500.00, 0.008, -0.016, 1.024, 17:23:46.084
156, -3572.03, 12068.35, 187500.00, 187500.00, 187500.00, -187500.02, -187500.02, 187500.00, 0.000, 0.000, 0.000, 17:23:46.084
157, -4012.21, 11591.06, 187500.00, 187500.00, 187500.00, -187500.02, -187500.02, 187500.00, 0.000, 0.000, 0.000, 17:23:46.084
158, -4743.51, 10849.80, 187500.00, 187500.00, 187500.00, -187500.02, -187500.02, 187500.00, 0.000, 0.000, 0.000, 17:23:46.085
159, -4353.34, 11314.68, 187500.00, 187500.00, 187500.00, -187500.02, -187500.02, 187500.00, 0.000, 0.000, 0.000, 17:23:46.085
160, -3569.60, 12109.93, 187500.00, 187500.00, 187500.00, -187500.02, -187500.02, 187500.00, 0.000, 0.000, 0.000, 17:23:46.085
161, -3571.34, 12070.75, 187500.00, 187500.00, 187500.00, -187500.02, -187500.02, 187500.00, 0.000, 0.000, 0.000, 17:23:46.085
162, -4017.77, 11590.12, 187500.00, 187500.00, 187500.00, -187500.02, -187500.02, 187500.00, 0.000, 0.000, 0.000, 17:23:46.085
163, -4749.34, 10845.09, 187500.00, 187500.00, 187500.00, -187500.02, -187500.02, 187500.00, 0.000, 0.000, 0.000, 17:23:46.086
164, -4366.84, 11302.43, 187500.00, 187500.00, 187500.00, -187500.02, -187500.02, 187500.00, 0.000, 0.000, 0.000, 17:23:46.086
165, -3577.40, 12103.80, 187500.00, 187500.00, 187500.00, -187500.02, -187500.02, 187500.00, 0.006, -0.016, 1.026, 17:23:46.086
166, -3575.47, 12069.79, 187500.00, 187500.00, 187500.00, -187500.02, -187500.02, 187500.00, 0.000, 0.000, 0.000, 17:23:46.086
167, -4022.64, 11592.73, 187500.00, 187500.00, 187500.00, -187500.02, -187500.02, 187500.00, 0.000, 0.000, 0.000, 17:23:46.086
168, -4750.91, 10857.90, 187500.00, 187500.00, 187500.00, -187500.02, -187500.02, 187500.00, 0.000, 0.000, 0.000, 17:23:46.086
169, -4379.11, 11307.08, 187500.00, 187500.00, 187500.00, -187500.02, -187500.02, 187500.00, 0.000, 0.000, 0.000, 17:23:46.087
170, -3602.45, 12092.36, 187500.00, 187500.00, 187500.00, -187500.02, -187500.02, 187500.00, 0.000, 0.000, 0.000, 17:23:46.087
171, -3577.73, 12078.61, 187500.00, 187500.00, 187500.00, -187500.02, -187500.02, 187500.00, 0.000, 0.000, 0.000, 17:23:46.087
172, -4017.88, 11608.94, 187500.00, 187500.00, 187500.00, -187500.02, -187500.02, 187500.00, 0.000, 0.000, 0.000, 17:23:46.087
173, -4757.55, 10860.47, 187500.00, 187500.00, 187500.00, -187500.02, -187500.02, 187500.00, 0.000, 0.000, 0.000, 17:23:46.087
174, -4384.70, 11307.28, 187500.00, 187500.00, 187500.00, -187500.02, -187500.02, 187500.00, 0.000, 0.000, 0.000, 17:23:46.087
175, -3592.53, 12112.21, 187500.00, 187500.00, 187500.00, -187500.02, -187500.02, 187500.00, 0.004, -0.014, 1.034, 17:23:46.087
176, -3578.42, 12088.18, 187500.00, 187500.00, 187500.00, -187500.02, -187500.02, 187500.00, 0.000, 0.000, 0.000, 17:23:46.087
177, -4013.52, 11618.35, 187500.00, 187500.00, 187500.00, -187500.02, -187500.02, 187500.00, 0.000, 0.000, 0.000, 17:23:46.088
178, -4747.67, 10872.20, 187500.00, 187500.00, 187500.00, -187500.02, -187500.02, 187500.00, 0.000, 0.000, 0.000, 17:23:46.088
179, -4383.62, 11312.58, 187500.00, 187500.00, 187500.00, -187500.02, -187500.02, 187500.00, 0.000, 0.000, 0.000, 17:23:46.088
180, -3588.82, 12120.48, 187500.00, 187500.00, 187500.00, -187500.02, -187500.02, 187500.00, 0.000, 0.000, 0.000, 17:23:46.088
181, -3567.38, 12099.63, 187500.00, 187500.00, 187500.00, -187500.02, -187500.02, 187500.00, 0.000, 0.000, 0.000, 17:23:46.088
182, -4003.91, 11624.94, 187500.00, 187500.00, 187500.00, -187500.02, -187500.02, 187500.00, 0.000, 0.000, 0.000, 17:23:46.088
183, -4739.49, 10878.62, 187500.00, 187500.00, 187500.00, -187500.02, -187500.02, 187500.00, 0.000, 0.000, 0.000, 17:23:46.088
184, -4375.49, 11317.49, 187500.00, 187500.00, 187500.00, -187500.02, -187500.02, 187500.00, 0.000, 0.000, 0.000, 17:23:46.089
185, -3570.33, 12132.77, 187500.00, 187500.00, 187500.00, -187500.02, -187500.02, 187500.00, 0.004, -0.012, 1.028, 17:23:46.089
186, -3561.33, 12106.40, 187500.00, 187500.00, 187500.00, -187500.02, -187500.02, 187500.00, 0.000, 0.000, 0.000, 17:23:46.089
187, -3996.09, 11639.92, 187500.00, 187500.00, 187500.00, -187500.02, -187500.02, 187500.00, 0.000, 0.000, 0.000, 17:23:46.089
188, -4740.29, 10884.67, 187500.00, 187500.00, 187500.00, -187500.02, -187500.02, 187500.00, 0.000, 0.000, 0.000, 17:23:46.089
189, -4396.41, 11303.03, 187500.00, 187500.00, 187500.00, -187500.02, -187500.02, 187500.00, 0.000, 0.000, 0.000, 17:23:46.089
190, -3583.79, 12131.25, 187500.00, 187500.00, 187500.00, -187500.02, -187500.02, 187500.00, 0.000, 0.000, 0.000, 17:23:46.089
191, -3555.25, 12121.19, 187500.00, 187500.00, 187500.00, -187500.02, -187500.02, 187500.00, 0.000, 0.000, 0.000, 17:23:46.090
192, -3991.08, 11655.00, 187500.00, 187500.00, 187500.00, -187500.02, -187500.02, 187500.00, 0.000, 0.000, 0.000, 17:23:46.090
193, -4736.27, 10899.47, 187500.00, 187500.00, 187500.00, -187500.02, -187500.02, 187500.00, 0.000, 0.000, 0.000, 17:23:46.090
194, -4387.89, 11318.57, 187500.00, 187500.00, 187500.00, -187500.02, -187500.02, 187500.00, 0.000, 0.000, 0.000, 17:23:46.090
195, -3582.02, 12137.04, 187500.00, 187500.00, 187500.00, -187500.02, -187500.02, 187500.00, 0.006, -0.012, 1.022, 17:23:46.090
196, -3563.52, 12117.62, 187500.00, 187500.00, 187500.00, -187500.02, -187500.02, 187500.00, 0.000, 0.000, 0.000, 17:23:46.090
197, -3993.59, 11654.40, 187500.00, 187500.00, 187500.00, -187500.02, -187500.02, 187500.00, 0.000, 0.000, 0.000, 17:23:46.090
198, -4724.58, 10904.61, 187500.00, 187500.00, 187500.00, -187500.02, -187500.02, 187500.00, 0.000, 0.000, 0.000, 17:23:46.091
199, -4384.41, 11312.93, 187500.00, 187500.00, 187500.00, -187500.02, -187500.02, 187500.00, 0.000, 0.000, 0.000, 17:23:46.091
200, -3577.46, 12138.65, 187500.00, 187500.00, 187500.00, -187500.02, -187500.02, 187500.00, 0.000, 0.000, 0.000, 17:23:46.091
201, -3556.59, 12126.00, 187500.00, 187500.00, 187500.00, -187500.02, -187500.02, 187500.00, 0.000, 0.000, 0.000, 17:23:46.091
202, -3986.30, 11666.56, 187500.00, 187500.00, 187500.00, -187500.02, -187500.02, 187500.00, 0.000, 0.000, 0.000, 17:23:46.091
203, -4726.70, 10913.78, 187500.00, 187500.00, 187500.00, -187500.02, -187500.02, 187500.00, 0.000, 0.000, 0.000, 17:23:46.091
204, -4401.39, 11312.73, 187500.00, 187500.00, 187500.00, -187500.02, -187500.02, 187500.00, 0.000, 0.000, 0.000, 17:23:46.091
205, -3602.52, 12131.10, 187500.00, 187500.00, 187500.00, -187500.02, -187500.02, 187500.00, 0.006, -0.014, 1.026, 17:23:46.091
206, -3568.10, 12131.83, 187500.00, 187500.00, 187500.00, -187500.02, -187500.02, 187500.00, 0.000, 0.000, 0.000, 17:23:46.091
207, -3996.47, 11673.04, 187500.00, 187500.00, 187500.00, -187500.02, -187500.02, 187500.00, 0.000, 0.000, 0.000, 17:23:46.092
208, -4731.84, 10925.93, 187500.00, 187500.00, 187500.00, -187500.02, -187500.02, 187500.00, 0.000, 0.000, 0.000, 17:23:46.092
209, -4407.72, 11318.05, 187500.00, 187500.00, 187500.00, -187500.02, -187500.02, 187500.00, 0.000, 0.000, 0.000, 17:23:46.092
210, -3592.84, 12147.90, 187500.00, 187500.00, 187500.00, -187500.02, -187500.02, 187500.00, 0.000, 0.000, 0.000, 17:23:46.092
211, -3552.61, 12151.68, 187500.00, 187500.00, 187500.00, -187500.02, -187500.02, 187500.00, 0.000, 0.000, 0.000, 17:23:46.092
212, -3973.96, 11699.35, 187500.00, 187500.00, 187500.00, -187500.02, -187500.02, 187500.00, 0.000, 0.000, 0.000, 17:23:46.092
213, -4725.58, 10936.95, 187500.00, 187500.00, 187500.00, -187500.02, -187500.02, 187500.00, 0.000, 0.000, 0.000, 17:23:46.092
214, -4399.87, 11330.70, 187500.00, 187500.00, 187500.00, -187500.02, -187500.02, 187500.00, 0.000, 0.000, 0.000, 17:23:46.093
215, -3594.63, 12149.25, 187500.00, 187500.00, 187500.00, -187500.02, -187500.02, 187500.00, 0.002, -0.016, 1.028, 17:23:46.093
216, -3554.53, 12148.60, 187500.00, 187500.00, 187500.00, -187500.02, -187500.02, 187500.00, 0.000, 0.000, 0.000, 17:23:46.093
217, -3966.67, 11704.07, 187500.00, 187500.00, 187500.00, -187500.02, -187500.02, 187500.00, 0.000, 0.000, 0.000, 17:23:46.093
218, -4720.24, 10940.20, 187500.00, 187500.00, 187500.00, -187500.02, -187500.02, 187500.00, 0.000, 0.000, 0.000, 17:23:46.093
219, -4418.85, 11313.87, 187500.00, 187500.00, 187500.00, -187500.02, -187500.02, 187500.00, 0.000, 0.000, 0.000, 17:23:46.093
220, -3603.35, 12150.99, 187500.00, 187500.00, 187500.00, -187500.02, -187500.02, 187500.00, 0.000, 0.000, 0.000, 17:23:46.093
221, -3563.43, 12155.64, 187500.00, 187500.00, 187500.00, -187500.02, -187500.02, 187500.00, 0.000, 0.000, 0.000, 17:23:46.093
222, -3986.93, 11700.53, 187500.00, 187500.00, 187500.00, -187500.02, -187500.02, 187500.00, 0.000, 0.000, 0.000, 17:23:46.094
223, -4736.94, 10932.08, 187500.00, 187500.00, 187500.00, -187500.02, -187500.02, 187500.00, 0.000, 0.000, 0.000, 17:23:46.094
224, -4434.45, 11305.87, 187500.00, 187500.00, 187500.00, -187500.02, -187500.02, 187500.00, 0.000, 0.000, 0.000, 17:23:46.094
225, -3610.19, 12148.89, 187500.00, 187500.00, 187500.00, -187500.02, -187500.02, 187500.00, 0.006, -0.016, 1.020, 17:23:46.094
226, -3561.68, 12159.53, 187500.00, 187500.00, 187500.00, -187500.02, -187500.02, 187500.00, 0.000, 0.000, 0.000, 17:23:46.094
227, -3974.16, 11712.98, 187500.00, 187500.00, 187500.00, -187500.02, -187500.02, 187500.00, 0.000, 0.000, 0.000, 17:23:46.094
228, -4727.98, 10940.84, 187500.00, 187500.00, 187500.00, -187500.02, -187500.02, 187500.00, 0.000, 0.000, 0.000, 17:23:46.094
229, -4421.53, 11316.29, 187500.00, 187500.00, 187500.00, -187500.02, -187500.02, 187500.00, 0.000, 0.000, 0.000, 17:23:46.094
230, -3607.28, 12149.31, 187500.00, 187500.00, 187500.00, -187500.02, -187500.02, 187500.00, 0.000, 0.000, 0.000, 17:23:46.095
231, -3567.67, 12152.82, 187500.00, 187500.00, 187500.00, -187500.02, -187500.02, 187500.00, 0.000, 0.000, 0.000, 17:23:46.095
232, -3976.40, 11711.08, 187500.00, 187500.00, 187500.00, -187500.02, -187500.02, 187500.00, 0.000, 0.000, 0.000, 17:23:46.095
233, -4721.00, 10950.75, 187500.00, 187500.00, 187500.00, -187500.02, -187500.02, 187500.00, 0.000, 0.000, 0.000, 17:23:46.095
234, -4431.70, 11316.42, 187500.00, 187500.00, 187500.00, -187500.02, -187500.02, 187500.00, 0.000, 0.000, 0.000, 17:23:46.095
235, -3609.83, 12160.49, 187500.00, 187500.00, 187500.00, -187500.02, -187500.02, 187500.00, 0.008, -0.016, 1.020, 17:23:46.095
236, -3561.73, 12169.50, 187500.00, 187500.00, 187500.00, -187500.02, -187500.02, 187500.00, 0.000, 0.000, 0.000, 17:23:46.096
237, -3971.06, 11724.96, 187500.00, 187500.00, 187500.00, -187500.02, -187500.02, 187500.00, 0.000, 0.000, 0.000, 17:23:46.096
238, -4728.02, 10954.19, 187500.00, 187500.00, 187500.00, -187500.02, -187500.02, 187500.00, 0.000, 0.000, 0.000, 17:23:46.096
239, -4450.48, 11301.67, 187500.00, 187500.00, 187500.00, -187500.02, -187500.02, 187500.00, 0.000, 0.000, 0.000, 17:23:46.096
240, -3627.51, 12139.81, 187500.00, 187500.00, 187500.00, -187500.02, -187500.02, 187500.00, 0.000, 0.000, 0.000, 17:23:46.559
241, -3563.96, 12163.10, 187500.00, 187500.00, 187500.00, -187500.02, -187500.02, 187500.00, 0.000, 0.000, 0.000, 17:23:46.560
242, -3967.46, 11722.28, 187500.00, 187500.00, 187500.00, -187500.02, -187500.02, 187500.00, 0.000, 0.000, 0.000, 17:23:46.560
243, -4719.37, 10952.96, 187500.00, 187500.00, 187500.00, -187500.02, -187500.02, 187500.00, 0.000, 0.000, 0.000, 17:23:46.560
244, -4443.15, 11304.08, 187500.00, 187500.00, 187500.00, -187500.02, -187500.02, 187500.00, 0.000, 0.000, 0.000, 17:23:46.560
245, -3614.46, 12153.98, 187500.00, 187500.00, 187500.00, -187500.02, -187500.02, 187500.00, 0.008, -0.022, 1.020, 17:23:46.560
246, -3562.29, 12167.64, 187500.00, 187500.00, 187500.00, -187500.02, -187500.02, 187500.00, 0.000, 0.000, 0.000, 17:23:46.560
247, -3966.25, 11729.35, 187500.00, 187500.00, 187500.00, -187500.02, -187500.02, 187500.00, 0.000, 0.000, 0.000, 17:23:46.561
248, -4714.39, 10963.28, 187500.00, 187500.00, 187500.00, -187500.02, -187500.02, 187500.00, 0.000, 0.000, 0.000, 17:23:46.561
249, -4435.37, 11318.54, 187500.00, 187500.00, 187500.00, -187500.02, -187500.02, 187500.00, 0.000, 0.000, 0.000, 17:23:46.561
250, -3613.87, 12163.22, 187500.00, 187500.00, 187500.00, -187500.02, -187500.02, 187500.00, 0.000, 0.000, 0.000, 17:23:46.561
251, -3558.40, 12184.25, 187500.00, 187500.00, 187500.00, -187500.02, -187500.02, 187500.00, 0.000, 0.000, 0.000, 17:23:46.561
252, -3965.78, 11744.14, 187500.00, 187500.00, 187500.00, -187500.02, -187500.02, 187500.00, 0.000, 0.000, 0.000, 17:23:46.561
253, -4724.35, 10969.43, 187500.00, 187500.00, 187500.00, -187500.02, -187500.02, 187500.00, 0.000, 0.000, 0.000, 17:23:46.562
254, -4460.72, 11311.68, 187500.00, 187500.00, 187500.00, -187500.02, -187500.02, 187500.00, 0.000, 0.000, 0.000, 17:23:46.562
255, -3630.59, 12159.82, 187500.00, 187500.00, 187500.00, -187500.02, -187500.02, 187500.00, 0.008, -0.018, 1.014, 17:23:46.562
0, -3564.45, 12184.02, 187500.00, 187500.00, 187500.00, -187500.02, -187500.02, 187500.00, 0.000, 0.000, 0.000, 17:23:46.562
1, -3965.24, 11743.90, 187500.00, 187500.00, 187500.00, -187500.02, -187500.02, 187500.00, 0.000, 0.000, 0.000, 17:23:46.562
2, -4712.62, 10974.26, 187500.00, 187500.00, 187500.00, -187500.02, -187500.02, 187500.00, 0.000, 0.000, 0.000, 17:23:46.562
3, -4463.06, 11298.61, 187500.00, 187500.00, 187500.00, -187500.02, -187500.02, 187500.00, 0.000, 0.000, 0.000, 17:23:46.563
4, -3633.95, 12151.06, 187500.00, 187500.00, 187500.00, -187500.02, -187500.02, 187500.00, 0.000, 0.000, 0.000, 17:23:46.563
5, -3561.91, 12181.16, 187500.00, 187500.00, 187500.00, -187500.02, -187500.02, 187500.00, 0.000, 0.000, 0.000, 17:23:46.563
6, -3962.70, 11742.85, 187500.00, 187500.00, 187500.00, -187500.02, -187500.02, 187500.00, 0.000, 0.000, 0.000, 17:23:46.563
7, -4714.92, 10972.16, 187500.00, 187500.00, 187500.00, -187500.02, -187500.02, 187500.00, 0.000, 0.000, 0.000, 17:23:46.563
8, -4455.73, 11300.55, 187500.00, 187500.00, 187500.00, -187500.02, -187500.02, 187500.00, 0.000, 0.000, 0.000, 17:23:46.564
9, -3617.47, 12158.97, 187500.00, 187500.00, 187500.00, -187500.02, -187500.02, 187500.00, 0.010, -0.018, 1.026, 17:23:46.564
10, -3536.52, 12207.74, 187500.00, 187500.00, 187500.00, -187500.02, -187500.02, 187500.00, 0.000, 0.000, 0.000, 17:23:46.564
11, -3923.87, 11782.32, 187500.00, 187500.00, 187500.00, -187500.02, -187500.02, 187500.00, 0.000, 0.000, 0.000, 17:23:46.564
12, -4663.00, 11016.84, 187500.00, 187500.00, 187500.00, -187500.02, -187500.02, 187500.00, 0.000, 0.000, 0.000, 17:23:46.564
13, -4413.78, 11345.48, 187500.00, 187500.00, 187500.00, -187500.02, -187500.02, 187500.00, 0.000, 0.000, 0.000, 17:23:46.565
14, -3566.71, 12222.74, 187500.00, 187500.00, 187500.00, -187500.02, -187500.02, 187500.00, 0.000, 0.000, 0.000, 17:23:46.565
15, -3474.53, 12276.65, 187500.00, 187500.00, 187500.00, -187500.02, -187500.02, 187500.00, 0.000, 0.000, 0.000, 17:23:46.565
16, -3852.37, 11861.15, 187500.00, 187500.00, 187500.00, -187500.02, -187500.02, 187500.00, 0.000, 0.000, 0.000, 17:23:46.565
17, -4602.20, 11091.87, 187500.00, 187500.00, 187500.00, -187500.02, -187500.02, 187500.00, 0.000, 0.000, 0.000, 17:23:46.565
18, -4357.94, 11414.95, 187500.00, 187500.00, 187500.00, -187500.02, -187500.02, 187500.00, 0.000, 0.000, 0.000, 17:23:46.565
19, -3501.27, 12293.10, 187500.00, 187500.00, 187500.00, -187500.02, -187500.02, 187500.00, 0.010, -0.016, 1.036, 17:23:46.566
20, -3418.74, 12335.53, 187500.00, 187500.00, 187500.00, -187500.02, -187500.02, 187500.00, 0.000, 0.000, 0.000, 17:23:46.566
21, -3810.50, 11908.41, 187500.00, 187500.00, 187500.00, -187500.02, -187500.02, 187500.00, 0.000, 0.000, 0.000, 17:23:46.566
22, -4567.85, 11126.03, 187500.00, 187500.00, 187500.00, -187500.02, -187500.02, 187500.00, 0.000, 0.000, 0.000, 17:23:46.566
23, -4328.53, 11442.86, 187500.00, 187500.00, 187500.00, -187500.02, -187500.02, 187500.00, 0.000, 0.000, 0.000, 17:23:46.566
24, -3488.24, 12310.09, 187500.00, 187500.00, 187500.00, -187500.02, -187500.02, 187500.00, 0.000, 0.000, 0.000, 17:23:46.566
25, -3412.26, 12346.50, 187500.00, 187500.00, 187500.00, -187500.02, -187500.02, 187500.00, 0.000, 0.000, 0.000, 17:23:46.567
26, -3796.15, 11926.80, 187500.00, 187500.00, 187500.00, -187500.02, -187500.02, 187500.00, 0.000, 0.000, 0.000, 17:23:46.567
27, -4549.14, 11151.26, 187500.00, 187500.00, 187500.00, -187500.02, -187500.02, 187500.00, 0.000, 0.000, 0.000, 17:23:46.567
28, -4334.70, 11442.68, 187500.00, 187500.00, 187500.00, -187500.02, -187500.02, 187500.00, 0.006, -0.018, 1.034, 17:23:46.567
29, -3487.03, 12316.39, 187500.00, 187500.00, 187500.00, -187500.02, -187500.02, 187500.00, 0.000, 0.000, 0.000, 17:23:46.567
30, -3400.44, 12362.03, 187500.00, 187500.00, 187500.00, -187500.02, -187500.02, 187500.00, 0.000, 0.000, 0.000, 17:23:46.567
31, -3790.90, 11935.83, 187500.00, 187500.00, 187500.00, -187500.02, -187500.02, 187500.00, 0.000, 0.000, 0.000, 17:23:46.568
32, -4555.31, 11150.93, 187500.00, 187500.00, 187500.00, -187500.02, -187500.02, 187500.00, 0.000, 0.000, 0.000, 17:23:46.568
33, -4335.77, 11446.57, 187500.00, 187500.00, 187500.00, -187500.02, -187500.02, 187500.00, 0.000, 0.000, 0.000, 17:23:46.568
34, -3484.77, 12323.34, 187500.00, 187500.00, 187500.00, -187500.02, -187500.02, 187500.00, 0.000, 0.000, 0.000, 17:23:46.568
35, -3396.41, 12370.59, 187500.00, 187500.00, 187500.00, -187500.02, -187500.02, 187500.00, 0.000, 0.000, 0.000, 17:23:46.568
36, -3782.03, 11947.41, 187500.00, 187500.00, 187500.00, -187500.02, -187500.02, 187500.00, 0.000, 0.000, 0.000, 17:23:46.569
37, -4540.69, 11164.63, 187500.00, 187500.00, 187500.00, -187500.02, -187500.02, 187500.00, 0.000, 0.000, 0.000, 17:23:46.569
38, -4334.70, 11444.90, 187500.00, 187500.00, 187500.00, -187500.02, -187500.02, 187500.00, 0.006, -0.018, 1.034, 17:23:46.569
39, -3503.46, 12298.02, 187500.00, 187500.00, 187500.00, -187500.02, -187500.02, 187500.00, 0.000, 0.000, 0.000, 17:23:46.569
40, -3399.21, 12361.32, 187500.00, 187500.00, 187500.00, -187500.02, -187500.02, 187500.00, 0.000, 0.000, 0.000, 17:23:46.569
41, -3776.19, 11947.99, 187500.00, 187500.00, 187500.00, -187500.02, -187500.02, 187500.00, 0.000, 0.000, 0.000, 17:23:46.569
42, -4535.08, 11167.60, 187500.00, 187500.00, 187500.00, -187500.02, -187500.02, 187500.00, 0.000, 0.000, 0.000, 17:23:46.570
43, -4335.50, 11445.50, 187500.00, 187500.00, 187500.00, -187500.02, -187500.02, 187500.00, 0.000, 0.000, 0.000, 17:23:46.570
44, -3485.98, 12322.65, 187500.00, 187500.00, 187500.00, -187500.02, -187500.02, 187500.00, 0.000, 0.000, 0.000, 17:23:46.570
45, -3390.98, 12377.19, 187500.00, 187500.00, 187500.00, -187500.02, -187500.02, 187500.00, 0.000, 0.000, 0.000, 17:23:46.570
46, -3775.75, 11955.86, 187500.00, 187500.00, 187500.00, -187500.02, -187500.02, 187500.00, 0.000, 0.000, 0.000, 17:23:46.570
47, -4536.78, 11173.70, 187500.00, 187500.00, 187500.00, -187500.02, -187500.02, 187500.00, 0.000, 0.000, 0.000, 17:23:46.570
48, -4353.54, 11437.19, 187500.00, 187500.00, 187500.00, -187500.02, -187500.02, 187500.00, 0.004, -0.018, 1.036, 17:23:46.571
49, -3503.14, 12314.65, 187500.00, 187500.00, 187500.00, -187500.02, -187500.02, 187500.00, 0.000, 0.000, 0.000, 17:23:46.571
50, -3394.36, 12383.49, 187500.00, 187500.00, 187500.00, -187500.02, -187500.02, 187500.00, 0.000, 0.000, 0.000, 17:23:46.571
51, -3775.63, 11965.74, 187500.00, 187500.00, 187500.00, -187500.02, -187500.02, 187500.00, 0.000, 0.000, 0.000, 17:23:46.571
52, -4538.12, 11177.15, 187500.00, 187500.00, 187500.00, -187500.02, -187500.02, 187500.00, 0.000, 0.000, 0.000, 17:23:46.571
53, -4354.52, 11437.14, 187500.00, 187500.00, 187500.00, -187500.02, -187500.02, 187500.00, 0.000, 0.000, 0.000, 17:23:46.572
54, -3492.68, 12328.42, 187500.00, 187500.00, 187500.00, -187500.02, -187500.02, 187500.00, 0.000, 0.000, 0.000, 17:23:46.572
55, -3390.40, 12386.51, 187500.00, 187500.00, 187500.00, -187500.02, -187500.02, 187500.00, 0.000, 0.000, 0.000, 17:23:46.572
56, -3770.81, 11969.65, 187500.00, 187500.00, 187500.00, -187500.02, -187500.02, 187500.00, 0.000, 0.000, 0.000, 17:23:46.572
57, -4532.15, 11187.16, 187500.00, 187500.00, 187500.00, -187500.02, -187500.02, 187500.00, 0.000, 0.000, 0.000, 17:23:46.572
58, -4359.62, 11432.49, 187500.00, 187500.00, 187500.00, -187500.02, -187500.02, 187500.00, 0.006, -0.016, 1.030, 17:23:46.572
59, -3511.12, 12306.04, 187500.00, 187500.00, 187500.00, -187500.02, -187500.02, 187500.00, 0.000, 0.000, 0.000, 17:23:46.573
60, -3397.00, 12381.73, 187500.00, 187500.00, 187500.00, -187500.02, -187500.02, 187500.00, 0.000, 0.000, 0.000, 17:23:46.573
61, -3770.90, 11972.82, 187500.00, 187500.00, 187500.00, -187500.02, -187500.02, 187500.00, 0.000, 0.000, 0.000, 17:23:46.573
62, -4538.63, 11182.93, 187500.00, 187500.00, 187500.00, -187500.02, -187500.02, 187500.00, 0.000, 0.000, 0.000, 17:23:46.573
63, -4362.26, 11437.88, 187500.00, 187500.00, 187500.00, -187500.02, -187500.02, 187500.00, 0.000, 0.000, 0.000, 17:23:46.573
64, -3503.61, 12324.84, 187500.00, 187500.00, 187500.00, -187500.02, -187500.02, 187500.00, 0.000, 0.000, 0.000, 17:23:46.573
65, -3390.89, 12393.71, 187500.00, 187500.00, 187500.00, -187500.02, -187500.02, 187500.00, 0.000, 0.000, 0.000, 17:23:46.573
66, -3757.60, 11988.83, 187500.00, 187500.00, 187500.00, -187500.02, -187500.02, 187500.00, 0.000, 0.000, 0.000, 17:23:46.573
67, -4528.33, 11190.56, 187500.00, 187500.00, 187500.00, -187500.02, -187500.02, 187500.00, 0.000, 0.000, 0.000, 17:23:46.574
68, -4370.37, 11428.80, 187500.00, 187500.00, 187500.00, -187500.02, -187500.02, 187500.00, 0.010, -0.018, 1.032, 17:23:46.574
69, -3505.11, 12327.97, 187500.00, 187500.00, 187500.00, -187500.02, -187500.02, 187500.00, 0.000, 0.000, 0.000, 17:23:46.574
70, -3388.97, 12405.33, 187500.00, 187500.00, 187500.00, -187500.02, -187500.02, 187500.00, 0.000, 0.000, 0.000, 17:23:46.574
71, -3766.63, 11988.00, 187500.00, 187500.00, 187500.00, -187500.02, -187500.02, 187500.00, 0.000, 0.000, 0.000, 17:23:46.574
72, -4528.35, 11198.04, 187500.00, 187500.00, 187500.00, -187500.02, -187500.02, 187500.00, 0.000, 0.000, 0.000, 17:23:46.574
73, -4367.69, 11430.75, 187500.00, 187500.00, 187500.00, -187500.02, -187500.02, 187500.00, 0.000, 0.000, 0.000, 17:23:46.574
74, -3506.47, 12318.34, 187500.00, 187500.00, 187500.00, -187500.02, -187500.02, 187500.00, 0.000, 0.000, 0.000, 17:23:46.574
75, -3379.63, 12404.75, 187500.00, 187500.00, 187500.00, -187500.02, -187500.02, 187500.00, 0.000, 0.000, 0.000, 17:23:46.575
76, -3749.44, 11999.44, 187500.00, 187500.00, 187500.00, -187500.02, -187500.02, 187500.00, 0.000, 0.000, 0.000, 17:23:46.575
77, -4517.44, 11207.68, 187500.00, 187500.00, 187500.00, -187500.02, -187500.02, 187500.00, 0.000, 0.000, 0.000, 17:23:46.575
78, -4363.55, 11433.45, 187500.00, 187500.00, 187500.00, -187500.02, -187500.02, 187500.00, 0.012, -0.010, 1.032, 17:23:46.575
79, -3496.53, 12330.18, 187500.00, 187500.00, 187500.00, -187500.02, -187500.02, 187500.00, 0.000, 0.000, 0.000, 17:23:46.575
80, -3378.82, 12410.40, 187500.00, 187500.00, 187500.00, -187500.02, -187500.02, 187500.00, 0.000, 0.000, 0.000, 17:23:46.576
81, -3747.58, 12007.71, 187500.00, 187500.00, 187500.00, -187500.02, -187500.02, 187500.00, 0.000, 0.000, 0.000, 17:23:46.576
82, -4512.50, 11214.16, 187500.00, 187500.00, 187500.00, -187500.02, -187500.02, 187500.00, 0.000, 0.000, 0.000, 17:23:46.576
83, -4372.29, 11428.16, 187500.00, 187500.00, 187500.00, -187500.02, -187500.02, 187500.00, 0.000, 0.000, 0.000, 17:23:46.576
84, -3507.19, 12322.45, 187500.00, 187500.00, 187500.00, -187500.02, -187500.02, 187500.00, 0.000, 0.000, 0.000, 17:23:46.576
85, -3370.06, 12418.14, 187500.00, 187500.00, 187500.00, -187500.02, -187500.02, 187500.00, 0.000, 0.000, 0.000, 17:23:46.577
86, -3736.16, 12013.37, 187500.00, 187500.00, 187500.00, -187500.02, -187500.02, 187500.00, 0.000, 0.000, 0.000, 17:23:46.577
87, -4508.12, 11213.13, 187500.00, 187500.00, 187500.00, -187500.02, -187500.02, 187500.00, 0.000, 0.000, 0.000, 17:23:46.577
88, -4363.55, 11435.60, 187500.00, 187500.00, 187500.00, -187500.02, -187500.02, 187500.00, 0.006, -0.012, 1.026, 17:23:46.577
89, -3500.75, 12330.88, 187500.00, 187500.00, 187500.00, -187500.02, -187500.02, 187500.00, 0.000, 0.000, 0.000, 17:23:46.577
90, -3370.04, 12421.89, 187500.00, 187500.00, 187500.00, -187500.02, -187500.02, 187500.00, 0.000, 0.000, 0.000, 17:23:46.577
91, -3736.61, 12020.41, 187500.00, 187500.00, 187500.00, -187500.02, -187500.02, 187500.00, 0.000, 0.000, 0.000, 17:23:46.578
92, -4502.51, 11226.86, 187500.00, 187500.00, 187500.00, -187500.02, -187500.02, 187500.00, 0.000, 0.000, 0.000, 17:23:46.578
93, -4383.31, 11422.66, 187500.00, 187500.00, 187500.00, -187500.02, -187500.02, 187500.00, 0.000, 0.000, 0.000, 17:23:46.578
94, -3512.00, 12322.02, 187500.00, 187500.00, 187500.00, -187500.02, -187500.02, 187500.00, 0.000, 0.000, 0.000, 17:23:46.578
95, -3380.61, 12412.48, 187500.00, 187500.00, 187500.00, -187500.02, -187500.02, 187500.00, 0.000, 0.000, 0.000, 17:23:46.578
96, -3738.98, 12021.21, 187500.00, 187500.00, 187500.00, -187500.02, -187500.02, 187500.00, 0.000, 0.000, 0.000, 17:23:46.579
97, -4502.58, 11232.96, 187500.00, 187500.00, 187500.00, -187500.02, -187500.02, 187500.00, 0.000, 0.000, 0.000, 17:23:46.579
98, -4393.03, 11421.58, 187500.00, 187500.00, 187500.00, -187500.02, -187500.02, 187500.00, 0.006, -0.010, 1.026, 17:23:46.579
99, -3528.83, 12319.68, 187500.00, 187500.00, 187500.00, -187500.02, -187500.02, 187500.00, 0.000, 0.000, 0.000, 17:23:46.579
100, -3392.03, 12411.59, 187500.00, 187500.00, 187500.00, -187500.02, -187500.02, 187500.00, 0.000, 0.000, 0.000, 17:23:46.579
101, -3748.75, 12018.62, 187500.00, 187500.00, 187500.00, -187500.02, -187500.02, 187500.00, 0.000, 0.000, 0.000, 17:23:46.579
102, -4508.95, 11232.56, 187500.00, 187500.00, 187500.00, -187500.02, -187500.02, 187500.00, 0.000, 0.000, 0.000, 17:23:46.580
103, -4394.00, 11420.96, 187500.00, 187500.00, 187500.00, -187500.02, -187500.02, 187500.00, 0.000, 0.000, 0.000, 17:23:46.580
104, -3521.45, 12328.86, 187500.00, 187500.00, 187500.00, -187500.02, -187500.02, 187500.00, 0.000, 0.000, 0.000, 17:23:47.040
105, -3375.87, 12433.18, 187500.00, 187500.00, 187500.00, -187500.02, -187500.02, 187500.00, 0.000, 0.000, 0.000, 17:23:47.040
106, -3743.89, 12029.22, 187500.00, 187500.00, 187500.00, -187500.02, -187500.02, 187500.00, 0.000, 0.000, 0.000, 17:23:47.040
107, -4508.91, 11236.74, 187500.00, 187500.00, 187500.00, -187500.02, -187500.02, 187500.00, 0.000, 0.000, 0.000, 17:23:47.040
108, -4404.61, 11414.66, 187500.00, 187500.00, 187500.00, -187500.02, -187500.02, 187500.00, 0.006, -0.014, 1.024, 17:23:47.040
109, -3531.93, 12318.90, 187500.00, 187500.00, 187500.00, -187500.02, -187500.02, 187500.00, 0.000, 0.000, 0.000, 17:23:47.041
110, -3385.10, 12425.40, 187500.00, 187500.00, 187500.00, -187500.02, -187500.02, 187500.00, 0.000, 0.000, 0.000, 17:23:47.041
111, -3744.23, 12034.80, 187500.00, 187500.00, 187500.00, -187500.02, -187500.02, 187500.00, 0.000, 0.000, 0.000, 17:23:47.041
112, -4499.03, 11250.59, 187500.00, 187500.00, 187500.00, -187500.02, -187500.02, 187500.00, 0.000, 0.000, 0.000, 17:23:47.041
113, -4402.62, 11417.49, 187500.00, 187500.00, 187500.00, -187500.02, -187500.02, 187500.00, 0.000, 0.000, 0.000, 17:23:47.041
114, -3532.69, 12316.62, 187500.00, 187500.00, 187500.00, -187500.02, -187500.02, 187500.00, 0.000, 0.000, 0.000, 17:23:47.041
115, -3377.62, 12431.30, 187500.00, 187500.00, 187500.00, -187500.02, -187500.02, 187500.00, 0.000, 0.000, 0.000, 17:23:47.042
116, -3725.75, 12049.11, 187500.00, 187500.00, 187500.00, -187500.02, -187500.02, 187500.00, 0.000, 0.000, 0.000, 17:23:47.042
117, -4493.01, 11255.42, 187500.00, 187500.00, 187500.00, -187500.02, -187500.02, 187500.00, 0.000, 0.000, 0.000, 17:23:47.042
118, -4400.99, 11421.70, 187500.00, 187500.00, 187500.00, -187500.02, -187500.02, 187500.00, 0.008, -0.016, 1.030, 17:23:47.042
119, -3534.79, 12322.72, 187500.00, 187500.00, 187500.00, -187500.02, -187500.02, 187500.00, 0.000, 0.000, 0.000, 17:23:47.042
120, -3374.22, 12442.63, 187500.00, 187500.00, 187500.00, -187500.02, -187500.02, 187500.00, 0.000, 0.000, 0.000, 17:23:47.042
121, -3713.83, 12066.34, 187500.00, 187500.00, 187500.00, -187500.02, -187500.02, 187500.00, 0.000, 0.000, 0.000, 17:23:47.043
122, -4476.92, 11273.19, 187500.00, 187500.00, 187500.00, -187500.02, -187500.02, 187500.00, 0.000, 0.000, 0.000, 17:23:47.043
123, -4396.19, 11421.27, 187500.00, 187500.00, 187500.00, -187500.02, -187500.02, 187500.00, 0.000, 0.000, 0.000, 17:23:47.043
124, -3526.35, 12324.19, 187500.00, 187500.00, 187500.00, -187500.02, -187500.02, 187500.00, 0.000, 0.000, 0.000, 17:23:47.043
125, -3370.17, 12442.61, 187500.00, 187500.00, 187500.00, -187500.02, -187500.02, 187500.00, 0.000, 0.000, 0.000, 17:23:47.043
126, -3721.54, 12057.02, 187500.00, 187500.00, 187500.00, -187500.02, -187500.02, 187500.00, 0.000, 0.000, 0.000, 17:23:47.043
127, -4480.21, 11271.07, 187500.00, 187500.00, 187500.00, -187500.02, -187500.02, 187500.00, 0.000, 0.000, 0.000, 17:23:47.043
128, -4403.90, 11414.43, 187500.00, 187500.00, 187500.00, -187500.02, -187500.02, 187500.00, 0.004, -0.010, 1.030, 17:23:47.043
129, -3530.26, 12321.71, 187500.00, 187500.00, 187500.00, -187500.02, -187500.02, 187500.00, 0.000, 0.000, 0.000, 17:23:47.044
130, -3378.73, 12432.82, 187500.00, 187500.00, 187500.00, -187500.02, -187500.02, 187500.00, 0.000, 0.000, 0.000, 17:23:47.044
131, -3715.55, 12064.82, 187500.00, 187500.00, 187500.00, -187500.02, -187500.02, 187500.00, 0.000, 0.000, 0.000, 17:23:47.044
132, -4473.03, 11283.27, 187500.00, 187500.00, 187500.00, -187500.02, -187500.02, 187500.00, 0.000, 0.000, 0.000, 17:23:47.044
133, -4406.18, 11419.84, 187500.00, 187500.00, 187500.00, -187500.02, -187500.02, 187500.00, 0.000, 0.000, 0.000, 17:23:47.044
134, -3534.17, 12326.52, 187500.00, 187500.00, 187500.00, -187500.02, -187500.02, 187500.00, 0.000, 0.000, 0.000, 17:23:47.044
135, -3371.27, 12454.46, 187500.00, 187500.00, 187500.00, -187500.02, -187500.02, 187500.00, 0.000, 0.000, 0.000, 17:23:47.044
136, -3721.88, 12070.92, 187500.00, 187500.00, 187500.00, -187500.02, -187500.02, 187500.00, 0.000, 0.000, 0.000, 17:23:47.045
137, -4477.08, 11284.55, 187500.00, 187500.00, 187500.00, -187500.02, -187500.02, 187500.00, 0.000, 0.000, 0.000, 17:23:47.045
138, -4412.97, 11413.25, 187500.00, 187500.00, 187500.00, -187500.02, -187500.02, 187500.00, 0.006, -0.016, 1.026, 17:23:47.045
139, -3540.23, 12323.05, 187500.00, 187500.00, 187500.00, -187500.02, -187500.02, 187500.00, 0.000, 0.000, 0.000, 17:23:47.045
140, -3373.37, 12452.40, 187500.00, 187500.00, 187500.00, -187500.02, -187500.02, 187500.00, 0.000, 0.000, 0.000, 17:23:47.045
141, -3715.13, 12073.85, 187500.00, 187500.00, 187500.00, -187500.02, -187500.02, 187500.00, 0.000, 0.000, 0.000, 17:23:47.046
142, -4476.25, 11286.80, 187500.00, 187500.00, 187500.00, -187500.02, -187500.02, 187500.00, 0.000, 0.000, 0.000, 17:23:47.046
143, -4421.15, 11407.91, 187500.00, 187500.00, 187500.00, -187500.02, -187500.02, 187500.00, 0.000, 0.000, 0.000, 17:23:47.046
144, -3545.08, 12320.08, 187500.00, 187500.00, 187500.00, -187500.02, -187500.02, 187500.00, 0.000, 0.000, 0.000, 17:23:47.046
145, -3374.04, 12452.02, 187500.00, 187500.00, 187500.00, -187500.02, -187500.02, 187500.00, 0.000, 0.000, 0.000, 17:23:47.046
146, -3716.80, 12076.13, 187500.00, 187500.00, 187500.00, -187500.02, -187500.02, 187500.00, 0.000, 0.000, 0.000, 17:23:47.046
147, -4485.46, 11278.20, 187500.00, 187500.00, 187500.00, -187500.02, -187500.02, 187500.00, 0.000, 0.000, 0.000, 17:23:47.047
148, -4440.89, 11388.28, 187500.00, 187500.00, 187500.00, -187500.02, -187500.02, 187500.00, 0.004, -0.012, 1.030, 17:23:47.047
149, -3565.17, 12302.53, 187500.00, 187500.00, 187500.00, -187500.02, -187500.02, 187500.00, 0.000, 0.000, 0.000, 17:23:47.047
150, -3384.03, 12445.94, 187500.00, 187500.00, 187500.00, -187500.02, -187500.02, 187500.00, 0.000, 0.000, 0.000, 17:23:47.047
151, -3720.27, 12076.85, 187500.00, 187500.00, 187500.00, -187500.02, -187500.02, 187500.00, 0.000, 0.000, 0.000, 17:23:47.047
152, -4480.76, 11287.76, 187500.00, 187500.00, 187500.00, -187500.02, -187500.02, 187500.00, 0.000, 0.000, 0.000, 17:23:47.047
153, -4446.25, 11389.89, 187500.00, 187500.00, 187500.00, -187500.02, -187500.02, 187500.00, 0.000, 0.000, 0.000, 17:23:47.048
154, -3564.57, 12307.96, 187500.00, 187500.00, 187500.00, -187500.02, -187500.02, 187500.00, 0.000, 0.000, 0.000, 17:23:47.048
155, -3383.70, 12448.98, 187500.00, 187500.00, 187500.00, -187500.02, -187500.02, 187500.00, 0.000, 0.000, 0.000, 17:23:47.048
156, -3725.21, 12072.31, 187500.00, 187500.00, 187500.00, -187500.02, -187500.02, 187500.00, 0.000, 0.000, 0.000, 17:23:47.048
157, -4489.41, 11282.58, 187500.00, 187500.00, 187500.00, -187500.02, -187500.02, 187500.00, 0.004, -0.008, 1.038, 17:23:47.048
158, -4445.61, 11385.40, 187500.00, 187500.00, 187500.00, -187500.02, -187500.02, 187500.00, 0.000, 0.000, 0.000, 17:23:47.049
159, -3564.01, 12300.32, 187500.00, 187500.00, 187500.00, -187500.02, -187500.02, 187500.00, 0.000, 0.000, 0.000, 17:23:47.049
160, -3387.50, 12442.41, 187500.00, 187500.00, 187500.00, -187500.02, -187500.02, 187500.00, 0.000, 0.000, 0.000, 17:23:47.049
161, -3717.18, 12082.88, 187500.00, 187500.00, 187500.00, -187500.02, -187500.02, 187500.00, 0.000, 0.000, 0.000, 17:23:47.049
162, -4477.81, 11297.42, 187500.00, 187500.00, 187500.00, -187500.02, -187500.02, 187500.00, 0.000, 0.000, 0.000, 17:23:47.049
163, -4446.57, 11393.67, 187500.00, 187500.00, 187500.00, -187500.02, -187500.02, 187500.00, 0.000, 0.000, 0.000, 17:23:47.049
164, -3574.65, 12302.65, 187500.00, 187500.00, 187500.00, -187500.02, -187500.02, 187500.00, 0.000, 0.000, 0.000, 17:23:47.049
165, -3391.25, 12449.76, 187500.00, 187500.00, 187500.00, -187500.02, -187500.02, 187500.00, 0.000, 0.000, 0.000, 17:23:47.050
166, -3715.40, 12092.72, 187500.00, 187500.00, 187500.00, -187500.02, -187500.02, 187500.00, 0.000, 0.000, 0.000, 17:23:47.050
167, -4470.93, 11306.58, 187500.00, 187500.00, 187500.00, -187500.02, -187500.02, 187500.00, 0.008, -0.006, 1.034, 17:23:47.050
168, -4451.91, 11389.42, 187500.00, 187500.00, 187500.00, -187500.02, -187500.02, 187500.00, 0.000, 0.000, 0.000, 17:23:47.050
169, -3574.74, 12300.23, 187500.00, 187500.00, 187500.00, -187500.02, -187500.02, 187500.00, 0.000, 0.000, 0.000, 17:23:47.050
170, -3387.99, 12448.49, 187500.00, 187500.00, 187500.00, -187500.02, -187500.02, 187500.00, 0.000, 0.000, 0.000, 17:23:47.050
171, -3718.12, 12086.73, 187500.00, 187500.00, 187500.00, -187500.02, -187500.02, 187500.00, 0.000, 0.000, 0.000, 17:23:47.051
172, -4478.55, 11301.06, 187500.00, 187500.00, 187500.00, -187500.02, -187500.02, 187500.00, 0.000, 0.000, 0.000, 17:23:47.051
173, -4461.39, 11379.63, 187500.00, 187500.00, 187500.00, -187500.02, -187500.02, 187500.00, 0.000, 0.000, 0.000, 17:23:47.051
174, -3577.60, 12300.90, 187500.00, 187500.00, 187500.00, -187500.02, -187500.02, 187500.00, 0.000, 0.000, 0.000, 17:23:47.051
175, -3387.05, 12456.27, 187500.00, 187500.00, 187500.00, -187500.02, -187500.02, 187500.00, 0.000, 0.000, 0.000, 17:23:47.051
176, -3716.11, 12095.49, 187500.00, 187500.00, 187500.00, -187500.02, -187500.02, 187500.00, 0.000, 0.000, 0.000, 17:23:47.051
177, -4467.73, 11310.25, 187500.00, 187500.00, 187500.00, -187500.02, -187500.02, 187500.00, 0.006, -0.004, 1.030, 17:23:47.052
178, -4451.37, 11386.25, 187500.00, 187500.00, 187500.00, -187500.02, -187500.02, 187500.00, 0.000, 0.000, 0.000, 17:23:47.052
179, -3572.17, 12301.97, 187500.00, 187500.00, 187500.00, -187500.02, -187500.02, 187500.00, 0.000, 0.000, 0.000, 17:23:47.052
180, -3377.37, 12458.59, 187500.00, 187500.00, 187500.00, -187500.02, -187500.02, 187500.00, 0.000, 0.000, 0.000, 17:23:47.052
181, -3693.29, 12108.10, 187500.00, 187500.00, 187500.00, -187500.02, -187500.02, 187500.00, 0.000, 0.000, 0.000, 17:23:47.052
182, -4444.00, 11326.59, 187500.00, 187500.00, 187500.00, -187500.02, -187500.02, 187500.00, 0.000, 0.000, 0.000, 17:23:47.052
183, -4444.89, 11391.59, 187500.00, 187500.00, 187500.00, -187500.02, -187500.02, 187500.00, 0.000, 0.000, 0.000, 17:23:47.053
184, -3572.79, 12305.10, 187500.00, 187500.00, 187500.00, -187500.02, -187500.02, 187500.00, 0.000, 0.000, 0.000, 17:23:47.053
185, -3374.51, 12464.52, 187500.00, 187500.00, 187500.00, -187500.02, -187500.02, 187500.00, 0.000, 0.000, 0.000, 17:23:47.053
186, -3698.12, 12111.56, 187500.00, 187500.00, 187500.00, -187500.02, -187500.02, 187500.00, 0.000, 0.000, 0.000, 17:23:47.053
187, -4451.91, 11332.18, 187500.00, 187500.00, 187500.00, -187500.02, -187500.02, 187500.00, 0.010, -0.008, 1.020, 17:23:47.053
188, -4464.60, 11383.32, 187500.00, 187500.00, 187500.00, -187500.02, -187500.02, 187500.00, 0.000, 0.000, 0.000, 17:23:47.054
189, -3576.55, 12308.37, 187500.00, 187500.00, 187500.00, -187500.02, -187500.02, 187500.00, 0.000, 0.000, 0.000, 17:23:47.054
190, -3367.13, 12478.20, 187500.00, 187500.00, 187500.00, -187500.02, -187500.02, 187500.00, 0.000, 0.000, 0.000, 17:23:47.054
191, -3692.69, 12116.68, 187500.00, 187500.00, 187500.00, -187500.02, -187500.02, 187500.00, 0.000, 0.000, 0.000, 17:23:47.054
192, -4438.85, 11340.00, 187500.00, 187500.00, 187500.00, -187500.02, -187500.02, 187500.00, 0.000, 0.000, 0.000, 17:23:47.054
193, -4450.77, 11388.35, 187500.00, 187500.00, 187500.00, -187500.02, -187500.02, 187500.00, 0.000, 0.000, 0.000, 17:23:47.054
194, -3576.66, 12301.68, 187500.00, 187500.00, 187500.00, -187500.02, -187500.02, 187500.00, 0.000, 0.000, 0.000, 17:23:47.055
195, -3372.41, 12474.93, 187500.00, 187500.00, 187500.00, -187500.02, -187500.02, 187500.00, 0.000, 0.000, 0.000, 17:23:47.055
196, -3684.64, 12130.83, 187500.00, 187500.00, 187500.00, -187500.02, -187500.02, 187500.00, 0.000, 0.000, 0.000, 17:23:47.055
197, -4433.07, 11352.56, 187500.00, 187500.00, 187500.00, -187500.02, -187500.02, 187500.00, 0.010, -0.012, 1.020, 17:23:47.055
198, -4449.32, 11399.39, 187500.00, 187500.00, 187500.00, -187500.02, -187500.02, 187500.00, 0.000, 0.000, 0.000, 17:23:47.055
199, -3569.06, 12315.61, 187500.00, 187500.00, 187500.00, -187500.02, -187500.02, 187500.00, 0.000, 0.000, 0.000, 17:23:47.055
200, -3359.04, 12486.29, 187500.00, 187500.00, 187500.00, -187500.02, -187500.02, 187500.00, 0.000, 0.000, 0.000, 17:23:47.056
201, -3673.40, 12134.20, 187500.00, 187500.00, 187500.00, -187500.02, -187500.02, 187500.00, 0.000, 0.000, 0.000, 17:23:47.056
202, -4427.97, 11349.92, 187500.00, 187500.00, 187500.00, -187500.02, -187500.02, 187500.00, 0.000, 0.000, 0.000, 17:23:47.056
203, -4455.75, 11382.07, 187500.00, 187500.00, 187500.00, -187500.02, -187500.02, 187500.00, 0.000, 0.000, 0.000, 17:23:47.056
204, -3577.75, 12298.40, 187500.00, 187500.00, 187500.00, -187500.02, -187500.02, 187500.00, 0.000, 0.000, 0.000, 17:23:47.056
205, -3352.67, 12488.05, 187500.00, 187500.00, 187500.00, -187500.02, -187500.02, 187500.00, 0.000, 0.000, 0.000, 17:23:47.056
206, -3667.45, 12138.54, 187500.00, 187500.00, 187500.00, -187500.02, -187500.02, 187500.00, 0.000, 0.000, 0.000, 17:23:47.057
207, -4420.93, 11350.46, 187500.00, 187500.00, 187500.00, -187500.02, -187500.02, 187500.00, 0.008, -0.016, 1.022, 17:23:47.057
208, -4454.28, 11378.74, 187500.00, 187500.00, 187500.00, -187500.02, -187500.02, 187500.00, 0.000, 0.000, 0.000, 17:23:47.057
209, -3572.61, 12306.04, 187500.00, 187500.00, 187500.00, -187500.02, -187500.02, 187500.00, 0.000, 0.000, 0.000, 17:23:47.057
210, -3350.01, 12488.70, 187500.00, 187500.00, 187500.00, -187500.02, -187500.02, 187500.00, 0.000, 0.000, 0.000, 17:23:47.057
211, -3659.63, 12144.95, 187500.00, 187500.00, 187500.00, -187500.02, -187500.02, 187500.00, 0.000, 0.000, 0.000, 17:23:47.058
212, -4416.46, 11357.12, 187500.00, 187500.00, 187500.00, -187500.02, -187500.02, 187500.00, 0.000, 0.000, 0.000, 17:23:47.058
213, -4459.93, 11374.71, 187500.00, 187500.00, 187500.00, -187500.02, -187500.02, 187500.00, 0.000, 0.000, 0.000, 17:23:47.058
214, -3581.22, 12299.07, 187500.00, 187500.00, 187500.00, -187500.02, -187500.02, 187500.00, 0.000, 0.000, 0.000, 17:23:47.058
215, -3355.94, 12484.99, 187500.00, 187500.00, 187500.00, -187500.02, -187500.02, 187500.00, 0.000, 0.000, 0.000, 17:23:47.058
216, -3663.83, 12144.35, 187500.00, 187500.00, 187500.00, -187500.02, -187500.02, 187500.00, 0.000, 0.000, 0.000, 17:23:47.058
217, -4417.44, 11359.85, 187500.00, 187500.00, 187500.00, -187500.02, -187500.02, 187500.00, 0.006, -0.018, 1.028, 17:23:47.059
218, -4463.33, 11374.33, 187500.00, 187500.00, 187500.00, -187500.02, -187500.02, 187500.00, 0.000, 0.000, 0.000, 17:23:47.059
219, -3581.06, 12300.08, 187500.00, 187500.00, 187500.00, -187500.02, -187500.02, 187500.00, 0.000, 0.000, 0.000, 17:23:47.059
220, -3355.89, 12490.20, 187500.00, 187500.00, 187500.00, -187500.02, -187500.02, 187500.00, 0.000, 0.000, 0.000, 17:23:47.059
221, -3662.98, 12149.60, 187500.00, 187500.00, 187500.00, -187500.02, -187500.02, 187500.00, 0.000, 0.000, 0.000, 17:23:47.059
222, -4410.94, 11369.75, 187500.00, 187500.00, 187500.00, -187500.02, -187500.02, 187500.00, 0.000, 0.000, 0.000, 17:23:47.059
223, -4462.23, 11379.03, 187500.00, 187500.00, 187500.00, -187500.02, -187500.02, 187500.00, 0.000, 0.000, 0.000, 17:23:47.060
224, -3591.12, 12291.22, 187500.00, 187500.00, 187500.00, -187500.02, -187500.02, 187500.00, 0.000, 0.000, 0.000, 17:23:47.060
225, -3353.16, 12492.01, 187500.00, 187500.00, 187500.00, -187500.02, -187500.02, 187500.00, 0.000, 0.000, 0.000, 17:23:47.520
226, -3657.33, 12153.25, 187500.00, 187500.00, 187500.00, -187500.02, -187500.02, 187500.00, 0.000, 0.000, 0.000, 17:23:47.520
227, -4404.08, 11373.93, 187500.00, 187500.00, 187500.00, -187500.02, -187500.02, 187500.00, 0.012, -0.024, 1.034, 17:23:47.521
228, -4466.66, 11374.11, 187500.00, 187500.00, 187500.00, -187500.02, -187500.02, 187500.00, 0.000, 0.000, 0.000, 17:23:47.521
229, -3586.29, 12302.38, 187500.00, 187500.00, 187500.00, -187500.02, -187500.02, 187500.00, 0.000, 0.000, 0.000, 17:23:47.521
230, -3348.85, 12504.30, 187500.00, 187500.00, 187500.00, -187500.02, -187500.02, 187500.00, 0.000, 0.000, 0.000, 17:23:47.521
231, -3651.72, 12164.13, 187500.00, 187500.00, 187500.00, -187500.02, -187500.02, 187500.00, 0.000, 0.000, 0.000, 17:23:47.522
232, -4402.53, 11384.17, 187500.00, 187500.00, 187500.00, -187500.02, -187500.02, 187500.00, 0.000, 0.000, 0.000, 17:23:47.522
233, -4467.24, 11381.58, 187500.00, 187500.00, 187500.00, -187500.02, -187500.02, 187500.00, 0.000, 0.000, 0.000, 17:23:47.522
234, -3585.69, 12309.62, 187500.00, 187500.00, 187500.00, -187500.02, -187500.02, 187500.00, 0.000, 0.000, 0.000, 17:23:47.522
235, -3355.82, 12505.11, 187500.00, 187500.00, 187500.00, -187500.02, -187500.02, 187500.00, 0.000, 0.000, 0.000, 17:23:47.522
236, -3665.26, 12158.61, 187500.00, 187500.00, 187500.00, -187500.02, -187500.02, 187500.00, 0.000, 0.000, 0.000, 17:23:47.523
237, -4405.57, 11386.40, 187500.00, 187500.00, 187500.00, -187500.02, -187500.02, 187500.00, 0.010, -0.022, 1.038, 17:23:47.523
238, -4481.48, 11373.44, 187500.00, 187500.00, 187500.00, -187500.02, -187500.02, 187500.00, 0.000, 0.000, 0.000, 17:23:47.523
239, -3604.13, 12296.63, 187500.00, 187500.00, 187500.00, -187500.02, -187500.02, 187500.00, 0.000, 0.000, 0.000, 17:23:47.523
240, -3359.15, 12503.90, 187500.00, 187500.00, 187500.00, -187500.02, -187500.02, 187500.00, 0.000, 0.000, 0.000, 17:23:47.523
241, -3663.45, 12162.83, 187500.00, 187500.00, 187500.00, -187500.02, -187500.02, 187500.00, 0.000, 0.000, 0.000, 17:23:47.524
242, -4414.72, 11378.89, 187500.00, 187500.00, 187500.00, -187500.02, -187500.02, 187500.00, 0.000, 0.000, 0.000, 17:23:47.524
243, -4488.65, 11363.76, 187500.00, 187500.00, 187500.00, -187500.02, -187500.02, 187500.00, 0.000, 0.000, 0.000, 17:23:47.524
244, -3606.95, 12294.42, 187500.00, 187500.00, 187500.00, -187500.02, -187500.02, 187500.00, 0.000, 0.000, 0.000, 17:23:47.524
245, -3357.48, 12510.58, 187500.00, 187500.00, 187500.00, -187500.02, -187500.02, 187500.00, 0.000, 0.000, 0.000, 17:23:47.524
246, -3662.51, 12169.41, 187500.00, 187500.00, 187500.00, -187500.02, -187500.02, 187500.00, 0.000, 0.000, 0.000, 17:23:47.525
247, -4404.75, 11393.58, 187500.00, 187500.00, 187500.00, -187500.02, -187500.02, 187500.00, 0.006, -0.018, 1.034, 17:23:47.525
248, -4492.97, 11367.90, 187500.00, 187500.00, 187500.00, -187500.02, -187500.02, 187500.00, 0.000, 0.000, 0.000, 17:23:47.525
249, -3616.65, 12294.17, 187500.00, 187500.00, 187500.00, -187500.02, -187500.02, 187500.00, 0.000, 0.000, 0.000, 17:23:47.525
250, -3364.88, 12512.17, 187500.00, 187500.00, 187500.00, -187500.02, -187500.02, 187500.00, 0.000, 0.000, 0.000, 17:23:47.525
251, -3653.08, 12186.89, 187500.00, 187500.00, 187500.00, -187500.02, -187500.02, 187500.00, 0.000, 0.000, 0.000, 17:23:47.525
252, -4394.44, 11405.94, 187500.00, 187500.00, 187500.00, -187500.02, -187500.02, 187500.00, 0.000, 0.000, 0.000, 17:23:47.526
253, -4488.74, 11378.51, 187500.00, 187500.00, 187500.00, -187500.02, -187500.02, 187500.00, 0.000, 0.000, 0.000, 17:23:47.526
254, -3614.75, 12305.06, 187500.00, 187500.00, 187500.00, -187500.02, -187500.02, 187500.00, 0.000, 0.000, 0.000, 17:23:47.526
255, -3359.49, 12521.22, 187500.00, 187500.00, 187500.00, -187500.02, -187500.02, 187500.00, 0.000, 0.000, 0.000, 17:23:47.526
0, -3649.61, 12198.44, 187500.00, 187500.00, 187500.00, -187500.02, -187500.02, 187500.00, 0.000, 0.000, 0.000, 17:23:47.526
1, -4394.08, 11418.99, 187500.00, 187500.00, 187500.00, -187500.02, -187500.02, 187500.00, 0.006, -0.018, 1.030, 17:23:47.527
2, -4498.65, 11377.51, 187500.00, 187500.00, 187500.00, -187500.02, -187500.02, 187500.00, 0.000, 0.000, 0.000, 17:23:47.527
3, -3621.12, 12302.53, 187500.00, 187500.00, 187500.00, -187500.02, -187500.02, 187500.00, 0.000, 0.000, 0.000, 17:23:47.527
4, -3356.83, 12528.13, 187500.00, 187500.00, 187500.00, -187500.02, -187500.02, 187500.00, 0.000, 0.000, 0.000, 17:23:47.528
5, -3648.48, 12200.54, 187500.00, 187500.00, 187500.00, -187500.02, -187500.02, 187500.00, 0.000, 0.000, 0.000, 17:23:47.528
6, -4388.85, 11423.48, 187500.00, 187500.00, 187500.00, -187500.02, -187500.02, 187500.00, 0.000, 0.000, 0.000, 17:23:47.528
7, -4503.18, 11368.79, 187500.00, 187500.00, 187500.00, -187500.02, -187500.02, 187500.00, 0.000, 0.000, 0.000, 17:23:47.528
8, -3625.32, 12297.44, 187500.00, 187500.00, 187500.00, -187500.02, -187500.02, 187500.00, 0.000, 0.000, 0.000, 17:23:47.528
9, -3354.93, 12531.26, 187500.00, 187500.00, 187500.00, -187500.02, -187500.02, 187500.00, 0.000, 0.000, 0.000, 17:23:47.529
10, -3645.55, 12202.44, 187500.00, 187500.00, 187500.00, -187500.02, -187500.02, 187500.00, 0.000, 0.000, 0.000, 17:23:47.529
11, -4384.16, 11426.17, 187500.00, 187500.00, 187500.00, -187500.02, -187500.02, 187500.00, 0.006, -0.018, 1.026, 17:23:47.529
12, -4493.86, 11377.62, 187500.00, 187500.00, 187500.00, -187500.02, -187500.02, 187500.00, 0.000, 0.000, 0.000, 17:23:47.529
13, -3619.57, 12304.72, 187500.00, 187500.00, 187500.00, -187500.02, -187500.02, 187500.00, 0.000, 0.000, 0.000, 17:23:47.529
14, -3355.38, 12537.52, 187500.00, 187500.00, 187500.00, -187500.02, -187500.02, 187500.00, 0.000, 0.000, 0.000, 17:23:47.530
15, -3640.81, 12215.92, 187500.00, 187500.00, 187500.00, -187500.02, -187500.02, 187500.00, 0.000, 0.000, 0.000, 17:23:47.530
16, -4378.44, 11443.31, 187500.00, 187500.00, 187500.00, -187500.02, -187500.02, 187500.00, 0.000, 0.000, 0.000, 17:23:47.530
17, -4506.85, 11375.58, 187500.00, 187500.00, 187500.00, -187500.02, -187500.02, 187500.00, 0.000, 0.000, 0.000, 17:23:47.530
18, -3626.44, 12305.95, 187500.00, 187500.00, 187500.00, -187500.02, -187500.02, 187500.00, 0.000, 0.000, 0.000, 17:23:47.530
19, -3353.97, 12545.68, 187500.00, 187500.00, 187500.00, -187500.02, -187500.02, 187500.00, 0.000, 0.000, 0.000, 17:23:47.531
20, -3650.00, 12216.05, 187500.00, 187500.00, 187500.00, -187500.02, -187500.02, 187500.00, 0.000, 0.000, 0.000, 17:23:47.531
21, -4388.00, 11443.38, 187500.00, 187500.00, 187500.00, -187500.02, -187500.02, 187500.00, 0.004, -0.022, 1.032, 17:23:47.531
22, -4512.84, 11377.91, 187500.00, 187500.00, 187500.00, -187500.02, -187500.02, 187500.00, 0.000, 0.000, 0.000, 17:23:47.531
23, -3638.24, 12298.53, 187500.00, 187500.00, 187500.00, -187500.02, -187500.02, 187500.00, 0.000, 0.000, 0.000, 17:23:47.531
24, -3359.11, 12538.48, 187500.00, 187500.00, 187500.00, -187500.02, -187500.02, 187500.00, 0.000, 0.000, 0.000, 17:23:47.532
25, -3641.95, 12222.80, 187500.00, 187500.00, 187500.00, -187500.02, -187500.02, 187500.00, 0.000, 0.000, 0.000, 17:23:47.532
26, -4374.33, 11454.44, 187500.00, 187500.00, 187500.00, -187500.02, -187500.02, 187500.00, 0.000, 0.000, 0.000, 17:23:47.532
27, -4519.54, 11368.90, 187500.00, 187500.00, 187500.00, -187500.02, -187500.02, 187500.00, 0.000, 0.000, 0.000, 17:23:47.532
28, -3646.40, 12293.97, 187500.00, 187500.00, 187500.00, -187500.02, -187500.02, 187500.00, 0.000, 0.000, 0.000, 17:23:47.532
29, -3363.16, 12541.41, 187500.00, 187500.00, 187500.00, -187500.02, -187500.02, 187500.00, 0.000, 0.000, 0.000, 17:23:47.532
30, -3646.64, 12221.78, 187500.00, 187500.00, 187500.00, -187500.02, -187500.02, 187500.00, 0.002, -0.014, 1.032, 17:23:47.533
31, -4378.73, 11450.91, 187500.00, 187500.00, 187500.00, -187500.02, -187500.02, 187500.00, 0.000, 0.000, 0.000, 17:23:47.533
32, -4517.71, 11368.63, 187500.00, 187500.00, 187500.00, -187500.02, -187500.02, 187500.00, 0.000, 0.000, 0.000, 17:23:47.533
33, -3635.18, 12300.08, 187500.00, 187500.00, 187500.00, -187500.02, -187500.02, 187500.00, 0.000, 0.000, 0.000, 17:23:47.533
34, -3351.17, 12547.64, 187500.00, 187500.00, 187500.00, -187500.02, -187500.02, 187500.00, 0.000, 0.000, 0.000, 17:23:47.533
35, -3634.97, 12229.33, 187500.00, 187500.00, 187500.00, -187500.02, -187500.02, 187500.00, 0.000, 0.000, 0.000, 17:23:47.533
36, -4372.52, 11453.88, 187500.00, 187500.00, 187500.00, -187500.02, -187500.02, 187500.00, 0.000, 0.000, 0.000, 17:23:47.534
37, -4519.54, 11366.24, 187500.00, 187500.00, 187500.00, -187500.02, -187500.02, 187500.00, 0.000, 0.000, 0.000, 17:23:47.534
38, -3643.04, 12293.97, 187500.00, 187500.00, 187500.00, -187500.02, -187500.02, 187500.00, 0.000, 0.000, 0.000, 17:23:47.534
39, -3350.10, 12550.84, 187500.00, 187500.00, 187500.00, -187500.02, -187500.02, 187500.00, 0.000, 0.000, 0.000, 17:23:47.534
40, -3632.69, 12231.86, 187500.00, 187500.00, 187500.00, -187500.02, -187500.02, 187500.00, 0.004, -0.014, 1.030, 17:23:47.534
41, -4370.21, 11457.97, 187500.00, 187500.00, 187500.00, -187500.02, -187500.02, 187500.00, 0.000, 0.000, 0.000, 17:23:47.534
42, -4525.36, 11357.93, 187500.00, 187500.00, 187500.00, -187500.02, -187500.02, 187500.00, 0.000, 0.000, 0.000, 17:23:47.535
43, -3640.25, 12292.52, 187500.00, 187500.00, 187500.00, -187500.02, -187500.02, 187500.00, 0.000, 0.000, 0.000, 17:23:47.535
44, -3345.12, 12549.74, 187500.00, 187500.00, 187500.00, -187500.02, -187500.02, 187500.00, 0.000, 0.000, 0.000, 17:23:47.535
45, -3624.80, 12236.33, 187500.00, 187500.00, 187500.00, -187500.02, -187500.02, 187500.00, 0.000, 0.000, 0.000, 17:23:47.535
46, -4355.37, 11473.28, 187500.00, 187500.00, 187500.00, -187500.02, -187500.02, 187500.00, 0.000, 0.000, 0.000, 17:23:47.535
47, -4522.18, 11364.65, 187500.00, 187500.00, 187500.00, -187500.02, -187500.02, 187500.00, 0.000, 0.000, 0.000, 17:23:47.536
48, -3652.36, 12288.50, 187500.00, 187500.00, 187500.00, -187500.02, -187500.02, 187500.00, 0.000, 0.000, 0.000, 17:23:47.536
49, -3356.49, 12550.42, 187500.00, 187500.00, 187500.00, -187500.02, -187500.02, 187500.00, 0.000, 0.000, 0.000, 17:23:47.536
50, -3631.31, 12239.90, 187500.00, 187500.00, 187500.00, -187500.02, -187500.02, 187500.00, 0.006, -0.012, 1.028, 17:23:47.536
51, -4358.84, 11477.55, 187500.00, 187500.00, 187500.00, -187500.02, -187500.02, 187500.00, 0.000, 0.000, 0.000, 17:23:47.536
52, -4528.46, 11365.55, 187500.00, 187500.00, 187500.00, -187500.02, -187500.02, 187500.00, 0.000, 0.000, 0.000, 17:23:47.536
53, -3657.19, 12286.78, 187500.00, 187500.00, 187500.00, -187500.02, -187500.02, 187500.00, 0.000, 0.000, 0.000, 17:23:47.537
54, -3352.83, 12555.80, 187500.00, 187500.00, 187500.00, -187500.02, -187500.02, 187500.00, 0.000, 0.000, 0.000, 17:23:47.537
55, -3621.14, 12251.79, 187500.00, 187500.00, 187500.00, -187500.02, -187500.02, 187500.00, 0.000, 0.000, 0.000, 17:23:47.537
56, -4351.82, 11484.71, 187500.00, 187500.00, 187500.00, -187500.02, -187500.02, 187500.00, 0.000, 0.000, 0.000, 17:23:47.537
57, -4524.48, 11368.79, 187500.00, 187500.00, 187500.00, -187500.02, -187500.02, 187500.00, 0.000, 0.000, 0.000, 17:23:47.537
58, -3648.94, 12294.06, 187500.00, 187500.00, 187500.00, -187500.02, -187500.02, 187500.00, 0.000, 0.000, 0.000, 17:23:47.537
59, -3342.48, 12567.29, 187500.00, 187500.00, 187500.00, -187500.02, -187500.02, 187500.00, 0.000, 0.000, 0.000, 17:23:47.538
60, -3619.42, 12255.64, 187500.00, 187500.00, 187500.00, -187500.02, -187500.02, 187500.00, 0.004, -0.016, 1.034, 17:23:47.538
61, -4344.42, 11491.32, 187500.00, 187500.00, 187500.00, -187500.02, -187500.02, 187500.00, 0.000, 0.000, 0.000, 17:23:47.538
62, -4523.79, 11365.57, 187500.00, 187500.00, 187500.00, -187500.02, -187500.02, 187500.00, 0.000, 0.000, 0.000, 17:23:47.540
63, -3647.63, 12295.90, 187500.00, 187500.00, 187500.00, -187500.02, -187500.02, 187500.00, 0.000, 0.000, 0.000, 17:23:47.540
64, -3341.76, 12567.13, 187500.00, 187500.00, 187500.00, -187500.02, -187500.02, 187500.00, 0.000, 0.000, 0.000, 17:23:47.540
65, -3617.05, 12258.12, 187500.00, 187500.00, 187500.00, -187500.02, -187500.02, 187500.00, 0.000, 0.000, 0.000, 17:23:47.540
66, -4344.69, 11498.61, 187500.00, 187500.00, 187500.00, -187500.02, -187500.02, 187500.00, 0.000, 0.000, 0.000, 17:23:47.541
67, -4541.00, 11357.79, 187500.00, 187500.00, 187500.00, -187500.02, -187500.02, 187500.00, 0.000, 0.000, 0.000, 17:23:47.541
68, -3661.86, 12287.38, 187500.00, 187500.00, 187500.00, -187500.02, -187500.02, 187500.00, 0.000, 0.000, 0.000, 17:23:47.541
69, -3353.32, 12563.22, 187500.00, 187500.00, 187500.00, -187500.02, -187500.02, 187500.00, 0.000, 0.000, 0.000, 17:23:47.541
70, -3623.15, 12262.10, 187500.00, 187500.00, 187500.00, -187500.02, -187500.02, 187500.00, 0.002, -0.020, 1.032, 17:23:47.542
71, -4344.89, 11502.90, 187500.00, 187500.00, 187500.00, -187500.02, -187500.02, 187500.00, 0.000, 0.000, 0.000, 17:23:47.542
72, -4533.16, 11368.41, 187500.00, 187500.00, 187500.00, -187500.02, -187500.02, 187500.00, 0.000, 0.000, 0.000, 17:23:47.542
73, -3663.67, 12292.25, 187500.00, 187500.00, 187500.00, -187500.02, -187500.02, 187500.00, 0.000, 0.000, 0.000, 17:23:47.542
74, -3346.03, 12576.66, 187500.00, 187500.00, 187500.00, -187500.02, -187500.02, 187500.00, 0.000, 0.000, 0.000, 17:23:47.542
75, -3614.32, 12271.62, 187500.00, 187500.00, 187500.00, -187500.02, -187500.02, 187500.00, 0.000, 0.000, 0.000, 17:23:47.543
76, -4343.77, 11509.61, 187500.00, 187500.00, 187500.00, -187500.02, -187500.02, 187500.00, 0.000, 0.000, 0.000, 17:23:47.543
77, -4542.39, 11363.02, 187500.00, 187500.00, 187500.00, -187500.02, -187500.02, 187500.00, 0.000, 0.000, 0.000, 17:23:47.543
78, -3668.75, 12288.94, 187500.00, 187500.00, 187500.00, -187500.02, -187500.02, 187500.00, 0.000, 0.000, 0.000, 17:23:47.543
79, -3344.98, 12579.99, 187500.00, 187500.00, 187500.00, -187500.02, -187500.02, 187500.00, 0.000, 0.000, 0.000, 17:23:47.543
80, -3606.43, 12285.32, 187500.00, 187500.00, 187500.00, -187500.02, -187500.02, 187500.00, 0.000, -0.022, 1.024, 17:23:47.543
81, -4329.06, 11525.81, 187500.00, 187500.00, 187500.00, -187500.02, -187500.02, 187500.00, 0.000, 0.000, 0.000, 17:23:47.544
82, -4543.08, 11363.16, 187500.00, 187500.00, 187500.00, -187500.02, -187500.02, 187500.00, 0.000, 0.000, 0.000, 17:23:47.544
83, -3671.36, 12287.22, 187500.00, 187500.00, 187500.00, -187500.02, -187500.02, 187500.00, 0.000, 0.000, 0.000, 17:23:47.544
84, -3346.03, 12579.41, 187500.00, 187500.00, 187500.00, -187500.02, -187500.02, 187500.00, 0.000, 0.000, 0.000, 17:23:47.544
85, -3609.63, 12279.96, 187500.00, 187500.00, 187500.00, -187500.02, -187500.02, 187500.00, 0.000, 0.000, 0.000, 17:23:47.545
86, -4329.15, 11523.46, 187500.00, 187500.00, 187500.00, -187500.02, -187500.02, 187500.00, 0.000, 0.000, 0.000, 17:23:47.545
87, -4540.02, 11362.69, 187500.00, 187500.00, 187500.00, -187500.02, -187500.02, 187500.00, 0.000, 0.000, 0.000, 17:23:47.545
88, -3676.88, 12282.69, 187500.00, 187500.00, 187500.00, -187500.02, -187500.02, 187500.00, 0.000, 0.000, 0.000, 17:23:47.545
89, -3345.61, 12583.27, 187500.00, 187500.00, 187500.00, -187500.02, -187500.02, 187500.00, 0.000, 0.000, 0.000, 17:23:48.002
90, -3609.94, 12285.14, 187500.00, 187500.00, 187500.00, -187500.02, -187500.02, 187500.00, 0.000, -0.014, 1.026, 17:23:48.002
91, -4326.38, 11528.76, 187500.00, 187500.00, 187500.00, -187500.02, -187500.02, 187500.00, 0.000, 0.000, 0.000, 17:23:48.002
92, -4545.70, 11363.02, 187500.00, 187500.00, 187500.00, -187500.02, -187500.02, 187500.00, 0.000, 0.000, 0.000, 17:23:48.002
93, -3687.84, 12278.04, 187500.00, 187500.00, 187500.00, -187500.02, -187500.02, 187500.00, 0.000, 0.000, 0.000, 17:23:48.002
94, -3351.31, 12580.52, 187500.00, 187500.00, 187500.00, -187500.02, -187500.02, 187500.00, 0.000, 0.000, 0.000, 17:23:48.002
95, -3602.41, 12294.00, 187500.00, 187500.00, 187500.00, -187500.02, -187500.02, 187500.00, 0.000, 0.000, 0.000, 17:23:48.003
96, -4317.10, 11538.77, 187500.00, 187500.00, 187500.00, -187500.02, -187500.02, 187500.00, 0.000, 0.000, 0.000, 17:23:48.003
97, -4545.72, 11358.58, 187500.00, 187500.00, 187500.00, -187500.02, -187500.02, 187500.00, 0.000, 0.000, 0.000, 17:23:48.003
98, -3675.88, 12284.43, 187500.00, 187500.00, 187500.00, -187500.02, -187500.02, 187500.00, 0.000, 0.000, 0.000, 17:23:48.003
99, -3336.49, 12590.36, 187500.00, 187500.00, 187500.00, -187500.02, -187500.02, 187500.00, 0.000, 0.000, 0.000, 17:23:48.003
100, -3596.26, 12292.39, 187500.00, 187500.00, 187500.00, -187500.02, -187500.02, 187500.00, 0.008, -0.018, 1.024, 17:23:48.003
101, -4313.46, 11540.12, 187500.00, 187500.00, 187500.00, -187500.02, -187500.02, 187500.00, 0.000, 0.000, 0.000, 17:23:48.004
102, -4549.34, 11356.97, 187500.00, 187500.00, 187500.00, -187500.02, -187500.02, 187500.00, 0.000, 0.000, 0.000, 17:23:48.004
103, -3680.82, 12281.12, 187500.00, 187500.00, 187500.00, -187500.02, -187500.02, 187500.00, 0.000, 0.000, 0.000, 17:23:48.004
104, -3336.13, 12591.27, 187500.00, 187500.00, 187500.00, -187500.02, -187500.02, 187500.00, 0.000, 0.000, 0.000, 17:23:48.004
105, -3593.15, 12298.00, 187500.00, 187500.00, 187500.00, -187500.02, -187500.02, 187500.00, 0.000, 0.000, 0.000, 17:23:48.004
106, -4311.36, 11541.37, 187500.00, 187500.00, 187500.00, -187500.02, -187500.02, 187500.00, 0.000, 0.000, 0.000, 17:23:48.004
107, -4548.98, 11353.01, 187500.00, 187500.00, 187500.00, -187500.02, -187500.02, 187500.00, 0.000, 0.000, 0.000, 17:23:48.004
108, -3686.43, 12271.44, 187500.00, 187500.00, 187500.00, -187500.02, -187500.02, 187500.00, 0.000, 0.000, 0.000, 17:23:48.004
109, -3342.21, 12583.25, 187500.00, 187500.00, 187500.00, -187500.02, -187500.02, 187500.00, 0.000, 0.000, 0.000, 17:23:48.005
110, -3589.27, 12298.11, 187500.00, 187500.00, 187500.00, -187500.02, -187500.02, 187500.00, 0.006, -0.014, 1.028, 17:23:48.005
111, -4299.22, 11550.00, 187500.00, 187500.00, 187500.00, -187500.02, -187500.02, 187500.00, 0.000, 0.000, 0.000, 17:23:48.005
112, -4548.92, 11350.68, 187500.00, 187500.00, 187500.00, -187500.02, -187500.02, 187500.00, 0.000, 0.000, 0.000, 17:23:48.005
113, -3687.59, 12270.75, 187500.00, 187500.00, 187500.00, -187500.02, -187500.02, 187500.00, 0.000, 0.000, 0.000, 17:23:48.005
114, -3346.30, 12580.99, 187500.00, 187500.00, 187500.00, -187500.02, -187500.02, 187500.00, 0.000, 0.000, 0.000, 17:23:48.005
115, -3602.59, 12292.01, 187500.00, 187500.00, 187500.00, -187500.02, -187500.02, 187500.00, 0.000, 0.000, 0.000, 17:23:48.005
116, -4303.09, 11553.82, 187500.00, 187500.00, 187500.00, -187500.02, -187500.02, 187500.00, 0.000, 0.000, 0.000, 17:23:48.005
117, -4553.34, 11347.82, 187500.00, 187500.00, 187500.00, -187500.02, -187500.02, 187500.00, 0.000, 0.000, 0.000, 17:23:48.006
118, -3690.18, 12269.18, 187500.00, 187500.00, 187500.00, -187500.02, -187500.02, 187500.00, 0.000, 0.000, 0.000, 17:23:48.006
119, -3333.90, 12591.70, 187500.00, 187500.00, 187500.00, -187500.02, -187500.02, 187500.00, 0.000, 0.000, 0.000, 17:23:48.006
120, -3587.72, 12301.13, 187500.00, 187500.00, 187500.00, -187500.02, -187500.02, 187500.00, 0.004, -0.014, 1.026, 17:23:48.006
121, -4292.67, 11556.81, 187500.00, 187500.00, 187500.00, -187500.02, -187500.02, 187500.00, 0.000, 0.000, 0.000, 17:23:48.006
122, -4554.17, 11346.95, 187500.00, 187500.00, 187500.00, -187500.02, -187500.02, 187500.00, 0.000, 0.000, 0.000, 17:23:48.006
123, -3695.70, 12263.80, 187500.00, 187500.00, 187500.00, -187500.02, -187500.02, 187500.00, 0.000, 0.000, 0.000, 17:23:48.007
124, -3334.23, 12593.35, 187500.00, 187500.00, 187500.00, -187500.02, -187500.02, 187500.00, 0.000, 0.000, 0.000, 17:23:48.007
125, -3583.63, 12307.85, 187500.00, 187500.00, 187500.00, -187500.02, -187500.02, 187500.00, 0.000, 0.000, 0.000, 17:23:48.007
126, -4294.98, 11560.34, 187500.00, 187500.00, 187500.00, -187500.02, -187500.02, 187500.00, 0.000, 0.000, 0.000, 17:23:48.007
127, -4559.13, 11341.90, 187500.00, 187500.00, 187500.00, -187500.02, -187500.02, 187500.00, 0.000, 0.000, 0.000, 17:23:48.007
128, -3698.41, 12260.96, 187500.00, 187500.00, 187500.00, -187500.02, -187500.02, 187500.00, 0.000, 0.000, 0.000, 17:23:48.007
129, -3337.63, 12598.29, 187500.00, 187500.00, 187500.00, -187500.02, -187500.02, 187500.00, 0.000, 0.000, 0.000, 17:23:48.007
130, -3589.09, 12314.09, 187500.00, 187500.00, 187500.00, -187500.02, -187500.02, 187500.00, 0.004, -0.010, 1.038, 17:23:48.007
131, -4293.35, 11571.92, 187500.00, 187500.00, 187500.00, -187500.02, -187500.02, 187500.00, 0.000, 0.000, 0.000, 17:23:48.008
132, -4566.80, 11340.58, 187500.00, 187500.00, 187500.00, -187500.02, -187500.02, 187500.00, 0.000, 0.000, 0.000, 17:23:48.008
133, -3710.08, 12252.13, 187500.00, 187500.00, 187500.00, -187500.02, -187500.02, 187500.00, 0.000, 0.000, 0.000, 17:23:48.008
134, -3341.00, 12592.15, 187500.00, 187500.00, 187500.00, -187500.02, -187500.02, 187500.00, 0.000, 0.000, 0.000, 17:23:48.008
135, -3586.76, 12311.18, 187500.00, 187500.00, 187500.00, -187500.02, -187500.02, 187500.00, 0.000, 0.000, 0.000, 17:23:48.008
136, -4288.67, 11570.04, 187500.00, 187500.00, 187500.00, -187500.02, -187500.02, 187500.00, 0.000, 0.000, 0.000, 17:23:48.008
137, -4569.23, 11333.83, 187500.00, 187500.00, 187500.00, -187500.02, -187500.02, 187500.00, 0.000, 0.000, 0.000, 17:23:48.008
138, -3717.63, 12244.82, 187500.00, 187500.00, 187500.00, -187500.02, -187500.02, 187500.00, 0.000, 0.000, 0.000, 17:23:48.008
139, -3343.28, 12591.23, 187500.00, 187500.00, 187500.00, -187500.02, -187500.02, 187500.00, 0.000, 0.000, 0.000, 17:23:48.009
140, -3586.74, 12311.76, 187500.00, 187500.00, 187500.00, -187500.02, -187500.02, 187500.00, 0.006, -0.012, 1.042, 17:23:48.009
141, -4276.94, 11584.75, 187500.00, 187500.00, 187500.00, -187500.02, -187500.02, 187500.00, 0.000, 0.000, 0.000, 17:23:48.009
142, -4565.43, 11342.75, 187500.00, 187500.00, 187500.00, -187500.02, -187500.02, 187500.00, 0.000, 0.000, 0.000, 17:23:48.009
143, -3717.34, 12246.32, 187500.00, 187500.00, 187500.00, -187500.02, -187500.02, 187500.00, 0.000, 0.000, 0.000, 17:23:48.009
144, -3337.27, 12598.09, 187500.00, 187500.00, 187500.00, -187500.02, -187500.02, 187500.00, 0.000, 0.000, 0.000, 17:23:48.010
145, -3581.73, 12318.14, 187500.00, 187500.00, 187500.00, -187500.02, -187500.02, 187500.00, 0.000, 0.000, 0.000, 17:23:48.010
146, -4283.51, 11580.15, 187500.00, 187500.00, 187500.00, -187500.02, -187500.02, 187500.00, 0.000, 0.000, 0.000, 17:23:48.010
147, -4565.10, 11338.35, 187500.00, 187500.00, 187500.00, -187500.02, -187500.02, 187500.00, 0.000, 0.000, 0.000, 17:23:48.010
148, -3714.14, 12248.29, 187500.00, 187500.00, 187500.00, -187500.02, -187500.02, 187500.00, 0.000, 0.000, 0.000, 17:23:48.010
149, -3337.65, 12598.40, 187500.00, 187500.00, 187500.00, -187500.02, -187500.02, 187500.00, 0.000, 0.000, 0.000, 17:23:48.010
150, -3585.33, 12309.64, 187500.00, 187500.00, 187500.00, -187500.02, -187500.02, 187500.00, 0.004, -0.018, 1.036, 17:23:48.011
151, -4282.39, 11574.02, 187500.00, 187500.00, 187500.00, -187500.02, -187500.02, 187500.00, 0.000, 0.000, 0.000, 17:23:48.011
152, -4577.28, 11320.69, 187500.00, 187500.00, 187500.00, -187500.02, -187500.02, 187500.00, 0.000, 0.000, 0.000, 17:23:48.011
153, -3743.47, 12217.82, 187500.00, 187500.00, 187500.00, -187500.02, -187500.02, 187500.00, 0.000, 0.000, 0.000, 17:23:48.011
154, -3371.89, 12566.46, 187500.00, 187500.00, 187500.00, -187500.02, -187500.02, 187500.00, 0.000, 0.000, 0.000, 17:23:48.011
155, -3594.36, 12310.40, 187500.00, 187500.00, 187500.00, -187500.02, -187500.02, 187500.00, 0.000, 0.000, 0.000, 17:23:48.012
156, -4284.20, 11581.71, 187500.00, 187500.00, 187500.00, -187500.02, -187500.02, 187500.00, 0.000, 0.000, 0.000, 17:23:48.012
157, -4583.23, 11326.61, 187500.00, 187500.00, 187500.00, -187500.02, -187500.02, 187500.00, 0.000, 0.000, 0.000, 17:23:48.012
158, -3737.93, 12226.99, 187500.00, 187500.00, 187500.00, -187500.02, -187500.02, 187500.00, 0.000, 0.000, 0.000, 17:23:48.012
159, -3346.55, 12593.11, 187500.00, 187500.00, 187500.00, -187500.02, -187500.02, 187500.00, 0.006, -0.016, 1.038, 17:23:48.012
160, -3579.97, 12322.54, 187500.00, 187500.00, 187500.00, -187500.02, -187500.02, 187500.00, 0.000, 0.000, 0.000, 17:23:48.013
161, -4268.78, 11594.56, 187500.00, 187500.00, 187500.00, -187500.02, -187500.02, 187500.00, 0.000, 0.000, 0.000, 17:23:48.013
162, -4579.02, 11328.53, 187500.00, 187500.00, 187500.00, -187500.02, -187500.02, 187500.00, 0.000, 0.000, 0.000, 17:23:48.013
163, -3737.86, 12227.79, 187500.00, 187500.00, 187500.00, -187500.02, -187500.02, 187500.00, 0.000, 0.000, 0.000, 17:23:48.013
164, -3353.97, 12586.27, 187500.00, 187500.00, 187500.00, -187500.02, -187500.02, 187500.00, 0.000, 0.000, 0.000, 17:23:48.013
165, -3581.93, 12320.97, 187500.00, 187500.00, 187500.00, -187500.02, -187500.02, 187500.00, 0.000, 0.000, 0.000, 17:23:48.013
166, -4267.42, 11593.09, 187500.00, 187500.00, 187500.00, -187500.02, -187500.02, 187500.00, 0.000, 0.000, 0.000, 17:23:48.014
167, -4580.12, 11323.64, 187500.00, 187500.00, 187500.00, -187500.02, -187500.02, 187500.00, 0.000, 0.000, 0.000, 17:23:48.014
168, -3739.71, 12224.46, 187500.00, 187500.00, 187500.00, -187500.02, -187500.02, 187500.00, 0.000, 0.000, 0.000, 17:23:48.014
169, -3341.72, 12592.82, 187500.00, 187500.00, 187500.00, -187500.02, -187500.02, 187500.00, 0.004, -0.012, 1.034, 17:23:48.014
170, -3573.84, 12322.81, 187500.00, 187500.00, 187500.00, -187500.02, -187500.02, 187500.00, 0.000, 0.000, 0.000, 17:23:48.014
171, -4262.57, 11598.43, 187500.00, 187500.00, 187500.00, -187500.02, -187500.02, 187500.00, 0.000, 0.000, 0.000, 17:23:48.014
172, -4588.72, 11315.01, 187500.00, 187500.00, 187500.00, -187500.02, -187500.02, 187500.00, 0.000, 0.000, 0.000, 17:23:48.015
173, -3748.72, 12211.79, 187500.00, 187500.00, 187500.00, -187500.02, -187500.02, 187500.00, 0.000, 0.000, 0.000, 17:23:48.015
174, -3348.83, 12583.36, 187500.00, 187500.00, 187500.00, -187500.02, -187500.02, 187500.00, 0.000, 0.000, 0.000, 17:23:48.015
175, -3575.21, 12323.63, 187500.00, 187500.00, 187500.00, -187500.02, -187500.02, 187500.00, 0.000, 0.000, 0.000, 17:23:48.015
176, -4258.14, 11606.79, 187500.00, 187500.00, 187500.00, -187500.02, -187500.02, 187500.00, 0.000, 0.000, 0.000, 17:23:48.015
177, -4588.16, 11317.83, 187500.00, 187500.00, 187500.00, -187500.02, -187500.02, 187500.00, 0.000, 0.000, 0.000, 17:23:48.016
178, -3745.28, 12219.43, 187500.00, 187500.00, 187500.00, -187500.02, -187500.02, 187500.00, 0.000, 0.000, 0.000, 17:23:48.016
179, -3343.55, 12594.72, 187500.00, 187500.00, 187500.00, -187500.02, -187500.02, 187500.00, 0.008, -0.016, 1.028, 17:23:48.016
180, -3574.47, 12328.51, 187500.00, 187500.00, 187500.00, -187500.02, -187500.02, 187500.00, 0.000, 0.000, 0.000, 17:23:48.016
181, -4251.35, 11616.38, 187500.00, 187500.00, 187500.00, -187500.02, -187500.02, 187500.00, 0.000, 0.000, 0.000, 17:23:48.016
182, -4576.79, 11329.18, 187500.00, 187500.00, 187500.00, -187500.02, -187500.02, 187500.00, 0.000, 0.000, 0.000, 17:23:48.016
183, -3749.44, 12216.81, 187500.00, 187500.00, 187500.00, -187500.02, -187500.02, 187500.00, 0.000, 0.000, 0.000, 17:23:48.016
184, -3339.60, 12599.97, 187500.00, 187500.00, 187500.00, -187500.02, -187500.02, 187500.00, 0.000, 0.000, 0.000, 17:23:48.017
185, -3566.91, 12336.96, 187500.00, 187500.00, 187500.00, -187500.02, -187500.02, 187500.00, 0.000, 0.000, 0.000, 17:23:48.017
186, -4248.51, 11618.64, 187500.00, 187500.00, 187500.00, -187500.02, -187500.02, 187500.00, 0.000, 0.000, 0.000, 17:23:48.017
187, -4585.48, 11317.49, 187500.00, 187500.00, 187500.00, -187500.02, -187500.02, 187500.00, 0.000, 0.000, 0.000, 17:23:48.017
188, -3755.29, 12205.82, 187500.00, 187500.00, 187500.00, -187500.02, -187500.02, 187500.00, 0.000, 0.000, 0.000, 17:23:48.017
189, -3339.64, 12592.91, 187500.00, 187500.00, 187500.00, -187500.02, -187500.02, 187500.00, 0.004, -0.012, 1.026, 17:23:48.017
190, -3567.27, 12327.84, 187500.00, 187500.00, 187500.00, -187500.02, -187500.02, 187500.00, 0.000, 0.000, 0.000, 17:23:48.017
191, -4242.61, 11617.92, 187500.00, 187500.00, 187500.00, -187500.02, -187500.02, 187500.00, 0.000, 0.000, 0.000, 17:23:48.018
192, -4581.59, 11317.87, 187500.00, 187500.00, 187500.00, -187500.02, -187500.02, 187500.00, 0.000, 0.000, 0.000, 17:23:48.018
193, -3757.53, 12209.71, 187500.00, 187500.00, 187500.00, -187500.02, -187500.02, 187500.00, 0.000, 0.000, 0.000, 17:23:48.018
194, -3343.53, 12601.09, 187500.00, 187500.00, 187500.00, -187500.02, -187500.02, 187500.00, 0.000, 0.000, 0.000, 17:23:48.018
195, -3557.84, 12350.99, 187500.00, 187500.00, 187500.00, -187500.02, -187500.02, 187500.00, 0.000, 0.000, 0.000, 17:23:48.018
196, -4234.76, 11640.43, 187500.00, 187500.00, 187500.00, -187500.02, -187500.02, 187500.00, 0.000, 0.000, 0.000, 17:23:48.018
197, -4589.62, 11326.77, 187500.00, 187500.00, 187500.00, -187500.02, -187500.02, 187500.00, 0.000, 0.000, 0.000, 17:23:48.019
198, -3764.28, 12212.99, 187500.00, 187500.00, 187500.00, -187500.02, -187500.02, 187500.00, 0.000, 0.000, 0.000, 17:23:48.019
199, -3351.33, 12600.66, 187500.00, 187500.00, 187500.00, -187500.02, -187500.02, 187500.00, 0.008, -0.018, 1.028, 17:23:48.019
200, -3567.09, 12348.47, 187500.00, 187500.00, 187500.00, -187500.02, -187500.02, 187500.00, 0.000, 0.000, 0.000, 17:23:48.019
201, -4248.93, 11631.24, 187500.00, 187500.00, 187500.00, -187500.02, -187500.02, 187500.00, 0.000, 0.000, 0.000, 17:23:48.019
202, -4603.39, 11315.75, 187500.00, 187500.00, 187500.00, -187500.02, -187500.02, 187500.00, 0.000, 0.000, 0.000, 17:23:48.019
203, -3778.88, 12200.34, 187500.00, 187500.00, 187500.00, -187500.02, -187500.02, 187500.00, 0.000, 0.000, 0.000, 17:23:48.019
204, -3353.03, 12598.36, 187500.00, 187500.00, 187500.00, -187500.02, -187500.02, 187500.00, 0.000, 0.000, 0.000, 17:23:48.020
205, -3567.11, 12348.51, 187500.00, 187500.00, 187500.00, -187500.02, -187500.02, 187500.00, 0.000, 0.000, 0.000, 17:23:48.020
206, -4248.19, 11632.88, 187500.00, 187500.00, 187500.00, -187500.02, -187500.02, 187500.00, 0.000, 0.000, 0.000, 17:23:48.020
207, -4608.17, 11307.70, 187500.00, 187500.00, 187500.00, -187500.02, -187500.02, 187500.00, 0.000, 0.000, 0.000, 17:23:48.020
208, -3782.70, 12196.65, 187500.00, 187500.00, 187500.00, -187500.02, -187500.02, 187500.00, 0.000, 0.000, 0.000, 17:23:48.020
209, -3354.59, 12598.49, 187500.00, 187500.00, 187500.00, -187500.02, -187500.02, 187500.00, 0.006, -0.016, 1.030, 17:23:48.481
210, -3568.72, 12346.95, 187500.00, 187500.00, 187500.00, -187500.02, -187500.02, 187500.00, 0.000, 0.000, 0.000, 17:23:48.481
211, -4231.14, 11649.19, 187500.00, 187500.00, 187500.00, -187500.02, -187500.02, 187500.00, 0.000, 0.000, 0.000, 17:23:48.481
212, -4603.25, 11309.40, 187500.00, 187500.00, 187500.00, -187500.02, -187500.02, 187500.00, 0.000, 0.000, 0.000, 17:23:48.481
213, -3777.49, 12195.22, 187500.00, 187500.00, 187500.00, -187500.02, -187500.02, 187500.00, 0.000, 0.000, 0.000, 17:23:48.481
214, -3336.04, 12609.02, 187500.00, 187500.00, 187500.00, -187500.02, -187500.02, 187500.00, 0.000, 0.000, 0.000, 17:23:48.481
215, -3549.05, 12360.45, 187500.00, 187500.00, 187500.00, -187500.02, -187500.02, 187500.00, 0.000, 0.000, 0.000, 17:23:48.481
216, -4216.68, 11655.43, 187500.00, 187500.00, 187500.00, -187500.02, -187500.02, 187500.00, 0.000, 0.000, 0.000, 17:23:48.482
217, -4599.18, 11310.67, 187500.00, 187500.00, 187500.00, -187500.02, -187500.02, 187500.00, 0.000, 0.000, 0.000, 17:23:48.482
218, -3779.70, 12194.82, 187500.00, 187500.00, 187500.00, -187500.02, -187500.02, 187500.00, 0.000, 0.000, 0.000, 17:23:48.482
219, -3336.91, 12613.71, 187500.00, 187500.00, 187500.00, -187500.02, -187500.02, 187500.00, 0.010, -0.014, 1.030, 17:23:48.482
220, -3550.93, 12362.97, 187500.00, 187500.00, 187500.00, -187500.02, -187500.02, 187500.00, 0.000, 0.000, 0.000, 17:23:48.482
221, -4224.61, 11650.11, 187500.00, 187500.00, 187500.00, -187500.02, -187500.02, 187500.00, 0.000, 0.000, 0.000, 17:23:48.482
222, -4603.99, 11308.08, 187500.00, 187500.00, 187500.00, -187500.02, -187500.02, 187500.00, 0.000, 0.000, 0.000, 17:23:48.483
223, -3784.89, 12191.04, 187500.00, 187500.00, 187500.00, -187500.02, -187500.02, 187500.00, 0.000, 0.000, 0.000, 17:23:48.483
224, -3339.89, 12609.47, 187500.00, 187500.00, 187500.00, -187500.02, -187500.02, 187500.00, 0.000, 0.000, 0.000, 17:23:48.483
225, -3551.69, 12361.77, 187500.00, 187500.00, 187500.00, -187500.02, -187500.02, 187500.00, 0.000, 0.000, 0.000, 17:23:48.483
226, -4226.65, 11650.91, 187500.00, 187500.00, 187500.00, -187500.02, -187500.02, 187500.00, 0.000, 0.000, 0.000, 17:23:48.483
227, -4610.99, 11303.17, 187500.00, 187500.00, 187500.00, -187500.02, -187500.02, 187500.00, 0.000, 0.000, 0.000, 17:23:48.483
228, -3792.31, 12186.48, 187500.00, 187500.00, 187500.00, -187500.02, -187500.02, 187500.00, 0.000, 0.000, 0.000, 17:23:48.484
229, -3346.57, 12609.42, 187500.00, 187500.00, 187500.00, -187500.02, -187500.02, 187500.00, 0.010, -0.018, 1.032, 17:23:48.484
230, -3552.00, 12366.01, 187500.00, 187500.00, 187500.00, -187500.02, -187500.02, 187500.00, 0.000, 0.000, 0.000, 17:23:48.484
231, -4208.83, 11667.19, 187500.00, 187500.00, 187500.00, -187500.02, -187500.02, 187500.00, 0.000, 0.000, 0.000, 17:23:48.484
232, -4598.45, 11311.99, 187500.00, 187500.00, 187500.00, -187500.02, -187500.02, 187500.00, 0.000, 0.000, 0.000, 17:23:48.484
233, -3786.65, 12187.98, 187500.00, 187500.00, 187500.00, -187500.02, -187500.02, 187500.00, 0.000, 0.000, 0.000, 17:23:48.485
234, -3336.69, 12614.74, 187500.00, 187500.00, 187500.00, -187500.02, -187500.02, 187500.00, 0.000, 0.000, 0.000, 17:23:48.485
235, -3547.87, 12369.97, 187500.00, 187500.00, 187500.00, -187500.02, -187500.02, 187500.00, 0.000, 0.000, 0.000, 17:23:48.485
236, -4210.20, 11666.13, 187500.00, 187500.00, 187500.00, -187500.02, -187500.02, 187500.00, 0.000, 0.000, 0.000, 17:23:48.485
237, -4594.94, 11315.26, 187500.00, 187500.00, 187500.00, -187500.02, -187500.02, 187500.00, 0.000, 0.000, 0.000, 17:23:48.485
238, -3779.28, 12194.40, 187500.00, 187500.00, 187500.00, -187500.02, -187500.02, 187500.00, 0.000, 0.000, 0.000, 17:23:48.485
239, -3330.39, 12613.94, 187500.00, 187500.00, 187500.00, -187500.02, -187500.02, 187500.00, 0.006, -0.016, 1.030, 17:23:48.486
240, -3536.54, 12371.76, 187500.00, 187500.00, 187500.00, -187500.02, -187500.02, 187500.00, 0.000, 0.000, 0.000, 17:23:48.486
241, -4195.06, 11675.75, 187500.00, 187500.00, 187500.00, -187500.02, -187500.02, 187500.00, 0.000, 0.000, 0.000, 17:23:48.486
242, -4596.06, 11313.18, 187500.00, 187500.00, 187500.00, -187500.02, -187500.02, 187500.00, 0.000, 0.000, 0.000, 17:23:48.486
243, -3791.77, 12185.21, 187500.00, 187500.00, 187500.00, -187500.02, -187500.02, 187500.00, 0.000, 0.000, 0.000, 17:23:48.486
244, -3337.50, 12615.86, 187500.00, 187500.00, 187500.00, -187500.02, -187500.02, 187500.00, 0.000, 0.000, 0.000, 17:23:48.486
245, -3542.55, 12374.71, 187500.00, 187500.00, 187500.00, -187500.02, -187500.02, 187500.00, 0.000, 0.000, 0.000, 17:23:48.487
246, -4197.68, 11678.21, 187500.00, 187500.00, 187500.00, -187500.02, -187500.02, 187500.00, 0.000, 0.000, 0.000, 17:23:48.487
247, -4606.83, 11302.03, 187500.00, 187500.00, 187500.00, -187500.02, -187500.02, 187500.00, 0.000, 0.000, 0.000, 17:23:48.487
248, -3800.27, 12175.67, 187500.00, 187500.00, 187500.00, -187500.02, -187500.02, 187500.00, 0.000, 0.000, 0.000, 17:23:48.487
249, -3335.04, 12618.07, 187500.00, 187500.00, 187500.00, -187500.02, -187500.02, 187500.00, 0.006, -0.014, 1.032, 17:23:48.487
250, -3534.35, 12382.37, 187500.00, 187500.00, 187500.00, -187500.02, -187500.02, 187500.00, 0.000, 0.000, 0.000, 17:23:48.488
251, -4189.86, 11687.46, 187500.00, 187500.00, 187500.00, -187500.02, -187500.02, 187500.00, 0.000, 0.000, 0.000, 17:23:48.488
252, -4600.70, 11309.02, 187500.00, 187500.00, 187500.00, -187500.02, -187500.02, 187500.00, 0.000, 0.000, 0.000, 17:23:48.488
253, -3792.80, 12182.59, 187500.00, 187500.00, 187500.00, -187500.02, -187500.02, 187500.00, 0.000, 0.000, 0.000, 17:23:48.488
254, -3333.56, 12630.61, 187500.00, 187500.00, 187500.00, -187500.02, -187500.02, 187500.00, 0.000, 0.000, 0.000, 17:23:48.488
255, -3563.20, 12364.90, 187500.00, 187500.00, 187500.00, -187500.02, -187500.02, 187500.00, 0.000, 0.000, 0.000, 17:23:48.489
0, -4228.32, 11655.50, 187500.00, 187500.00, 187500.00, -187500.02, -187500.02, 187500.00, 0.000, 0.000, 0.000, 17:23:48.489
1, -4660.56, 11249.48, 187500.00, 187500.00, 187500.00, -187500.02, -187500.02, 187500.00, 0.000, 0.000, 0.000, 17:23:48.489
2, -3884.24, 12091.15, 187500.00, 187500.00, 187500.00, -187500.02, -187500.02, 187500.00, 0.000, 0.000, 0.000, 17:23:48.489
3, -3463.56, 12499.81, 187500.00, 187500.00, 187500.00, -187500.02, -187500.02, 187500.00, 0.008, -0.018, 1.022, 17:23:48.489
4, -3689.96, 12241.18, 187500.00, 187500.00, 187500.00, -187500.02, -187500.02, 187500.00, 0.000, 0.000, 0.000, 17:23:48.489
5, -4365.99, 11526.75, 187500.00, 187500.00, 187500.00, -187500.02, -187500.02, 187500.00, 0.000, 0.000, 0.000, 17:23:48.490
6, -4822.84, 11102.85, 187500.00, 187500.00, 187500.00, -187500.02, -187500.02, 187500.00, 0.000, 0.000, 0.000, 17:23:48.490
7, -4060.98, 11934.42, 187500.00, 187500.00, 187500.00, -187500.02, -187500.02, 187500.00, 0.000, 0.000, 0.000, 17:23:48.490
8, -3605.05, 12368.09, 187500.00, 187500.00, 187500.00, -187500.02, -187500.02, 187500.00, 0.000, 0.000, 0.000, 17:23:48.490
9, -3837.44, 12107.45, 187500.00, 187500.00, 187500.00, -187500.02, -187500.02, 187500.00, 0.000, 0.000, 0.000, 17:23:48.490
10, -4516.15, 11396.44, 187500.00, 187500.00, 187500.00, -187500.02, -187500.02, 187500.00, 0.000, 0.000, 0.000, 17:23:48.491
11, -4982.02, 10970.77, 187500.00, 187500.00, 187500.00, -187500.02, -187500.02, 187500.00, 0.000, 0.000, 0.000, 17:23:48.491
12, -4227.54, 11798.35, 187500.00, 187500.00, 187500.00, -187500.02, -187500.02, 187500.00, 0.000, 0.000, 0.000, 17:23:48.491
13, -3767.03, 12240.46, 187500.00, 187500.00, 187500.00, -187500.02, -187500.02, 187500.00, 0.004, -0.018, 1.024, 17:23:48.491
14, -3971.50, 12006.06, 187500.00, 187500.00, 187500.00, -187500.02, -187500.02, 187500.00, 0.000, 0.000, 0.000, 17:23:48.491
15, -4631.26, 11309.11, 187500.00, 187500.00, 187500.00, -187500.02, -187500.02, 187500.00, 0.000, 0.000, 0.000, 17:23:48.492
16, -5086.52, 10881.05, 187500.00, 187500.00, 187500.00, -187500.02, -187500.02, 187500.00, 0.000, 0.000, 0.000, 17:23:48.492
17, -4310.33, 11727.49, 187500.00, 187500.00, 187500.00, -187500.02, -187500.02, 187500.00, 0.000, 0.000, 0.000, 17:23:48.492
18, -3821.41, 12195.38, 187500.00, 187500.00, 187500.00, -187500.02, -187500.02, 187500.00, 0.000, 0.000, 0.000, 17:23:48.492
19, -4014.19, 11968.04, 187500.00, 187500.00, 187500.00, -187500.02, -187500.02, 187500.00, 0.000, 0.000, 0.000, 17:23:48.492
20, -4671.00, 11273.57, 187500.00, 187500.00, 187500.00, -187500.02, -187500.02, 187500.00, 0.000, 0.000, 0.000, 17:23:48.492
21, -5120.36, 10857.27, 187500.00, 187500.00, 187500.00, -187500.02, -187500.02, 187500.00, 0.000, 0.000, 0.000, 17:23:48.493
22, -4332.42, 11717.43, 187500.00, 187500.00, 187500.00, -187500.02, -187500.02, 187500.00, 0.000, 0.000, 0.000, 17:23:48.493
23, -3831.02, 12192.83, 187500.00, 187500.00, 187500.00, -187500.02, -187500.02, 187500.00, 0.000, -0.020, 1.022, 17:23:48.493
24, -4029.97, 11957.45, 187500.00, 187500.00, 187500.00, -187500.02, -187500.02, 187500.00, 0.000, 0.000, 0.000, 17:23:48.493
25, -4673.48, 11278.18, 187500.00, 187500.00, 187500.00, -187500.02, -187500.02, 187500.00, 0.000, 0.000, 0.000, 17:23:48.493
26, -5116.96, 10863.68, 187500.00, 187500.00, 187500.00, -187500.02, -187500.02, 187500.00, 0.000, 0.000, 0.000, 17:23:48.494
27, -4335.66, 11715.62, 187500.00, 187500.00, 187500.00, -187500.02, -187500.02, 187500.00, 0.000, 0.000, 0.000, 17:23:48.494
28, -3840.50, 12191.22, 187500.00, 187500.00, 187500.00, -187500.02, -187500.02, 187500.00, 0.000, 0.000, 0.000, 17:23:48.494
29, -4014.75, 11978.39, 187500.00, 187500.00, 187500.00, -187500.02, -187500.02, 187500.00, 0.000, 0.000, 0.000, 17:23:48.494
30, -4660.58, 11292.48, 187500.00, 187500.00, 187500.00, -187500.02, -187500.02, 187500.00, 0.000, 0.000, 0.000, 17:23:48.495
31, -5124.58, 10853.07, 187500.00, 187500.00, 187500.00, -187500.02, -187500.02, 187500.00, 0.000, 0.000, 0.000, 17:23:48.495
32, -4354.81, 11695.01, 187500.00, 187500.00, 187500.00, -187500.02, -187500.02, 187500.00, 0.006, -0.024, 1.024, 17:23:48.495
33, -3862.47, 12165.52, 187500.00, 187500.00, 187500.00, -187500.02, -187500.02, 187500.00, 0.000, 0.000, 0.000, 17:23:48.495
34, -4051.72, 11935.61, 187500.00, 187500.00, 187500.00, -187500.02, -187500.02, 187500.00, 0.000, 0.000, 0.000, 17:23:48.495
35, -4704.73, 11243.75, 187500.00, 187500.00, 187500.00, -187500.02, -187500.02, 187500.00, 0.000, 0.000, 0.000, 17:23:48.496
36, -5169.02, 10805.35, 187500.00, 187500.00, 187500.00, -187500.02, -187500.02, 187500.00, 0.000, 0.000, 0.000, 17:23:48.496
37, -4400.23, 11638.02, 187500.00, 187500.00, 187500.00, -187500.02, -187500.02, 187500.00, 0.000, 0.000, 0.000, 17:23:48.496
38, -3919.18, 12092.92, 187500.00, 187500.00, 187500.00, -187500.02, -187500.02, 187500.00, 0.000, 0.000, 0.000, 17:23:48.496
39, -4120.45, 11854.11, 187500.00, 187500.00, 187500.00, -187500.02, -187500.02, 187500.00, 0.000, 0.000, 0.000, 17:23:48.496
40, -4764.50, 11169.05, 187500.00, 187500.00, 187500.00, -187500.02, -187500.02, 187500.00, 0.000, 0.000, 0.000, 17:23:48.496
41, -5237.53, 10723.79, 187500.00, 187500.00, 187500.00, -187500.02, -187500.02, 187500.00, 0.000, 0.000, 0.000, 17:23:48.497
42, -4468.02, 11565.40, 187500.00, 187500.00, 187500.00, -187500.02, -187500.02, 187500.00, 0.006, -0.020, 1.026, 17:23:48.497
43, -3986.99, 12028.32, 187500.00, 187500.00, 187500.00, -187500.02, -187500.02, 187500.00, 0.000, 0.000, 0.000, 17:23:48.497
44, -4180.94, 11788.98, 187500.00, 187500.00, 187500.00, -187500.02, -187500.02, 187500.00, 0.000, 0.000, 0.000, 17:23:48.497
45, -4823.80, 11107.79, 187500.00, 187500.00, 187500.00, -187500.02, -187500.02, 187500.00, 0.000, 0.000, 0.000, 17:23:48.497
46, -5298.82, 10660.51, 187500.00, 187500.00, 187500.00, -187500.02, -187500.02, 187500.00, 0.000, 0.000, 0.000, 17:23:48.498
47, -4530.41, 11501.40, 187500.00, 187500.00, 187500.00, -187500.02, -187500.02, 187500.00, 0.000, 0.000, 0.000, 17:23:48.498
48, -4015.47, 11999.98, 187500.00, 187500.00, 187500.00, -187500.02, -187500.02, 187500.00, 0.000, 0.000, 0.000, 17:23:48.498
49, -4184.94, 11795.55, 187500.00, 187500.00, 187500.00, -187500.02, -187500.02, 187500.00, 0.000, 0.000, 0.000, 17:23:48.498
50, -4818.01, 11126.21, 187500.00, 187500.00, 187500.00, -187500.02, -187500.02, 187500.00, 0.000, 0.000, 0.000, 17:23:48.498
51, -5308.14, 10664.15, 187500.00, 187500.00, 187500.00, -187500.02, -187500.02, 187500.00, 0.000, 0.000, 0.000, 17:23:48.499
52, -4530.23, 11514.66, 187500.00, 187500.00, 187500.00, -187500.02, -187500.02, 187500.00, 0.008, -0.016, 1.020, 17:23:48.499
53, -4005.52, 12025.86, 187500.00, 187500.00, 187500.00, -187500.02, -187500.02, 187500.00, 0.000, 0.000, 0.000, 17:23:48.499
54, -4183.49, 11809.92, 187500.00, 187500.00, 187500.00, -187500.02, -187500.02, 187500.00, 0.000, 0.000, 0.000, 17:23:48.499
55, -4811.30, 11139.10, 187500.00, 187500.00, 187500.00, -187500.02, -187500.02, 187500.00, 0.000, 0.000, 0.000, 17:23:48.499
56, -5290.12, 10691.60, 187500.00, 187500.00, 187500.00, -187500.02, -187500.02, 187500.00, 0.000, 0.000, 0.000, 17:23:48.500
57, -4516.64, 11537.97, 187500.00, 187500.00, 187500.00, -187500.02, -187500.02, 187500.00, 0.000, 0.000, 0.000, 17:23:48.500
58, -3975.86, 12060.64, 187500.00, 187500.00, 187500.00, -187500.02, -187500.02, 187500.00, 0.000, 0.000, 0.000, 17:23:48.500
59, -4144.33, 11857.40, 187500.00, 187500.00, 187500.00, -187500.02, -187500.02, 187500.00, 0.000, 0.000, 0.000, 17:23:48.500
60, -4770.89, 11191.92, 187500.00, 187500.00, 187500.00, -187500.02, -187500.02, 187500.00, 0.000, 0.000, 0.000, 17:23:48.500
61, -5237.93, 10751.70, 187500.00, 187500.00, 187500.00, -187500.02, -187500.02, 187500.00, 0.000, 0.000, 0.000, 17:23:48.500
62, -4470.15, 11589.83, 187500.00, 187500.00, 187500.00, -187500.02, -187500.02, 187500.00, 0.010, -0.018, 1.026, 17:23:48.501
63, -3934.31, 12102.15, 187500.00, 187500.00, 187500.00, -187500.02, -187500.02, 187500.00, 0.000, 0.000, 0.000, 17:23:48.501
64, -4103.15, 11899.42, 187500.00, 187500.00, 187500.00, -187500.02, -187500.02, 187500.00, 0.000, 0.000, 0.000, 17:23:48.501
65, -4730.79, 11234.52, 187500.00, 187500.00, 187500.00, -187500.02, -187500.02, 187500.00, 0.000, 0.000, 0.000, 17:23:48.501
66, -5227.54, 10763.59, 187500.00, 187500.00, 187500.00, -187500.02, -187500.02, 187500.00, 0.000, 0.000, 0.000, 17:23:48.501
67, -4465.36, 11600.29, 187500.00, 187500.00, 187500.00, -187500.02, -187500.02, 187500.00, 0.000, 0.000, 0.000, 17:23:48.502
68, -3918.42, 12123.09, 187500.00, 187500.00, 187500.00, -187500.02, -187500.02, 187500.00, 0.000, 0.000, 0.000, 17:23:48.502
69, -4077.83, 11931.43, 187500.00, 187500.00, 187500.00, -187500.02, -187500.02, 187500.00, 0.000, 0.000, 0.000, 17:23:48.502
70, -4716.96, 11249.77, 187500.00, 187500.00, 187500.00, -187500.02, -187500.02, 187500.00, 0.000, 0.000, 0.000, 17:23:48.502
71, -5220.50, 10769.88, 187500.00, 187500.00, 187500.00, -187500.02, -187500.02, 187500.00, 0.000, 0.000, 0.000, 17:23:48.502
72, -4454.34, 11612.20, 187500.00, 187500.00, 187500.00, -187500.02, -187500.02, 187500.00, 0.004, -0.018, 1.026, 17:23:48.503
73, -3920.65, 12130.51, 187500.00, 187500.00, 187500.00, -187500.02, -187500.02, 187500.00, 0.000, 0.000, 0.000, 17:23:48.961
74, -4075.17, 11935.41, 187500.00, 187500.00, 187500.00, -187500.02, -187500.02, 187500.00, 0.000, 0.000, 0.000, 17:23:48.961
75, -4706.25, 11261.81, 187500.00, 187500.00, 187500.00, -187500.02, -187500.02, 187500.00, 0.000, 0.000, 0.000, 17:23:48.962
76, -5216.58, 10773.27, 187500.00, 187500.00, 187500.00, -187500.02, -187500.02, 187500.00, 0.000, 0.000, 0.000, 17:23:48.962
77, -4440.49, 11626.64, 187500.00, 187500.00, 187500.00, -187500.02, -187500.02, 187500.00, 0.000, 0.000, 0.000, 17:23:48.962
78, -3888.67, 12163.10, 187500.00, 187500.00, 187500.00, -187500.02, -187500.02, 187500.00, 0.000, 0.000, 0.000, 17:23:48.962
79, -4046.94, 11961.38, 187500.00, 187500.00, 187500.00, -187500.02, -187500.02, 187500.00, 0.000, 0.000, 0.000, 17:23:48.962
80, -4677.48, 11281.62, 187500.00, 187500.00, 187500.00, -187500.02, -187500.02, 187500.00, 0.000, 0.000, 0.000, 17:23:48.962
81, -5207.26, 10779.67, 187500.00, 187500.00, 187500.00, -187500.02, -187500.02, 187500.00, 0.000, 0.000, 0.000, 17:23:48.963
82, -4454.90, 11602.54, 187500.00, 187500.00, 187500.00, -187500.02, -187500.02, 187500.00, 0.002, -0.014, 1.020, 17:23:48.963
83, -3899.53, 12132.15, 187500.00, 187500.00, 187500.00, -187500.02, -187500.02, 187500.00, 0.000, 0.000, 0.000, 17:23:48.963
84, -4060.26, 11934.47, 187500.00, 187500.00, 187500.00, -187500.02, -187500.02, 187500.00, 0.000, 0.000, 0.000, 17:23:48.963
85, -4696.86, 11258.73, 187500.00, 187500.00, 187500.00, -187500.02, -187500.02, 187500.00, 0.000, 0.000, 0.000, 17:23:48.963
86, -5230.42, 10752.89, 187500.00, 187500.00, 187500.00, -187500.02, -187500.02, 187500.00, 0.000, 0.000, 0.000, 17:23:48.963
87, -4478.40, 11579.08, 187500.00, 187500.00, 187500.00, -187500.02, -187500.02, 187500.00, 0.000, 0.000, 0.000, 17:23:48.964
88, -3932.28, 12112.99, 187500.00, 187500.00, 187500.00, -187500.02, -187500.02, 187500.00, 0.000, 0.000, 0.000, 17:23:48.964
89, -4091.31, 11916.56, 187500.00, 187500.00, 187500.00, -187500.02, -187500.02, 187500.00, 0.000, 0.000, 0.000, 17:23:48.964
90, -4704.60, 11257.59, 187500.00, 187500.00, 187500.00, -187500.02, -187500.02, 187500.00, 0.000, 0.000, 0.000, 17:23:48.964
91, -5232.88, 10754.65, 187500.00, 187500.00, 187500.00, -187500.02, -187500.02, 187500.00, 0.000, 0.000, 0.000, 17:23:48.964
92, -4488.99, 11569.51, 187500.00, 187500.00, 187500.00, -187500.02, -187500.02, 187500.00, 0.000, -0.014, 1.026, 17:23:48.964
93, -3925.06, 12115.16, 187500.00, 187500.00, 187500.00, -187500.02, -187500.02, 187500.00, 0.000, 0.000, 0.000, 17:23:48.965
94, -4070.61, 11929.35, 187500.00, 187500.00, 187500.00, -187500.02, -187500.02, 187500.00, 0.000, 0.000, 0.000, 17:23:48.965
95, -4669.99, 11291.45, 187500.00, 187500.00, 187500.00, -187500.02, -187500.02, 187500.00, 0.000, 0.000, 0.000, 17:23:48.965
96, -5195.91, 10789.68, 187500.00, 187500.00, 187500.00, -187500.02, -187500.02, 187500.00, 0.000, 0.000, 0.000, 17:23:48.965
97, -4450.39, 11609.56, 187500.00, 187500.00, 187500.00, -187500.02, -187500.02, 187500.00, 0.000, 0.000, 0.000, 17:23:48.965
98, -3857.02, 12187.78, 187500.00, 187500.00, 187500.00, -187500.02, -187500.02, 187500.00, 0.000, 0.000, 0.000, 17:23:48.965
99, -3986.75, 12021.53, 187500.00, 187500.00, 187500.00, -187500.02, -187500.02, 187500.00, 0.000, 0.000, 0.000, 17:23:48.966
100, -4600.75, 11361.19, 187500.00, 187500.00, 187500.00, -187500.02, -187500.02, 187500.00, 0.000, 0.000, 0.000, 17:23:48.966
101, -5139.05, 10844.02, 187500.00, 187500.00, 187500.00, -187500.02, -187500.02, 187500.00, 0.000, 0.000, 0.000, 17:23:48.966
102, -4387.22, 11674.41, 187500.00, 187500.00, 187500.00, -187500.02, -187500.02, 187500.00, 0.000, -0.016, 1.030, 17:23:48.966
103, -3795.08, 12248.64, 187500.00, 187500.00, 187500.00, -187500.02, -187500.02, 187500.00, 0.000, 0.000, 0.000, 17:23:48.966
104, -3937.95, 12068.69, 187500.00, 187500.00, 187500.00, -187500.02, -187500.02, 187500.00, 0.000, 0.000, 0.000, 17:23:48.966
105, -4547.37, 11421.50, 187500.00, 187500.00, 187500.00, -187500.02, -187500.02, 187500.00, 0.000, 0.000, 0.000, 17:23:48.967
106, -5086.72, 10901.71, 187500.00, 187500.00, 187500.00, -187500.02, -187500.02, 187500.00, 0.000, 0.000, 0.000, 17:23:48.967
107, -4340.22, 11717.92, 187500.00, 187500.00, 187500.00, -187500.02, -187500.02, 187500.00, 0.000, 0.000, 0.000, 17:23:48.967
108, -3748.45, 12291.65, 187500.00, 187500.00, 187500.00, -187500.02, -187500.02, 187500.00, 0.000, 0.000, 0.000, 17:23:48.967
109, -3875.66, 12122.42, 187500.00, 187500.00, 187500.00, -187500.02, -187500.02, 187500.00, 0.000, 0.000, 0.000, 17:23:48.967
110, -4489.82, 11467.25, 187500.00, 187500.00, 187500.00, -187500.02, -187500.02, 187500.00, 0.000, 0.000, 0.000, 17:23:48.967
111, -5036.29, 10937.54, 187500.00, 187500.00, 187500.00, -187500.02, -187500.02, 187500.00, 0.000, 0.000, 0.000, 17:23:48.967
112, -4290.28, 11752.97, 187500.00, 187500.00, 187500.00, -187500.02, -187500.02, 187500.00, 0.002, -0.012, 1.026, 17:23:48.968
113, -3686.12, 12335.32, 187500.00, 187500.00, 187500.00, -187500.02, -187500.02, 187500.00, 0.000, 0.000, 0.000, 17:23:48.968
114, -3823.22, 12160.78, 187500.00, 187500.00, 187500.00, -187500.02, -187500.02, 187500.00, 0.000, 0.000, 0.000, 17:23:48.968
115, -4428.24, 11515.24, 187500.00, 187500.00, 187500.00, -187500.02, -187500.02, 187500.00, 0.000, 0.000, 0.000, 17:23:48.968
116, -4991.70, 10968.96, 187500.00, 187500.00, 187500.00, -187500.02, -187500.02, 187500.00, 0.000, 0.000, 0.000, 17:23:48.968
117, -4257.81, 11779.86, 187500.00, 187500.00, 187500.00, -187500.02, -187500.02, 187500.00, 0.000, 0.000, 0.000, 17:23:48.968
118, -3651.43, 12371.53, 187500.00, 187500.00, 187500.00, -187500.02, -187500.02, 187500.00, 0.000, 0.000, 0.000, 17:23:48.969
119, -3786.88, 12189.70, 187500.00, 187500.00, 187500.00, -187500.02, -187500.02, 187500.00, 0.000, 0.000, 0.000, 17:23:48.969
120, -4395.90, 11537.95, 187500.00, 187500.00, 187500.00, -187500.02, -187500.02, 187500.00, 0.000, 0.000, 0.000, 17:23:48.969
121, -4956.75, 10996.01, 187500.00, 187500.00, 187500.00, -187500.02, -187500.02, 187500.00, 0.000, 0.000, 0.000, 17:23:48.969
122, -4220.50, 11803.91, 187500.00, 187500.00, 187500.00, -187500.02, -187500.02, 187500.00, 0.006, -0.012, 1.028, 17:23:48.969
123, -3614.88, 12394.11, 187500.00, 187500.00, 187500.00, -187500.02, -187500.02, 187500.00, 0.000, 0.000, 0.000, 17:23:48.969
124, -3758.69, 12214.09, 187500.00, 187500.00, 187500.00, -187500.02, -187500.02, 187500.00, 0.000, 0.000, 0.000, 17:23:48.970
125, -4360.87, 11575.28, 187500.00, 187500.00, 187500.00, -187500.02, -187500.02, 187500.00, 0.000, 0.000, 0.000, 17:23:48.970
126, -4926.44, 11023.17, 187500.00, 187500.00, 187500.00, -187500.02, -187500.02, 187500.00, 0.000, 0.000, 0.000, 17:23:48.970
127, -4191.98, 11828.30, 187500.00, 187500.00, 187500.00, -187500.02, -187500.02, 187500.00, 0.000, 0.000, 0.000, 17:23:48.970
128, -3591.30, 12417.53, 187500.00, 187500.00, 187500.00, -187500.02, -187500.02, 187500.00, 0.000, 0.000, 0.000, 17:23:48.970
129, -3729.81, 12240.53, 187500.00, 187500.00, 187500.00, -187500.02, -187500.02, 187500.00, 0.000, 0.000, 0.000, 17:23:48.970
130, -4334.54, 11597.72, 187500.00, 187500.00, 187500.00, -187500.02, -187500.02, 187500.00, 0.000, 0.000, 0.000, 17:23:48.971
131, -4910.83, 11035.37, 187500.00, 187500.00, 187500.00, -187500.02, -187500.02, 187500.00, 0.000, 0.000, 0.000, 17:23:48.971
132, -4191.33, 11824.50, 187500.00, 187500.00, 187500.00, -187500.02, -187500.02, 187500.00, 0.004, -0.018, 1.040, 17:23:48.971
133, -3584.04, 12420.64, 187500.00, 187500.00, 187500.00, -187500.02, -187500.02, 187500.00, 0.000, 0.000, 0.000, 17:23:48.971
134, -3715.15, 12254.32, 187500.00, 187500.00, 187500.00, -187500.02, -187500.02, 187500.00, 0.000, 0.000, 0.000, 17:23:48.971
135, -4313.13, 11616.65, 187500.00, 187500.00, 187500.00, -187500.02, -187500.02, 187500.00, 0.000, 0.000, 0.000, 17:23:48.971
136, -4888.13, 11056.16, 187500.00, 187500.00, 187500.00, -187500.02, -187500.02, 187500.00, 0.000, 0.000, 0.000, 17:23:48.972
137, -4167.17, 11852.93, 187500.00, 187500.00, 187500.00, -187500.02, -187500.02, 187500.00, 0.000, 0.000, 0.000, 17:23:48.972
138, -3558.17, 12448.11, 187500.00, 187500.00, 187500.00, -187500.02, -187500.02, 187500.00, 0.000, 0.000, 0.000, 17:23:48.972
139, -3691.06, 12278.28, 187500.00, 187500.00, 187500.00, -187500.02, -187500.02, 187500.00, 0.000, 0.000, 0.000, 17:23:48.972
140, -4298.26, 11633.28, 187500.00, 187500.00, 187500.00, -187500.02, -187500.02, 187500.00, 0.000, 0.000, 0.000, 17:23:48.972
141, -4884.10, 11065.79, 187500.00, 187500.00, 187500.00, -187500.02, -187500.02, 187500.00, 0.000, 0.000, 0.000, 17:23:48.972
142, -4179.80, 11842.54, 187500.00, 187500.00, 187500.00, -187500.02, -187500.02, 187500.00, 0.008, -0.014, 1.036, 17:23:48.973
143, -3569.22, 12439.71, 187500.00, 187500.00, 187500.00, -187500.02, -187500.02, 187500.00, 0.000, 0.000, 0.000, 17:23:48.973
144, -3699.86, 12271.58, 187500.00, 187500.00, 187500.00, -187500.02, -187500.02, 187500.00, 0.000, 0.000, 0.000, 17:23:48.973
145, -4301.91, 11631.18, 187500.00, 187500.00, 187500.00, -187500.02, -187500.02, 187500.00, 0.000, 0.000, 0.000, 17:23:48.973
146, -4883.68, 11064.20, 187500.00, 187500.00, 187500.00, -187500.02, -187500.02, 187500.00, 0.000, 0.000, 0.000, 17:23:48.973
147, -4174.12, 11842.67, 187500.00, 187500.00, 187500.00, -187500.02, -187500.02, 187500.00, 0.000, 0.000, 0.000, 17:23:48.973
148, -3561.68, 12445.34, 187500.00, 187500.00, 187500.00, -187500.02, -187500.02, 187500.00, 0.000, 0.000, 0.000, 17:23:48.974
149, -3702.48, 12269.12, 187500.00, 187500.00, 187500.00, -187500.02, -187500.02, 187500.00, 0.000, 0.000, 0.000, 17:23:48.974
150, -4292.29, 11639.71, 187500.00, 187500.00, 187500.00, -187500.02, -187500.02, 187500.00, 0.000, 0.000, 0.000, 17:23:48.974
151, -4878.02, 11069.92, 187500.00, 187500.00, 187500.00, -187500.02, -187500.02, 187500.00, 0.000, 0.000, 0.000, 17:23:48.974
152, -4176.27, 11844.64, 187500.00, 187500.00, 187500.00, -187500.02, -187500.02, 187500.00, 0.010, -0.018, 1.026, 17:23:48.974
153, -3559.85, 12447.31, 187500.00, 187500.00, 187500.00, -187500.02, -187500.02, 187500.00, 0.000, 0.000, 0.000, 17:23:48.974
154, -3694.83, 12275.13, 187500.00, 187500.00, 187500.00, -187500.02, -187500.02, 187500.00, 0.000, 0.000, 0.000, 17:23:48.975
155, -4294.89, 11642.11, 187500.00, 187500.00, 187500.00, -187500.02, -187500.02, 187500.00, 0.000, 0.000, 0.000, 17:23:48.975
156, -4881.96, 11065.88, 187500.00, 187500.00, 187500.00, -187500.02, -187500.02, 187500.00, 0.000, 0.000, 0.000, 17:23:48.975
157, -4193.46, 11830.29, 187500.00, 187500.00, 187500.00, -187500.02, -187500.02, 187500.00, 0.000, 0.000, 0.000, 17:23:48.975
158, -3573.71, 12443.51, 187500.00, 187500.00, 187500.00, -187500.02, -187500.02, 187500.00, 0.000, 0.000, 0.000, 17:23:48.975
159, -3688.84, 12295.54, 187500.00, 187500.00, 187500.00, -187500.02, -187500.02, 187500.00, 0.000, 0.000, 0.000, 17:23:48.975
160, -4271.19, 11669.58, 187500.00, 187500.00, 187500.00, -187500.02, -187500.02, 187500.00, 0.000, 0.000, 0.000, 17:23:48.975
161, -4850.06, 11095.90, 187500.00, 187500.00, 187500.00, -187500.02, -187500.02, 187500.00, 0.008, -0.020, 1.030, 17:23:48.975
162, -4150.96, 11869.63, 187500.00, 187500.00, 187500.00, -187500.02, -187500.02, 187500.00, 0.000, 0.000, 0.000, 17:23:48.976
163, -3513.78, 12491.16, 187500.00, 187500.00, 187500.00, -187500.02, -187500.02, 187500.00, 0.000, 0.000, 0.000, 17:23:48.976
164, -3625.43, 12341.78, 187500.00, 187500.00, 187500.00, -187500.02, -187500.02, 187500.00, 0.000, 0.000, 0.000, 17:23:48.976
165, -4194.39, 11724.00, 187500.00, 187500.00, 187500.00, -187500.02, -187500.02, 187500.00, 0.000, 0.000, 0.000, 17:23:48.976
166, -4778.51, 11157.95, 187500.00, 187500.00, 187500.00, -187500.02, -187500.02, 187500.00, 0.000, 0.000, 0.000, 17:23:48.976
167, -4082.41, 11926.20, 187500.00, 187500.00, 187500.00, -187500.02, -187500.02, 187500.00, 0.000, 0.000, 0.000, 17:23:48.976
168, -3457.90, 12539.13, 187500.00, 187500.00, 187500.00, -187500.02, -187500.02, 187500.00, 0.000, 0.000, 0.000, 17:23:48.976
169, -3574.24, 12387.36, 187500.00, 187500.00, 187500.00, -187500.02, -187500.02, 187500.00, 0.000, 0.000, 0.000, 17:23:48.976
170, -4134.25, 11787.15, 187500.00, 187500.00, 187500.00, -187500.02, -187500.02, 187500.00, 0.000, 0.000, 0.000, 17:23:48.976
171, -4727.66, 11203.21, 187500.00, 187500.00, 187500.00, -187500.02, -187500.02, 187500.00, 0.004, -0.010, 1.034, 17:23:48.977
172, -4066.39, 11941.29, 187500.00, 187500.00, 187500.00, -187500.02, -187500.02, 187500.00, 0.000, 0.000, 0.000, 17:23:48.977
173, -3448.83, 12556.61, 187500.00, 187500.00, 187500.00, -187500.02, -187500.02, 187500.00, 0.000, 0.000, 0.000, 17:23:48.977
174, -3572.61, 12396.75, 187500.00, 187500.00, 187500.00, -187500.02, -187500.02, 187500.00, 0.000, 0.000, 0.000, 17:23:48.977
175, -4151.66, 11779.75, 187500.00, 187500.00, 187500.00, -187500.02, -187500.02, 187500.00, 0.000, 0.000, 0.000, 17:23:48.977
176, -4759.47, 11179.20, 187500.00, 187500.00, 187500.00, -187500.02, -187500.02, 187500.00, 0.000, 0.000, 0.000, 17:23:48.977
177, -4083.02, 11925.95, 187500.00, 187500.00, 187500.00, -187500.02, -187500.02, 187500.00, 0.000, 0.000, 0.000, 17:23:48.977
