%OpenBCI Raw EEG Data
%
%Sample Rate = 250.0 Hz
%First Column = SampleIndex
%Last Column = Timestamp 
%Other Columns = EEG data in microvolts followed by Accel Data (in G) interleaved with Aux Data
0, 41317.45, 25159.88, -187500.02, -187500.02, -187500.02, -177823.64, -187500.02, -187500.02, -0.010, -0.012, 1.022, 14:54:07.731
1, 40887.91, 25044.62, -187500.02, -187500.02, -187500.02, -178150.33, -187500.02, -187500.02, 0.000, 0.000, 0.000, 14:54:07.731
2, 41001.32, 25138.00, -187500.02, -187500.02, -187500.02, -178321.56, -187500.02, -187500.02, 0.000, 0.000, 0.000, 14:54:07.731
3, 41265.27, 25239.28, -187500.02, -187500.02, -187500.02, -178207.69, -187500.02, -187500.02, 0.000, 0.000, 0.000, 14:54:07.732
4, 41473.66, 25257.13, -187500.02, -187500.02, -187500.02, -177873.66, -187500.02, -187500.02, 0.000, 0.000, 0.000, 14:54:07.732
5, 41328.46, 25164.67, -187500.02, -187500.02, -187500.02, -177810.06, -187500.02, -187500.02, 0.000, 0.000, 0.000, 14:54:07.732
6, 40897.16, 25052.50, -187500.02, -187500.02, -187500.02, -178148.47, -187500.02, -187500.02, 0.000, 0.000, 0.000, 14:54:07.732
7, 41012.66, 25149.04, -187500.02, -187500.02, -187500.02, -178323.66, -187500.02, -187500.02, 0.008, -0.028, 1.008, 14:54:07.732
8, 41285.70, 25255.53, -187500.02, -187500.02, -187500.02, -178266.52, -187500.02, -187500.02, 0.000, 0.000, 0.000, 14:54:07.732
9, 41491.34, 25275.11, -187500.02, -187500.02, -187500.02, -177991.06, -187500.02, -187500.02, 0.000, 0.000, 0.000, 14:54:07.733
10, 41337.98, 25178.70, -187500.02, -187500.02, -187500.02, -177928.42, -187500.02, -187500.02, 0.000, 0.000, 0.000, 14:54:07.733
11, 40904.59, 25063.77, -187500.02, -187500.02, -187500.02, -178256.47, -187500.02, -187500.02, 0.000, 0.000, 0.000, 14:54:07.733
12, 41007.40, 25149.47, -187500.02, -187500.02, -187500.02, -178392.78, -187500.02, -187500.02, 0.000, 0.000, 0.000, 14:54:07.733
13, 41271.22, 25243.81, -187500.02, -187500.02, -187500.02, -178277.59, -187500.02, -187500.02, 0.000, 0.000, 0.000, 14:54:07.733
14, 41496.97, 25269.83, -187500.02, -187500.02, -187500.02, -177993.17, -187500.02, -187500.02, 0.000, 0.000, 0.000, 14:54:07.734
15, 41340.58, 25164.11, -187500.02, -187500.02, -187500.02, -177914.16, -187500.02, -187500.02, 0.000, 0.000, 0.000, 14:54:07.734
16, 40894.13, 25051.54, -187500.02, -187500.02, -187500.02, -178213.73, -187500.02, -187500.02, 0.010, -0.020, 1.016, 14:54:07.734
17, 41004.56, 25150.43, -187500.02, -187500.02, -187500.02, -178347.92, -187500.02, -187500.02, 0.000, 0.000, 0.000, 14:54:07.734
18, 41275.04, 25250.43, -187500.02, -187500.02, -187500.02, -178237.98, -187500.02, -187500.02, 0.000, 0.000, 0.000, 14:54:07.734
19, 41497.73, 25269.52, -187500.02, -187500.02, -187500.02, -177927.95, -187500.02, -187500.02, 0.000, 0.000, 0.000, 14:54:07.735
20, 41337.85, 25166.05, -187500.02, -187500.02, -187500.02, -177858.91, -187500.02, -187500.02, 0.000, 0.000, 0.000, 14:54:07.735
21, 40897.59, 25047.61, -187500.02, -187500.02, -187500.02, -178176.77, -187500.02, -187500.02, 0.000, 0.000, 0.000, 14:54:07.735
22, 41012.97, 25137.62, -187500.02, -187500.02, -187500.02, -178335.08, -187500.02, -187500.02, 0.000, 0.000, 0.000, 14:54:07.735
23, 41270.57, 25245.27, -187500.02, -187500.02, -187500.02, -178235.89, -187500.02, -187500.02, 0.000, 0.000, 0.000, 14:54:07.735
24, 41483.18, 25274.77, -187500.02, -187500.02, -187500.02, -177961.92, -187500.02, -187500.02, 0.000, 0.000, 0.000, 14:54:07.736
25, 41323.39, 25161.25, -187500.02, -187500.02, -187500.02, -177887.73, -187500.02, -187500.02, 0.000, 0.000, 0.000, 14:54:07.736
26, 40900.27, 25042.18, -187500.02, -187500.02, -187500.02, -178213.97, -187500.02, -187500.02, 0.004, -0.016, 1.032, 14:54:07.736
27, 41006.06, 25130.89, -187500.02, -187500.02, -187500.02, -178338.27, -187500.02, -187500.02, 0.000, 0.000, 0.000, 14:54:07.736
28, 41263.44, 25228.88, -187500.02, -187500.02, -187500.02, -178214.30, -187500.02, -187500.02, 0.000, 0.000, 0.000, 14:54:07.736
29, 41481.64, 25259.95, -187500.02, -187500.02, -187500.02, -177924.73, -187500.02, -187500.02, 0.000, 0.000, 0.000, 14:54:07.736
30, 41333.38, 25163.97, -187500.02, -187500.02, -187500.02, -177886.00, -187500.02, -187500.02, 0.000, 0.000, 0.000, 14:54:07.737
31, 40902.75, 25053.20, -187500.02, -187500.02, -187500.02, -178243.78, -187500.02, -187500.02, 0.000, 0.000, 0.000, 14:54:07.737
32, 41007.98, 25142.25, -187500.02, -187500.02, -187500.02, -178400.44, -187500.02, -187500.02, 0.000, 0.000, 0.000, 14:54:07.737
33, 41269.39, 25237.69, -187500.02, -187500.02, -187500.02, -178313.34, -187500.02, -187500.02, 0.000, 0.000, 0.000, 14:54:07.737
34, 41491.18, 25277.21, -187500.02, -187500.02, -187500.02, -178053.14, -187500.02, -187500.02, 0.000, 0.000, 0.000, 14:54:07.737
35, 41330.43, 25160.11, -187500.02, -187500.02, -187500.02, -177968.06, -187500.02, -187500.02, 0.000, 0.000, 0.000, 14:54:07.737
36, 40897.01, 25040.23, -187500.02, -187500.02, -187500.02, -178271.06, -187500.02, -187500.02, 0.004, -0.016, 1.034, 14:54:07.737
37, 41006.80, 25136.28, -187500.02, -187500.02, -187500.02, -178410.86, -187500.02, -187500.02, 0.000, 0.000, 0.000, 14:54:07.737
38, 41261.14, 25234.74, -187500.02, -187500.02, -187500.02, -178297.58, -187500.02, -187500.02, 0.000, 0.000, 0.000, 14:54:07.738
39, 41466.64, 25252.51, -187500.02, -187500.02, -187500.02, -177956.61, -187500.02, -187500.02, 0.000, 0.000, 0.000, 14:54:07.738
40, 41320.86, 25151.17, -187500.02, -187500.02, -187500.02, -177878.48, -187500.02, -187500.02, 0.000, 0.000, 0.000, 14:54:07.738
41, 40893.86, 25041.13, -187500.02, -187500.02, -187500.02, -178249.17, -187500.02, -187500.02, 0.000, 0.000, 0.000, 14:54:07.738
42, 41003.36, 25129.15, -187500.02, -187500.02, -187500.02, -178386.31, -187500.02, -187500.02, 0.000, 0.000, 0.000, 14:54:07.738
43, 41259.48, 25229.96, -187500.02, -187500.02, -187500.02, -178259.11, -187500.02, -187500.02, 0.000, 0.000, 0.000, 14:54:07.738
44, 41474.55, 25262.77, -187500.02, -187500.02, -187500.02, -177935.38, -187500.02, -187500.02, 0.000, 0.000, 0.000, 14:54:07.738
45, 41327.57, 25164.84, -187500.02, -187500.02, -187500.02, -177916.84, -187500.02, -187500.02, 0.000, 0.000, 0.000, 14:54:07.738
46, 40889.59, 25038.47, -187500.02, -187500.02, -187500.02, -178252.08, -187500.02, -187500.02, 0.002, -0.016, 1.030, 14:54:07.738
47, 40986.04, 25124.12, -187500.02, -187500.02, -187500.02, -178365.28, -187500.02, -187500.02, 0.000, 0.000, 0.000, 14:54:07.739
48, 41250.28, 25237.64, -187500.02, -187500.02, -187500.02, -178261.66, -187500.02, -187500.02, 0.000, 0.000, 0.000, 14:54:07.739
49, 41471.89, 25259.93, -187500.02, -187500.02, -187500.02, -177947.64, -187500.02, -187500.02, 0.000, 0.000, 0.000, 14:54:07.739
50, 41328.80, 25152.73, -187500.02, -187500.02, -187500.02, -177871.13, -187500.02, -187500.02, 0.000, 0.000, 0.000, 14:54:07.739
51, 40899.85, 25040.35, -187500.02, -187500.02, -187500.02, -178210.59, -187500.02, -187500.02, 0.000, 0.000, 0.000, 14:54:07.739
52, 41011.18, 25145.55, -187500.02, -187500.02, -187500.02, -178414.02, -187500.02, -187500.02, 0.000, 0.000, 0.000, 14:54:07.739
53, 41275.69, 25251.23, -187500.02, -187500.02, -187500.02, -178307.44, -187500.02, -187500.02, 0.000, 0.000, 0.000, 14:54:07.739
54, 41486.96, 25273.99, -187500.02, -187500.02, -187500.02, -178009.48, -187500.02, -187500.02, 0.000, 0.000, 0.000, 14:54:07.739
55, 41331.57, 25161.00, -187500.02, -187500.02, -187500.02, -177934.34, -187500.02, -187500.02, 0.000, 0.000, 0.000, 14:54:07.740
56, 40907.34, 25054.61, -187500.02, -187500.02, -187500.02, -178262.53, -187500.02, -187500.02, 0.008, -0.016, 1.024, 14:54:07.740
57, 41003.98, 25149.02, -187500.02, -187500.02, -187500.02, -178394.20, -187500.02, -187500.02, 0.000, 0.000, 0.000, 14:54:07.740
58, 41267.49, 25244.66, -187500.02, -187500.02, -187500.02, -178305.22, -187500.02, -187500.02, 0.000, 0.000, 0.000, 14:54:07.740
59, 41484.19, 25279.42, -187500.02, -187500.02, -187500.02, -178016.95, -187500.02, -187500.02, 0.000, 0.000, 0.000, 14:54:07.740
60, 41340.40, 25185.65, -187500.02, -187500.02, -187500.02, -177971.47, -187500.02, -187500.02, 0.000, 0.000, 0.000, 14:54:07.740
61, 40912.50, 25074.66, -187500.02, -187500.02, -187500.02, -178305.53, -187500.02, -187500.02, 0.000, 0.000, 0.000, 14:54:07.740
62, 41022.58, 25171.10, -187500.02, -187500.02, -187500.02, -178448.75, -187500.02, -187500.02, 0.000, 0.000, 0.000, 14:54:07.740
63, 41291.23, 25265.99, -187500.02, -187500.02, -187500.02, -178315.73, -187500.02, -187500.02, 0.000, 0.000, 0.000, 14:54:07.746
64, 41500.93, 25286.04, -187500.02, -187500.02, -187500.02, -177993.66, -187500.02, -187500.02, 0.000, 0.000, 0.000, 14:54:07.747
65, 41349.34, 25189.23, -187500.02, -187500.02, -187500.02, -177938.77, -187500.02, -187500.02, 0.000, 0.000, 0.000, 14:54:07.747
66, 40908.18, 25067.82, -187500.02, -187500.02, -187500.02, -178252.94, -187500.02, -187500.02, 0.006, -0.016, 1.028, 14:54:07.747
67, 41016.28, 25160.06, -187500.02, -187500.02, -187500.02, -178365.34, -187500.02, -187500.02, 0.000, 0.000, 0.000, 14:54:07.747
68, 41283.04, 25264.64, -187500.02, -187500.02, -187500.02, -178271.30, -187500.02, -187500.02, 0.000, 0.000, 0.000, 14:54:07.747
69, 41507.84, 25301.59, -187500.02, -187500.02, -187500.02, -177997.38, -187500.02, -187500.02, 0.000, 0.000, 0.000, 14:54:07.747
70, 41360.98, 25207.38, -187500.02, -187500.02, -187500.02, -177963.42, -187500.02, -187500.02, 0.000, 0.000, 0.000, 14:54:07.747
71, 40925.24, 25086.35, -187500.02, -187500.02, -187500.02, -178257.08, -187500.02, -187500.02, 0.000, 0.000, 0.000, 14:54:07.747
72, 41029.60, 25172.49, -187500.02, -187500.02, -187500.02, -178362.13, -187500.02, -187500.02, 0.000, 0.000, 0.000, 14:54:07.748
73, 41288.27, 25274.93, -187500.02, -187500.02, -187500.02, -178245.39, -187500.02, -187500.02, 0.000, 0.000, 0.000, 14:54:07.748
74, 41502.14, 25303.98, -187500.02, -187500.02, -187500.02, -177987.45, -187500.02, -187500.02, 0.000, 0.000, 0.000, 14:54:07.748
75, 41354.48, 25205.62, -187500.02, -187500.02, -187500.02, -177944.52, -187500.02, -187500.02, 0.000, 0.000, 0.000, 14:54:07.748
76, 40917.91, 25086.70, -187500.02, -187500.02, -187500.02, -178270.28, -187500.02, -187500.02, 0.008, -0.016, 1.020, 14:54:07.748
77, 41026.09, 25179.08, -187500.02, -187500.02, -187500.02, -178416.45, -187500.02, -187500.02, 0.000, 0.000, 0.000, 14:54:07.748
78, 41280.34, 25277.74, -187500.02, -187500.02, -187500.02, -178289.52, -187500.02, -187500.02, 0.000, 0.000, 0.000, 14:54:07.748
79, 41501.60, 25307.78, -187500.02, -187500.02, -187500.02, -178009.11, -187500.02, -187500.02, 0.000, 0.000, 0.000, 14:54:07.748
80, 41350.68, 25200.23, -187500.02, -187500.02, -187500.02, -177950.64, -187500.02, -187500.02, 0.000, 0.000, 0.000, 14:54:07.748
81, 40907.02, 25080.00, -187500.02, -187500.02, -187500.02, -178275.81, -187500.02, -187500.02, 0.000, 0.000, 0.000, 14:54:07.749
82, 41022.11, 25175.06, -187500.02, -187500.02, -187500.02, -178406.75, -187500.02, -187500.02, 0.000, 0.000, 0.000, 14:54:07.749
83, 41295.34, 25281.14, -187500.02, -187500.02, -187500.02, -178334.66, -187500.02, -187500.02, 0.000, 0.000, 0.000, 14:54:07.749
84, 41509.40, 25303.25, -187500.02, -187500.02, -187500.02, -178021.05, -187500.02, -187500.02, 0.000, 0.000, 0.000, 14:54:07.749
85, 41369.21, 25214.49, -187500.02, -187500.02, -187500.02, -177974.66, -187500.02, -187500.02, 0.000, 0.000, 0.000, 14:54:07.749
86, 40931.63, 25091.13, -187500.02, -187500.02, -187500.02, -178302.45, -187500.02, -187500.02, 0.004, -0.010, 1.016, 14:54:07.749
87, 41032.97, 25177.81, -187500.02, -187500.02, -187500.02, -178428.58, -187500.02, -187500.02, 0.000, 0.000, 0.000, 14:54:07.750
88, 41296.12, 25280.63, -187500.02, -187500.02, -187500.02, -178316.42, -187500.02, -187500.02, 0.000, 0.000, 0.000, 14:54:07.750
89, 41509.40, 25302.24, -187500.02, -187500.02, -187500.02, -178001.11, -187500.02, -187500.02, 0.000, 0.000, 0.000, 14:54:07.750
90, 41373.01, 25204.12, -187500.02, -187500.02, -187500.02, -177930.11, -187500.02, -187500.02, 0.000, 0.000, 0.000, 14:54:07.750
91, 40937.69, 25096.31, -187500.02, -187500.02, -187500.02, -178272.41, -187500.02, -187500.02, 0.000, 0.000, 0.000, 14:54:07.750
92, 41033.02, 25183.66, -187500.02, -187500.02, -187500.02, -178397.11, -187500.02, -187500.02, 0.000, 0.000, 0.000, 14:54:07.751
93, 41303.07, 25286.30, -187500.02, -187500.02, -187500.02, -178313.06, -187500.02, -187500.02, 0.000, 0.000, 0.000, 14:54:07.751
94, 41515.70, 25311.65, -187500.02, -187500.02, -187500.02, -178003.36, -187500.02, -187500.02, 0.000, 0.000, 0.000, 14:54:07.751
95, 41370.48, 25215.20, -187500.02, -187500.02, -187500.02, -177940.13, -187500.02, -187500.02, 0.000, 0.000, 0.000, 14:54:07.751
96, 40938.27, 25105.54, -187500.02, -187500.02, -187500.02, -178291.28, -187500.02, -187500.02, 0.004, -0.018, 1.022, 14:54:07.751
97, 41043.37, 25194.30, -187500.02, -187500.02, -187500.02, -178445.53, -187500.02, -187500.02, 0.000, 0.000, 0.000, 14:54:07.751
98, 41312.88, 25296.32, -187500.02, -187500.02, -187500.02, -178364.55, -187500.02, -187500.02, 0.000, 0.000, 0.000, 14:54:07.752
99, 41518.59, 25314.78, -187500.02, -187500.02, -187500.02, -178075.69, -187500.02, -187500.02, 0.000, 0.000, 0.000, 14:54:07.752
100, 41360.76, 25204.14, -187500.02, -187500.02, -187500.02, -177988.56, -187500.02, -187500.02, 0.000, 0.000, 0.000, 14:54:07.752
101, 40920.77, 25088.33, -187500.02, -187500.02, -187500.02, -178299.66, -187500.02, -187500.02, 0.000, 0.000, 0.000, 14:54:07.752
102, 41017.08, 25166.12, -187500.02, -187500.02, -187500.02, -178415.64, -187500.02, -187500.02, 0.000, 0.000, 0.000, 14:54:07.752
103, 41282.64, 25263.26, -187500.02, -187500.02, -187500.02, -178275.08, -187500.02, -187500.02, 0.000, 0.000, 0.000, 14:54:07.752
104, 41502.74, 25300.01, -187500.02, -187500.02, -187500.02, -178017.92, -187500.02, -187500.02, 0.000, 0.000, 0.000, 14:54:07.753
105, 41361.03, 25199.20, -187500.02, -187500.02, -187500.02, -177993.16, -187500.02, -187500.02, 0.000, 0.000, 0.000, 14:54:07.753
106, 40926.85, 25077.00, -187500.02, -187500.02, -187500.02, -178329.75, -187500.02, -187500.02, 0.002, -0.012, 1.032, 14:54:07.753
107, 41029.49, 25160.15, -187500.02, -187500.02, -187500.02, -178443.16, -187500.02, -187500.02, 0.000, 0.000, 0.000, 14:54:07.753
108, 41305.11, 25272.13, -187500.02, -187500.02, -187500.02, -178354.98, -187500.02, -187500.02, 0.000, 0.000, 0.000, 14:54:07.753
109, 41512.78, 25292.21, -187500.02, -187500.02, -187500.02, -178082.75, -187500.02, -187500.02, 0.000, 0.000, 0.000, 14:54:07.754
110, 41365.59, 25191.62, -187500.02, -187500.02, -187500.02, -178008.23, -187500.02, -187500.02, 0.000, 0.000, 0.000, 14:54:07.754
111, 40916.30, 25058.27, -187500.02, -187500.02, -187500.02, -178275.19, -187500.02, -187500.02, 0.000, 0.000, 0.000, 14:54:07.754
112, 41013.41, 25148.19, -187500.02, -187500.02, -187500.02, -178387.67, -187500.02, -187500.02, 0.000, 0.000, 0.000, 14:54:07.754
113, 41292.63, 25268.09, -187500.02, -187500.02, -187500.02, -178304.20, -187500.02, -187500.02, 0.000, 0.000, 0.000, 14:54:07.754
114, 41505.98, 25290.06, -187500.02, -187500.02, -187500.02, -178003.78, -187500.02, -187500.02, 0.000, 0.000, 0.000, 14:54:07.754
115, 41373.03, 25199.24, -187500.02, -187500.02, -187500.02, -177962.03, -187500.02, -187500.02, 0.000, 0.000, 0.000, 14:54:07.755
116, 40953.40, 25094.93, -187500.02, -187500.02, -187500.02, -178342.59, -187500.02, -187500.02, 0.006, -0.016, 1.034, 14:54:07.755
117, 41044.20, 25181.34, -187500.02, -187500.02, -187500.02, -178480.59, -187500.02, -187500.02, 0.000, 0.000, 0.000, 14:54:07.755
118, 41306.00, 25280.22, -187500.02, -187500.02, -187500.02, -178363.00, -187500.02, -187500.02, 0.000, 0.000, 0.000, 14:54:07.755
119, 41513.29, 25292.27, -187500.02, -187500.02, -187500.02, -178052.17, -187500.02, -187500.02, 0.000, 0.000, 0.000, 14:54:07.755
120, 41372.86, 25206.06, -187500.02, -187500.02, -187500.02, -178023.25, -187500.02, -187500.02, 0.000, 0.000, 0.000, 14:54:08.212
121, 40933.39, 25083.02, -187500.02, -187500.02, -187500.02, -178307.19, -187500.02, -187500.02, 0.000, 0.000, 0.000, 14:54:08.212
122, 41031.16, 25168.98, -187500.02, -187500.02, -187500.02, -178446.13, -187500.02, -187500.02, 0.000, 0.000, 0.000, 14:54:08.212
123, 41301.06, 25271.80, -187500.02, -187500.02, -187500.02, -178347.94, -187500.02, -187500.02, 0.000, 0.000, 0.000, 14:54:08.213
124, 41516.22, 25299.74, -187500.02, -187500.02, -187500.02, -178038.03, -187500.02, -187500.02, 0.000, 0.000, 0.000, 14:54:08.213
125, 41368.00, 25201.68, -187500.02, -187500.02, -187500.02, -177982.47, -187500.02, -187500.02, 0.000, 0.000, 0.000, 14:54:08.213
126, 40936.08, 25077.94, -187500.02, -187500.02, -187500.02, -178322.91, -187500.02, -187500.02, 0.008, -0.014, 1.028, 14:54:08.213
127, 41041.04, 25168.40, -187500.02, -187500.02, -187500.02, -178502.02, -187500.02, -187500.02, 0.000, 0.000, 0.000, 14:54:08.213
128, 41294.91, 25275.55, -187500.02, -187500.02, -187500.02, -178382.52, -187500.02, -187500.02, 0.000, 0.000, 0.000, 14:54:08.213
129, 41509.91, 25300.86, -187500.02, -187500.02, -187500.02, -178105.38, -187500.02, -187500.02, 0.000, 0.000, 0.000, 14:54:08.213
130, 41379.45, 25207.31, -187500.02, -187500.02, -187500.02, -178052.53, -187500.02, -187500.02, 0.000, 0.000, 0.000, 14:54:08.214
131, 40927.85, 25083.42, -187500.02, -187500.02, -187500.02, -178364.95, -187500.02, -187500.02, 0.000, 0.000, 0.000, 14:54:08.214
132, 41014.69, 25164.58, -187500.02, -187500.02, -187500.02, -178493.53, -187500.02, -187500.02, 0.000, 0.000, 0.000, 14:54:08.214
133, 41281.12, 25267.04, -187500.02, -187500.02, -187500.02, -178381.78, -187500.02, -187500.02, 0.000, 0.000, 0.000, 14:54:08.214
134, 41494.67, 25297.32, -187500.02, -187500.02, -187500.02, -178087.72, -187500.02, -187500.02, 0.000, 0.000, 0.000, 14:54:08.214
135, 41357.01, 25204.74, -187500.02, -187500.02, -187500.02, -178028.28, -187500.02, -187500.02, 0.000, 0.000, 0.000, 14:54:08.214
136, 40921.26, 25084.51, -187500.02, -187500.02, -187500.02, -178362.48, -187500.02, -187500.02, 0.010, -0.012, 1.026, 14:54:08.214
137, 41013.26, 25163.24, -187500.02, -187500.02, -187500.02, -178483.05, -187500.02, -187500.02, 0.000, 0.000, 0.000, 14:54:08.214
138, 41273.30, 25267.08, -187500.02, -187500.02, -187500.02, -178386.72, -187500.02, -187500.02, 0.000, 0.000, 0.000, 14:54:08.215
139, 41488.43, 25298.49, -187500.02, -187500.02, -187500.02, -178103.67, -187500.02, -187500.02, 0.000, 0.000, 0.000, 14:54:08.215
140, 41357.52, 25197.08, -187500.02, -187500.02, -187500.02, -178016.13, -187500.02, -187500.02, 0.000, 0.000, 0.000, 14:54:08.215
141, 40930.63, 25088.83, -187500.02, -187500.02, -187500.02, -178362.63, -187500.02, -187500.02, 0.000, 0.000, 0.000, 14:54:08.215
142, 41039.34, 25194.08, -187500.02, -187500.02, -187500.02, -178514.30, -187500.02, -187500.02, 0.000, 0.000, 0.000, 14:54:08.215
143, 41293.53, 25295.67, -187500.02, -187500.02, -187500.02, -178364.09, -187500.02, -187500.02, 0.000, 0.000, 0.000, 14:54:08.215
144, 41503.48, 25317.80, -187500.02, -187500.02, -187500.02, -178062.97, -187500.02, -187500.02, 0.000, 0.000, 0.000, 14:54:08.215
145, 41364.27, 25216.88, -187500.02, -187500.02, -187500.02, -178020.48, -187500.02, -187500.02, 0.008, -0.020, 1.028, 14:54:08.215
146, 40925.37, 25094.82, -187500.02, -187500.02, -187500.02, -178354.44, -187500.02, -187500.02, 0.000, 0.000, 0.000, 14:54:08.216
147, 41022.63, 25189.03, -187500.02, -187500.02, -187500.02, -178474.63, -187500.02, -187500.02, 0.000, 0.000, 0.000, 14:54:08.216
148, 41292.70, 25300.01, -187500.02, -187500.02, -187500.02, -178375.88, -187500.02, -187500.02, 0.000, 0.000, 0.000, 14:54:08.216
149, 41502.79, 25323.12, -187500.02, -187500.02, -187500.02, -178098.27, -187500.02, -187500.02, 0.000, 0.000, 0.000, 14:54:08.216
150, 41366.91, 25224.52, -187500.02, -187500.02, -187500.02, -178051.22, -187500.02, -187500.02, 0.000, 0.000, 0.000, 14:54:08.216
151, 40931.59, 25110.73, -187500.02, -187500.02, -187500.02, -178411.48, -187500.02, -187500.02, 0.000, 0.000, 0.000, 14:54:08.216
152, 41020.50, 25191.80, -187500.02, -187500.02, -187500.02, -178517.86, -187500.02, -187500.02, 0.000, 0.000, 0.000, 14:54:08.216
153, 41286.33, 25296.54, -187500.02, -187500.02, -187500.02, -178401.58, -187500.02, -187500.02, 0.000, 0.000, 0.000, 14:54:08.216
154, 41509.09, 25327.72, -187500.02, -187500.02, -187500.02, -178135.48, -187500.02, -187500.02, 0.000, 0.000, 0.000, 14:54:08.217
155, 41365.50, 25230.18, -187500.02, -187500.02, -187500.02, -178041.09, -187500.02, -187500.02, 0.006, -0.016, 1.026, 14:54:08.217
156, 40927.77, 25105.05, -187500.02, -187500.02, -187500.02, -178368.75, -187500.02, -187500.02, 0.000, 0.000, 0.000, 14:54:08.217
157, 41020.79, 25175.84, -187500.02, -187500.02, -187500.02, -178478.56, -187500.02, -187500.02, 0.000, 0.000, 0.000, 14:54:08.217
158, 41296.28, 25289.97, -187500.02, -187500.02, -187500.02, -178371.92, -187500.02, -187500.02, 0.000, 0.000, 0.000, 14:54:08.217
159, 41513.07, 25326.09, -187500.02, -187500.02, -187500.02, -178106.61, -187500.02, -187500.02, 0.000, 0.000, 0.000, 14:54:08.218
160, 41370.02, 25229.06, -187500.02, -187500.02, -187500.02, -178018.88, -187500.02, -187500.02, 0.000, 0.000, 0.000, 14:54:08.218
161, 40929.57, 25103.11, -187500.02, -187500.02, -187500.02, -178361.84, -187500.02, -187500.02, 0.000, 0.000, 0.000, 14:54:08.218
162, 41024.23, 25199.36, -187500.02, -187500.02, -187500.02, -178506.48, -187500.02, -187500.02, 0.000, 0.000, 0.000, 14:54:08.218
163, 41278.38, 25295.33, -187500.02, -187500.02, -187500.02, -178371.58, -187500.02, -187500.02, 0.000, 0.000, 0.000, 14:54:08.218
164, 41503.19, 25328.84, -187500.02, -187500.02, -187500.02, -178078.00, -187500.02, -187500.02, 0.000, 0.000, 0.000, 14:54:08.219
165, 41364.34, 25227.61, -187500.02, -187500.02, -187500.02, -178000.06, -187500.02, -187500.02, 0.008, -0.012, 1.034, 14:54:08.219
166, 40942.54, 25122.15, -187500.02, -187500.02, -187500.02, -178364.52, -187500.02, -187500.02, 0.000, 0.000, 0.000, 14:54:08.219
167, 41032.97, 25204.41, -187500.02, -187500.02, -187500.02, -178513.56, -187500.02, -187500.02, 0.000, 0.000, 0.000, 14:54:08.219
168, 41290.46, 25307.83, -187500.02, -187500.02, -187500.02, -178392.66, -187500.02, -187500.02, 0.000, 0.000, 0.000, 14:54:08.219
169, 41506.70, 25340.15, -187500.02, -187500.02, -187500.02, -178130.66, -187500.02, -187500.02, 0.000, 0.000, 0.000, 14:54:08.219
170, 41376.92, 25248.26, -187500.02, -187500.02, -187500.02, -178095.36, -187500.02, -187500.02, 0.000, 0.000, 0.000, 14:54:08.220
171, 40931.38, 25115.25, -187500.02, -187500.02, -187500.02, -178408.84, -187500.02, -187500.02, 0.000, 0.000, 0.000, 14:54:08.220
172, 41023.70, 25197.97, -187500.02, -187500.02, -187500.02, -178522.69, -187500.02, -187500.02, 0.000, 0.000, 0.000, 14:54:08.220
173, 41299.70, 25307.40, -187500.02, -187500.02, -187500.02, -178410.20, -187500.02, -187500.02, 0.000, 0.000, 0.000, 14:54:08.220
174, 41513.60, 25334.83, -187500.02, -187500.02, -187500.02, -178117.52, -187500.02, -187500.02, 0.000, 0.000, 0.000, 14:54:08.220
175, 41367.13, 25233.64, -187500.02, -187500.02, -187500.02, -178034.36, -187500.02, -187500.02, 0.008, -0.014, 1.036, 14:54:08.220
176, 40933.22, 25131.83, -187500.02, -187500.02, -187500.02, -178390.70, -187500.02, -187500.02, 0.000, 0.000, 0.000, 14:54:08.221
177, 41025.71, 25216.37, -187500.02, -187500.02, -187500.02, -178513.36, -187500.02, -187500.02, 0.000, 0.000, 0.000, 14:54:08.221
178, 41296.88, 25323.30, -187500.02, -187500.02, -187500.02, -178381.72, -187500.02, -187500.02, 0.000, 0.000, 0.000, 14:54:08.221
179, 41509.25, 25344.49, -187500.02, -187500.02, -187500.02, -178068.67, -187500.02, -187500.02, 0.000, 0.000, 0.000, 14:54:08.221
180, 41376.92, 25253.85, -187500.02, -187500.02, -187500.02, -177992.34, -187500.02, -187500.02, 0.000, 0.000, 0.000, 14:54:08.221
181, 40946.41, 25144.04, -187500.02, -187500.02, -187500.02, -178358.78, -187500.02, -187500.02, 0.000, 0.000, 0.000, 14:54:08.221
182, 41044.64, 25231.63, -187500.02, -187500.02, -187500.02, -178519.52, -187500.02, -187500.02, 0.000, 0.000, 0.000, 14:54:08.222
183, 41319.63, 25341.31, -187500.02, -187500.02, -187500.02, -178434.81, -187500.02, -187500.02, 0.000, 0.000, 0.000, 14:54:08.222
184, 41515.12, 25346.56, -187500.02, -187500.02, -187500.02, -178165.34, -187500.02, -187500.02, 0.000, 0.000, 0.000, 14:54:08.222
185, 41372.79, 25248.64, -187500.02, -187500.02, -187500.02, -178077.19, -187500.02, -187500.02, 0.002, -0.010, 1.034, 14:54:08.222
186, 40933.93, 25126.40, -187500.02, -187500.02, -187500.02, -178388.75, -187500.02, -187500.02, 0.000, 0.000, 0.000, 14:54:08.222
187, 41034.14, 25218.22, -187500.02, -187500.02, -187500.02, -178511.16, -187500.02, -187500.02, 0.000, 0.000, 0.000, 14:54:08.222
188, 41297.84, 25321.49, -187500.02, -187500.02, -187500.02, -178392.19, -187500.02, -187500.02, 0.000, 0.000, 0.000, 14:54:08.223
189, 41520.31, 25357.52, -187500.02, -187500.02, -187500.02, -178131.23, -187500.02, -187500.02, 0.000, 0.000, 0.000, 14:54:08.223
190, 41370.42, 25252.51, -187500.02, -187500.02, -187500.02, -178060.67, -187500.02, -187500.02, 0.000, 0.000, 0.000, 14:54:08.223
191, 40928.70, 25129.08, -187500.02, -187500.02, -187500.02, -178323.66, -187500.02, -187500.02, 0.000, 0.000, 0.000, 14:54:08.223
192, 41036.06, 25231.41, -187500.02, -187500.02, -187500.02, -178490.45, -187500.02, -187500.02, 0.000, 0.000, 0.000, 14:54:08.223
193, 41300.08, 25328.68, -187500.02, -187500.02, -187500.02, -178415.55, -187500.02, -187500.02, 0.000, 0.000, 0.000, 14:54:08.223
194, 41513.51, 25347.66, -187500.02, -187500.02, -187500.02, -178103.59, -187500.02, -187500.02, 0.000, 0.000, 0.000, 14:54:08.224
195, 41387.07, 25259.21, -187500.02, -187500.02, -187500.02, -178059.78, -187500.02, -187500.02, 0.006, -0.010, 1.034, 14:54:08.224
196, 40941.09, 25142.16, -187500.02, -187500.02, -187500.02, -178382.61, -187500.02, -187500.02, 0.000, 0.000, 0.000, 14:54:08.224
197, 41030.18, 25228.28, -187500.02, -187500.02, -187500.02, -178504.09, -187500.02, -187500.02, 0.000, 0.000, 0.000, 14:54:08.224
198, 41301.57, 25330.78, -187500.02, -187500.02, -187500.02, -178393.05, -187500.02, -187500.02, 0.000, 0.000, 0.000, 14:54:08.224
199, 41527.44, 25368.04, -187500.02, -187500.02, -187500.02, -178153.91, -187500.02, -187500.02, 0.000, 0.000, 0.000, 14:54:08.225
200, 41388.32, 25261.00, -187500.02, -187500.02, -187500.02, -178057.52, -187500.02, -187500.02, 0.000, 0.000, 0.000, 14:54:08.225
201, 40943.95, 25139.03, -187500.02, -187500.02, -187500.02, -178379.30, -187500.02, -187500.02, 0.000, 0.000, 0.000, 14:54:08.225
202, 41038.16, 25233.31, -187500.02, -187500.02, -187500.02, -178544.45, -187500.02, -187500.02, 0.000, 0.000, 0.000, 14:54:08.225
203, 41293.53, 25336.30, -187500.02, -187500.02, -187500.02, -178417.47, -187500.02, -187500.02, 0.000, 0.000, 0.000, 14:54:08.225
204, 41505.78, 25360.42, -187500.02, -187500.02, -187500.02, -178127.02, -187500.02, -187500.02, 0.000, 0.000, 0.000, 14:54:08.225
205, 41383.61, 25267.26, -187500.02, -187500.02, -187500.02, -178039.06, -187500.02, -187500.02, 0.004, -0.016, 1.034, 14:54:08.226
206, 40957.02, 25165.45, -187500.02, -187500.02, -187500.02, -178419.98, -187500.02, -187500.02, 0.000, 0.000, 0.000, 14:54:08.226
207, 41043.01, 25245.27, -187500.02, -187500.02, -187500.02, -178582.72, -187500.02, -187500.02, 0.000, 0.000, 0.000, 14:54:08.226
208, 41301.02, 25342.43, -187500.02, -187500.02, -187500.02, -178466.64, -187500.02, -187500.02, 0.000, 0.000, 0.000, 14:54:08.226
209, 41513.76, 25368.36, -187500.02, -187500.02, -187500.02, -178163.14, -187500.02, -187500.02, 0.000, 0.000, 0.000, 14:54:08.226
210, 41386.36, 25276.09, -187500.02, -187500.02, -187500.02, -178105.64, -187500.02, -187500.02, 0.000, 0.000, 0.000, 14:54:08.226
211, 40946.94, 25159.55, -187500.02, -187500.02, -187500.02, -178425.08, -187500.02, -187500.02, 0.000, 0.000, 0.000, 14:54:08.226
212, 41042.07, 25240.44, -187500.02, -187500.02, -187500.02, -178540.97, -187500.02, -187500.02, 0.000, 0.000, 0.000, 14:54:08.227
213, 41300.01, 25337.94, -187500.02, -187500.02, -187500.02, -178422.34, -187500.02, -187500.02, 0.000, 0.000, 0.000, 14:54:08.227
214, 41517.80, 25367.46, -187500.02, -187500.02, -187500.02, -178157.91, -187500.02, -187500.02, 0.000, 0.000, 0.000, 14:54:08.227
215, 41389.86, 25273.99, -187500.02, -187500.02, -187500.02, -178080.98, -187500.02, -187500.02, 0.006, -0.010, 1.038, 14:54:08.227
216, 40952.66, 25149.94, -187500.02, -187500.02, -187500.02, -178398.67, -187500.02, -187500.02, 0.000, 0.000, 0.000, 14:54:08.227
217, 41043.81, 25230.85, -187500.02, -187500.02, -187500.02, -178553.31, -187500.02, -187500.02, 0.000, 0.000, 0.000, 14:54:08.227
218, 41299.05, 25327.65, -187500.02, -187500.02, -187500.02, -178412.98, -187500.02, -187500.02, 0.000, 0.000, 0.000, 14:54:08.227
219, 41514.56, 25363.66, -187500.02, -187500.02, -187500.02, -178118.63, -187500.02, -187500.02, 0.000, 0.000, 0.000, 14:54:08.227
220, 41386.11, 25270.86, -187500.02, -187500.02, -187500.02, -178087.03, -187500.02, -187500.02, 0.000, 0.000, 0.000, 14:54:08.228
221, 40943.23, 25147.30, -187500.02, -187500.02, -187500.02, -178388.64, -187500.02, -187500.02, 0.000, 0.000, 0.000, 14:54:08.228
222, 41040.62, 25245.49, -187500.02, -187500.02, -187500.02, -178553.06, -187500.02, -187500.02, 0.000, 0.000, 0.000, 14:54:08.228
223, 41311.36, 25345.60, -187500.02, -187500.02, -187500.02, -178471.97, -187500.02, -187500.02, 0.000, 0.000, 0.000, 14:54:08.228
224, 41521.96, 25365.88, -187500.02, -187500.02, -187500.02, -178138.72, -187500.02, -187500.02, 0.000, 0.000, 0.000, 14:54:08.228
225, 41389.04, 25281.79, -187500.02, -187500.02, -187500.02, -178055.38, -187500.02, -187500.02, 0.004, -0.012, 1.034, 14:54:08.228
226, 40953.18, 25174.86, -187500.02, -187500.02, -187500.02, -178400.17, -187500.02, -187500.02, 0.000, 0.000, 0.000, 14:54:08.228
227, 41041.63, 25259.44, -187500.02, -187500.02, -187500.02, -178559.45, -187500.02, -187500.02, 0.000, 0.000, 0.000, 14:54:08.228
228, 41306.27, 25359.86, -187500.02, -187500.02, -187500.02, -178466.17, -187500.02, -187500.02, 0.000, 0.000, 0.000, 14:54:08.228
229, 41504.64, 25383.67, -187500.02, -187500.02, -187500.02, -178164.09, -187500.02, -187500.02, 0.000, 0.000, 0.000, 14:54:08.229
230, 41376.18, 25286.77, -187500.02, -187500.02, -187500.02, -178115.44, -187500.02, -187500.02, 0.000, 0.000, 0.000, 14:54:08.229
231, 40945.54, 25159.14, -187500.02, -187500.02, -187500.02, -178420.48, -187500.02, -187500.02, 0.000, 0.000, 0.000, 14:54:08.229
232, 41034.27, 25245.82, -187500.02, -187500.02, -187500.02, -178579.55, -187500.02, -187500.02, 0.000, 0.000, 0.000, 14:54:08.229
233, 41305.29, 25359.37, -187500.02, -187500.02, -187500.02, -178490.78, -187500.02, -187500.02, 0.000, 0.000, 0.000, 14:54:08.229
234, 41510.12, 25381.39, -187500.02, -187500.02, -187500.02, -178181.70, -187500.02, -187500.02, 0.000, 0.000, 0.000, 14:54:08.229
235, 41378.57, 25286.84, -187500.02, -187500.02, -187500.02, -178106.47, -187500.02, -187500.02, 0.008, -0.014, 1.024, 14:54:08.229
236, 40937.84, 25163.08, -187500.02, -187500.02, -187500.02, -178446.31, -187500.02, -187500.02, 0.000, 0.000, 0.000, 14:54:08.229
237, 41024.41, 25245.58, -187500.02, -187500.02, -187500.02, -178620.14, -187500.02, -187500.02, 0.000, 0.000, 0.000, 14:54:08.230
238, 41288.45, 25339.86, -187500.02, -187500.02, -187500.02, -178489.33, -187500.02, -187500.02, 0.000, 0.000, 0.000, 14:54:08.230
239, 41497.11, 25363.42, -187500.02, -187500.02, -187500.02, -178167.97, -187500.02, -187500.02, 0.000, 0.000, 0.000, 14:54:08.230
240, 41370.37, 25270.19, -187500.02, -187500.02, -187500.02, -178078.02, -187500.02, -187500.02, 0.000, 0.000, 0.000, 14:54:08.692
241, 40934.49, 25154.47, -187500.02, -187500.02, -187500.02, -178408.06, -187500.02, -187500.02, 0.000, 0.000, 0.000, 14:54:08.692
242, 41022.47, 25249.04, -187500.02, -187500.02, -187500.02, -178523.98, -187500.02, -187500.02, 0.000, 0.000, 0.000, 14:54:08.692
243, 41290.62, 25360.54, -187500.02, -187500.02, -187500.02, -178453.95, -187500.02, -187500.02, 0.000, 0.000, 0.000, 14:54:08.692
244, 41506.38, 25382.75, -187500.02, -187500.02, -187500.02, -178182.72, -187500.02, -187500.02, 0.000, 0.000, 0.000, 14:54:08.693
245, 41382.22, 25295.60, -187500.02, -187500.02, -187500.02, -178089.75, -187500.02, -187500.02, 0.006, -0.016, 1.030, 14:54:08.693
246, 40954.43, 25185.47, -187500.02, -187500.02, -187500.02, -178427.13, -187500.02, -187500.02, 0.000, 0.000, 0.000, 14:54:08.693
247, 41046.38, 25262.43, -187500.02, -187500.02, -187500.02, -178575.91, -187500.02, -187500.02, 0.000, 0.000, 0.000, 14:54:08.693
248, 41309.62, 25361.12, -187500.02, -187500.02, -187500.02, -178435.06, -187500.02, -187500.02, 0.000, 0.000, 0.000, 14:54:08.693
249, 41516.87, 25392.43, -187500.02, -187500.02, -187500.02, -178155.00, -187500.02, -187500.02, 0.000, 0.000, 0.000, 14:54:08.694
250, 41389.93, 25295.00, -187500.02, -187500.02, -187500.02, -178131.58, -187500.02, -187500.02, 0.000, 0.000, 0.000, 14:54:08.694
251, 40951.66, 25174.10, -187500.02, -187500.02, -187500.02, -178458.92, -187500.02, -187500.02, 0.000, 0.000, 0.000, 14:54:08.694
252, 41043.08, 25253.60, -187500.02, -187500.02, -187500.02, -178577.48, -187500.02, -187500.02, 0.000, 0.000, 0.000, 14:54:08.694
253, 41308.86, 25348.62, -187500.02, -187500.02, -187500.02, -178465.02, -187500.02, -187500.02, 0.000, 0.000, 0.000, 14:54:08.694
254, 41513.65, 25369.23, -187500.02, -187500.02, -187500.02, -178177.53, -187500.02, -187500.02, 0.000, 0.000, 0.000, 14:54:08.694
255, 41395.79, 25291.40, -187500.02, -187500.02, -187500.02, -178118.66, -187500.02, -187500.02, 0.006, -0.018, 1.030, 14:54:08.695
0, 40949.07, 25162.90, -187500.02, -187500.02, -187500.02, -178434.11, -187500.02, -187500.02, 0.000, 0.000, 0.000, 14:54:08.695
1, 41026.69, 25237.55, -187500.02, -187500.02, -187500.02, -178555.83, -187500.02, -187500.02, 0.000, 0.000, 0.000, 14:54:08.695
2, 41302.25, 25342.76, -187500.02, -187500.02, -187500.02, -178431.13, -187500.02, -187500.02, 0.000, 0.000, 0.000, 14:54:08.695
3, 41520.78, 25381.16, -187500.02, -187500.02, -187500.02, -178173.53, -187500.02, -187500.02, 0.000, 0.000, 0.000, 14:54:08.695
4, 41387.90, 25286.48, -187500.02, -187500.02, -187500.02, -178091.30, -187500.02, -187500.02, 0.000, 0.000, 0.000, 14:54:08.695
5, 40940.50, 25150.88, -187500.02, -187500.02, -187500.02, -178381.08, -187500.02, -187500.02, 0.000, 0.000, 0.000, 14:54:08.696
6, 41021.44, 25228.48, -187500.02, -187500.02, -187500.02, -178518.45, -187500.02, -187500.02, 0.000, 0.000, 0.000, 14:54:08.696
7, 41279.71, 25327.86, -187500.02, -187500.02, -187500.02, -178397.48, -187500.02, -187500.02, 0.000, 0.000, 0.000, 14:54:08.696
8, 41498.67, 25366.19, -187500.02, -187500.02, -187500.02, -178117.95, -187500.02, -187500.02, 0.000, 0.000, 0.000, 14:54:08.696
9, 41387.32, 25278.10, -187500.02, -187500.02, -187500.02, -178063.64, -187500.02, -187500.02, 0.006, -0.018, 1.036, 14:54:08.696
10, 40948.15, 25160.20, -187500.02, -187500.02, -187500.02, -178391.44, -187500.02, -187500.02, 0.000, 0.000, 0.000, 14:54:08.696
11, 41035.21, 25246.36, -187500.02, -187500.02, -187500.02, -178585.16, -187500.02, -187500.02, 0.000, 0.000, 0.000, 14:54:08.697
12, 41291.79, 25345.07, -187500.02, -187500.02, -187500.02, -178488.59, -187500.02, -187500.02, 0.000, 0.000, 0.000, 14:54:08.697
13, 41501.62, 25368.34, -187500.02, -187500.02, -187500.02, -178185.27, -187500.02, -187500.02, 0.000, 0.000, 0.000, 14:54:08.697
14, 41387.11, 25279.11, -187500.02, -187500.02, -187500.02, -178116.03, -187500.02, -187500.02, 0.000, 0.000, 0.000, 14:54:08.697
15, 40937.17, 25153.11, -187500.02, -187500.02, -187500.02, -178435.33, -187500.02, -187500.02, 0.000, 0.000, 0.000, 14:54:08.697
16, 41018.89, 25237.38, -187500.02, -187500.02, -187500.02, -178566.34, -187500.02, -187500.02, 0.000, 0.000, 0.000, 14:54:08.698
17, 41292.37, 25345.29, -187500.02, -187500.02, -187500.02, -178472.23, -187500.02, -187500.02, 0.000, 0.000, 0.000, 14:54:08.698
18, 41507.05, 25371.62, -187500.02, -187500.02, -187500.02, -178148.11, -187500.02, -187500.02, 0.000, 0.000, 0.000, 14:54:08.698
19, 41388.19, 25278.79, -187500.02, -187500.02, -187500.02, -178052.11, -187500.02, -187500.02, 0.010, -0.016, 1.028, 14:54:08.698
20, 40952.48, 25152.98, -187500.02, -187500.02, -187500.02, -178375.31, -187500.02, -187500.02, 0.000, 0.000, 0.000, 14:54:08.698
21, 41043.32, 25243.03, -187500.02, -187500.02, -187500.02, -178526.89, -187500.02, -187500.02, 0.000, 0.000, 0.000, 14:54:08.698
22, 41312.50, 25347.82, -187500.02, -187500.02, -187500.02, -178440.09, -187500.02, -187500.02, 0.000, 0.000, 0.000, 14:54:08.699
23, 41532.20, 25375.29, -187500.02, -187500.02, -187500.02, -178159.92, -187500.02, -187500.02, 0.000, 0.000, 0.000, 14:54:08.699
24, 41421.65, 25295.60, -187500.02, -187500.02, -187500.02, -178113.77, -187500.02, -187500.02, 0.000, 0.000, 0.000, 14:54:08.699
25, 40965.67, 25170.59, -187500.02, -187500.02, -187500.02, -178435.67, -187500.02, -187500.02, 0.000, 0.000, 0.000, 14:54:08.699
26, 41047.73, 25253.40, -187500.02, -187500.02, -187500.02, -178570.03, -187500.02, -187500.02, 0.000, 0.000, 0.000, 14:54:08.699
27, 41319.30, 25352.38, -187500.02, -187500.02, -187500.02, -178483.23, -187500.02, -187500.02, 0.000, 0.000, 0.000, 14:54:08.699
28, 41539.31, 25377.12, -187500.02, -187500.02, -187500.02, -178203.66, -187500.02, -187500.02, 0.012, -0.016, 1.030, 14:54:08.700
29, 41419.75, 25286.82, -187500.02, -187500.02, -187500.02, -178094.92, -187500.02, -187500.02, 0.000, 0.000, 0.000, 14:54:08.700
30, 40970.48, 25173.23, -187500.02, -187500.02, -187500.02, -178417.45, -187500.02, -187500.02, 0.000, 0.000, 0.000, 14:54:08.700
31, 41047.08, 25250.47, -187500.02, -187500.02, -187500.02, -178568.45, -187500.02, -187500.02, 0.000, 0.000, 0.000, 14:54:08.701
32, 41319.48, 25355.37, -187500.02, -187500.02, -187500.02, -178488.13, -187500.02, -187500.02, 0.000, 0.000, 0.000, 14:54:08.701
33, 41537.95, 25386.78, -187500.02, -187500.02, -187500.02, -178200.70, -187500.02, -187500.02, 0.000, 0.000, 0.000, 14:54:08.701
34, 41424.22, 25294.73, -187500.02, -187500.02, -187500.02, -178124.83, -187500.02, -187500.02, 0.000, 0.000, 0.000, 14:54:08.701
35, 40986.48, 25174.75, -187500.02, -187500.02, -187500.02, -178467.88, -187500.02, -187500.02, 0.000, 0.000, 0.000, 14:54:08.701
36, 41061.85, 25255.03, -187500.02, -187500.02, -187500.02, -178643.25, -187500.02, -187500.02, 0.000, 0.000, 0.000, 14:54:08.701
37, 41321.60, 25349.25, -187500.02, -187500.02, -187500.02, -178549.69, -187500.02, -187500.02, 0.000, 0.000, 0.000, 14:54:08.702
38, 41529.14, 25374.21, -187500.02, -187500.02, -187500.02, -178240.31, -187500.02, -187500.02, 0.010, -0.020, 1.032, 14:54:08.702
39, 41409.58, 25283.98, -187500.02, -187500.02, -187500.02, -178149.86, -187500.02, -187500.02, 0.000, 0.000, 0.000, 14:54:08.702
40, 40966.19, 25166.25, -187500.02, -187500.02, -187500.02, -178487.06, -187500.02, -187500.02, 0.000, 0.000, 0.000, 14:54:08.702
41, 41045.80, 25247.14, -187500.02, -187500.02, -187500.02, -178636.80, -187500.02, -187500.02, 0.000, 0.000, 0.000, 14:54:08.702
42, 41313.96, 25349.85, -187500.02, -187500.02, -187500.02, -178537.95, -187500.02, -187500.02, 0.000, 0.000, 0.000, 14:54:08.703
43, 41528.63, 25382.71, -187500.02, -187500.02, -187500.02, -178262.73, -187500.02, -187500.02, 0.000, 0.000, 0.000, 14:54:08.703
44, 41401.66, 25281.45, -187500.02, -187500.02, -187500.02, -178178.20, -187500.02, -187500.02, 0.000, 0.000, 0.000, 14:54:08.703
45, 40948.77, 25143.50, -187500.02, -187500.02, -187500.02, -178485.98, -187500.02, -187500.02, 0.000, 0.000, 0.000, 14:54:08.703
46, 41025.87, 25215.87, -187500.02, -187500.02, -187500.02, -178608.97, -187500.02, -187500.02, 0.000, 0.000, 0.000, 14:54:08.703
47, 41295.20, 25319.59, -187500.02, -187500.02, -187500.02, -178498.81, -187500.02, -187500.02, 0.000, 0.000, 0.000, 14:54:08.703
48, 41510.99, 25353.98, -187500.02, -187500.02, -187500.02, -178231.39, -187500.02, -187500.02, 0.014, -0.018, 1.028, 14:54:08.704
49, 41385.01, 25261.56, -187500.02, -187500.02, -187500.02, -178137.41, -187500.02, -187500.02, 0.000, 0.000, 0.000, 14:54:08.704
50, 40952.17, 25137.13, -187500.02, -187500.02, -187500.02, -178488.67, -187500.02, -187500.02, 0.000, 0.000, 0.000, 14:54:08.704
51, 41029.60, 25214.64, -187500.02, -187500.02, -187500.02, -178622.28, -187500.02, -187500.02, 0.000, 0.000, 0.000, 14:54:08.704
52, 41291.43, 25309.44, -187500.02, -187500.02, -187500.02, -178486.55, -187500.02, -187500.02, 0.000, 0.000, 0.000, 14:54:08.704
53, 41506.59, 25337.11, -187500.02, -187500.02, -187500.02, -178196.75, -187500.02, -187500.02, 0.000, 0.000, 0.000, 14:54:08.704
54, 41393.06, 25254.65, -187500.02, -187500.02, -187500.02, -178097.55, -187500.02, -187500.02, 0.000, 0.000, 0.000, 14:54:08.705
55, 40958.52, 25143.61, -187500.02, -187500.02, -187500.02, -178462.53, -187500.02, -187500.02, 0.000, 0.000, 0.000, 14:54:08.705
56, 41036.13, 25225.26, -187500.02, -187500.02, -187500.02, -178639.00, -187500.02, -187500.02, 0.000, 0.000, 0.000, 14:54:08.705
57, 41305.82, 25336.71, -187500.02, -187500.02, -187500.02, -178558.22, -187500.02, -187500.02, 0.000, 0.000, 0.000, 14:54:08.705
58, 41514.81, 25362.93, -187500.02, -187500.02, -187500.02, -178290.16, -187500.02, -187500.02, 0.014, -0.012, 1.024, 14:54:08.705
59, 41394.16, 25268.47, -187500.02, -187500.02, -187500.02, -178170.88, -187500.02, -187500.02, 0.000, 0.000, 0.000, 14:54:08.705
60, 40948.11, 25144.13, -187500.02, -187500.02, -187500.02, -178491.97, -187500.02, -187500.02, 0.000, 0.000, 0.000, 14:54:08.706
61, 41019.41, 25223.45, -187500.02, -187500.02, -187500.02, -178603.78, -187500.02, -187500.02, 0.000, 0.000, 0.000, 14:54:08.706
62, 41299.45, 25331.52, -187500.02, -187500.02, -187500.02, -178510.86, -187500.02, -187500.02, 0.000, 0.000, 0.000, 14:54:08.706
63, 41526.59, 25370.28, -187500.02, -187500.02, -187500.02, -178236.30, -187500.02, -187500.02, 0.000, 0.000, 0.000, 14:54:08.706
64, 41413.73, 25289.08, -187500.02, -187500.02, -187500.02, -178166.02, -187500.02, -187500.02, 0.000, 0.000, 0.000, 14:54:08.706
65, 40960.60, 25158.92, -187500.02, -187500.02, -187500.02, -178497.58, -187500.02, -187500.02, 0.000, 0.000, 0.000, 14:54:08.706
66, 41043.43, 25238.79, -187500.02, -187500.02, -187500.02, -178664.02, -187500.02, -187500.02, 0.000, 0.000, 0.000, 14:54:08.706
67, 41314.47, 25348.62, -187500.02, -187500.02, -187500.02, -178561.17, -187500.02, -187500.02, 0.000, 0.000, 0.000, 14:54:08.706
68, 41519.70, 25369.18, -187500.02, -187500.02, -187500.02, -178263.78, -187500.02, -187500.02, 0.010, -0.018, 1.026, 14:54:08.706
69, 41399.77, 25266.66, -187500.02, -187500.02, -187500.02, -178125.36, -187500.02, -187500.02, 0.000, 0.000, 0.000, 14:54:08.707
70, 40970.25, 25146.11, -187500.02, -187500.02, -187500.02, -178477.11, -187500.02, -187500.02, 0.000, 0.000, 0.000, 14:54:08.707
71, 41045.91, 25226.47, -187500.02, -187500.02, -187500.02, -178632.98, -187500.02, -187500.02, 0.000, 0.000, 0.000, 14:54:08.707
72, 41319.72, 25335.21, -187500.02, -187500.02, -187500.02, -178559.52, -187500.02, -187500.02, 0.000, 0.000, 0.000, 14:54:08.707
73, 41536.27, 25367.96, -187500.02, -187500.02, -187500.02, -178313.53, -187500.02, -187500.02, 0.000, 0.000, 0.000, 14:54:08.707
74, 41416.53, 25263.35, -187500.02, -187500.02, -187500.02, -178203.14, -187500.02, -187500.02, 0.000, 0.000, 0.000, 14:54:08.707
75, 40968.11, 25133.35, -187500.02, -187500.02, -187500.02, -178510.72, -187500.02, -187500.02, 0.000, 0.000, 0.000, 14:54:08.707
76, 41034.63, 25210.38, -187500.02, -187500.02, -187500.02, -178654.09, -187500.02, -187500.02, 0.000, 0.000, 0.000, 14:54:08.707
77, 41303.34, 25318.45, -187500.02, -187500.02, -187500.02, -178538.91, -187500.02, -187500.02, 0.000, 0.000, 0.000, 14:54:08.707
78, 41525.23, 25351.15, -187500.02, -187500.02, -187500.02, -178252.97, -187500.02, -187500.02, 0.006, -0.016, 1.024, 14:54:08.708
79, 41411.28, 25254.70, -187500.02, -187500.02, -187500.02, -178149.45, -187500.02, -187500.02, 0.000, 0.000, 0.000, 14:54:08.708
80, 40965.98, 25139.52, -187500.02, -187500.02, -187500.02, -178502.91, -187500.02, -187500.02, 0.000, 0.000, 0.000, 14:54:08.708
81, 41044.53, 25224.97, -187500.02, -187500.02, -187500.02, -178701.56, -187500.02, -187500.02, 0.000, 0.000, 0.000, 14:54:08.708
82, 41315.28, 25332.53, -187500.02, -187500.02, -187500.02, -178604.00, -187500.02, -187500.02, 0.000, 0.000, 0.000, 14:54:08.708
83, 41524.24, 25356.11, -187500.02, -187500.02, -187500.02, -178306.92, -187500.02, -187500.02, 0.000, 0.000, 0.000, 14:54:08.708
84, 41408.26, 25256.98, -187500.02, -187500.02, -187500.02, -178218.16, -187500.02, -187500.02, 0.000, 0.000, 0.000, 14:54:08.709
85, 40965.40, 25126.80, -187500.02, -187500.02, -187500.02, -178533.03, -187500.02, -187500.02, 0.000, 0.000, 0.000, 14:54:08.709
86, 41049.29, 25217.01, -187500.02, -187500.02, -187500.02, -178709.17, -187500.02, -187500.02, 0.000, 0.000, 0.000, 14:54:08.709
87, 41315.95, 25320.81, -187500.02, -187500.02, -187500.02, -178607.22, -187500.02, -187500.02, 0.000, 0.000, 0.000, 14:54:08.709
88, 41516.69, 25337.11, -187500.02, -187500.02, -187500.02, -178294.47, -187500.02, -187500.02, 0.010, -0.020, 1.026, 14:54:08.709
89, 41415.55, 25254.56, -187500.02, -187500.02, -187500.02, -178217.83, -187500.02, -187500.02, 0.000, 0.000, 0.000, 14:54:08.710
90, 40970.34, 25140.88, -187500.02, -187500.02, -187500.02, -178530.78, -187500.02, -187500.02, 0.000, 0.000, 0.000, 14:54:08.710
91, 41049.16, 25214.38, -187500.02, -187500.02, -187500.02, -178689.16, -187500.02, -187500.02, 0.000, 0.000, 0.000, 14:54:08.710
92, 41312.19, 25315.41, -187500.02, -187500.02, -187500.02, -178582.59, -187500.02, -187500.02, 0.000, 0.000, 0.000, 14:54:08.710
93, 41517.16, 25329.94, -187500.02, -187500.02, -187500.02, -178289.84, -187500.02, -187500.02, 0.000, 0.000, 0.000, 14:54:08.710
94, 41422.48, 25253.69, -187500.02, -187500.02, -187500.02, -178205.36, -187500.02, -187500.02, 0.000, 0.000, 0.000, 14:54:08.710
95, 40974.01, 25131.38, -187500.02, -187500.02, -187500.02, -178505.92, -187500.02, -187500.02, 0.000, 0.000, 0.000, 14:54:08.710
96, 41043.70, 25207.69, -187500.02, -187500.02, -187500.02, -178643.83, -187500.02, -187500.02, 0.000, 0.000, 0.000, 14:54:08.710
97, 41308.39, 25313.82, -187500.02, -187500.02, -187500.02, -178528.94, -187500.02, -187500.02, 0.000, 0.000, 0.000, 14:54:08.710
98, 41528.55, 25346.83, -187500.02, -187500.02, -187500.02, -178261.97, -187500.02, -187500.02, 0.010, -0.022, 1.026, 14:54:08.711
99, 41420.44, 25265.09, -187500.02, -187500.02, -187500.02, -178198.73, -187500.02, -187500.02, 0.000, 0.000, 0.000, 14:54:08.711
100, 40962.68, 25124.34, -187500.02, -187500.02, -187500.02, -178529.44, -187500.02, -187500.02, 0.000, 0.000, 0.000, 14:54:08.711
101, 41025.82, 25194.64, -187500.02, -187500.02, -187500.02, -178657.11, -187500.02, -187500.02, 0.000, 0.000, 0.000, 14:54:08.711
102, 41308.73, 25304.88, -187500.02, -187500.02, -187500.02, -178572.50, -187500.02, -187500.02, 0.000, 0.000, 0.000, 14:54:08.711
103, 41523.66, 25327.95, -187500.02, -187500.02, -187500.02, -178292.42, -187500.02, -187500.02, 0.000, 0.000, 0.000, 14:54:08.711
104, 41404.13, 25236.41, -187500.02, -187500.02, -187500.02, -178197.02, -187500.02, -187500.02, 0.000, 0.000, 0.000, 14:54:09.172
105, 40962.48, 25114.62, -187500.02, -187500.02, -187500.02, -178512.36, -187500.02, -187500.02, 0.000, 0.000, 0.000, 14:54:09.172
106, 41043.57, 25207.76, -187500.02, -187500.02, -187500.02, -178709.48, -187500.02, -187500.02, 0.000, 0.000, 0.000, 14:54:09.172
107, 41309.06, 25309.71, -187500.02, -187500.02, -187500.02, -178634.80, -187500.02, -187500.02, 0.000, 0.000, 0.000, 14:54:09.172
108, 41519.95, 25330.63, -187500.02, -187500.02, -187500.02, -178328.97, -187500.02, -187500.02, 0.010, -0.022, 1.028, 14:54:09.172
109, 41409.09, 25233.08, -187500.02, -187500.02, -187500.02, -178225.61, -187500.02, -187500.02, 0.000, 0.000, 0.000, 14:54:09.173
110, 40957.52, 25107.40, -187500.02, -187500.02, -187500.02, -178550.16, -187500.02, -187500.02, 0.000, 0.000, 0.000, 14:54:09.173
111, 41030.67, 25200.23, -187500.02, -187500.02, -187500.02, -178729.73, -187500.02, -187500.02, 0.000, 0.000, 0.000, 14:54:09.173
112, 41293.77, 25298.84, -187500.02, -187500.02, -187500.02, -178623.92, -187500.02, -187500.02, 0.000, 0.000, 0.000, 14:54:09.173
113, 41515.21, 25328.75, -187500.02, -187500.02, -187500.02, -178346.00, -187500.02, -187500.02, 0.000, 0.000, 0.000, 14:54:09.173
114, 41413.45, 25241.24, -187500.02, -187500.02, -187500.02, -178235.64, -187500.02, -187500.02, 0.000, 0.000, 0.000, 14:54:09.173
115, 40958.32, 25108.81, -187500.02, -187500.02, -187500.02, -178536.70, -187500.02, -187500.02, 0.000, 0.000, 0.000, 14:54:09.174
116, 41036.10, 25192.00, -187500.02, -187500.02, -187500.02, -178689.92, -187500.02, -187500.02, 0.000, 0.000, 0.000, 14:54:09.174
117, 41303.59, 25302.17, -187500.02, -187500.02, -187500.02, -178557.39, -187500.02, -187500.02, 0.000, 0.000, 0.000, 14:54:09.174
118, 41522.45, 25329.38, -187500.02, -187500.02, -187500.02, -178262.42, -187500.02, -187500.02, 0.008, -0.020, 1.032, 14:54:09.174
119, 41417.98, 25245.47, -187500.02, -187500.02, -187500.02, -178189.00, -187500.02, -187500.02, 0.000, 0.000, 0.000, 14:54:09.174
120, 40970.30, 25126.62, -187500.02, -187500.02, -187500.02, -178553.23, -187500.02, -187500.02, 0.000, 0.000, 0.000, 14:54:09.175
121, 41035.14, 25206.84, -187500.02, -187500.02, -187500.02, -178705.70, -187500.02, -187500.02, 0.000, 0.000, 0.000, 14:54:09.175
122, 41302.71, 25306.64, -187500.02, -187500.02, -187500.02, -178608.92, -187500.02, -187500.02, 0.000, 0.000, 0.000, 14:54:09.175
123, 41516.98, 25321.93, -187500.02, -187500.02, -187500.02, -178349.97, -187500.02, -187500.02, 0.000, 0.000, 0.000, 14:54:09.175
124, 41408.75, 25233.31, -187500.02, -187500.02, -187500.02, -178247.59, -187500.02, -187500.02, 0.000, 0.000, 0.000, 14:54:09.175
125, 40952.55, 25111.11, -187500.02, -187500.02, -187500.02, -178517.94, -187500.02, -187500.02, 0.000, 0.000, 0.000, 14:54:09.175
126, 41037.31, 25199.11, -187500.02, -187500.02, -187500.02, -178694.30, -187500.02, -187500.02, 0.000, 0.000, 0.000, 14:54:09.176
127, 41319.88, 25308.95, -187500.02, -187500.02, -187500.02, -178623.72, -187500.02, -187500.02, 0.000, 0.000, 0.000, 14:54:09.176
128, 41535.44, 25331.21, -187500.02, -187500.02, -187500.02, -178329.75, -187500.02, -187500.02, 0.012, -0.016, 1.032, 14:54:09.176
129, 41420.66, 25235.48, -187500.02, -187500.02, -187500.02, -178183.27, -187500.02, -187500.02, 0.000, 0.000, 0.000, 14:54:09.176
130, 40974.52, 25114.06, -187500.02, -187500.02, -187500.02, -178525.52, -187500.02, -187500.02, 0.000, 0.000, 0.000, 14:54:09.176
131, 41048.87, 25203.02, -187500.02, -187500.02, -187500.02, -178710.89, -187500.02, -187500.02, 0.000, 0.000, 0.000, 14:54:09.176
132, 41318.74, 25310.40, -187500.02, -187500.02, -187500.02, -178641.70, -187500.02, -187500.02, 0.000, 0.000, 0.000, 14:54:09.177
133, 41528.91, 25332.37, -187500.02, -187500.02, -187500.02, -178347.63, -187500.02, -187500.02, 0.000, 0.000, 0.000, 14:54:09.177
134, 41423.14, 25242.36, -187500.02, -187500.02, -187500.02, -178240.34, -187500.02, -187500.02, 0.000, 0.000, 0.000, 14:54:09.177
135, 40964.58, 25102.33, -187500.02, -187500.02, -187500.02, -178523.20, -187500.02, -187500.02, 0.000, 0.000, 0.000, 14:54:09.177
136, 41036.86, 25187.49, -187500.02, -187500.02, -187500.02, -178691.13, -187500.02, -187500.02, 0.000, 0.000, 0.000, 14:54:09.177
137, 41314.14, 25303.31, -187500.02, -187500.02, -187500.02, -178596.83, -187500.02, -187500.02, 0.000, 0.000, 0.000, 14:54:09.177
138, 41527.15, 25322.34, -187500.02, -187500.02, -187500.02, -178298.98, -187500.02, -187500.02, 0.012, -0.016, 1.028, 14:54:09.178
139, 41421.60, 25231.01, -187500.02, -187500.02, -187500.02, -178198.53, -187500.02, -187500.02, 0.000, 0.000, 0.000, 14:54:09.178
140, 40974.43, 25097.52, -187500.02, -187500.02, -187500.02, -178530.80, -187500.02, -187500.02, 0.000, 0.000, 0.000, 14:54:09.178
141, 41044.93, 25185.30, -187500.02, -187500.02, -187500.02, -178678.23, -187500.02, -187500.02, 0.000, 0.000, 0.000, 14:54:09.178
142, 41314.85, 25298.51, -187500.02, -187500.02, -187500.02, -178584.78, -187500.02, -187500.02, 0.000, 0.000, 0.000, 14:54:09.178
143, 41523.37, 25322.83, -187500.02, -187500.02, -187500.02, -178277.50, -187500.02, -187500.02, 0.000, 0.000, 0.000, 14:54:09.178
144, 41430.21, 25245.40, -187500.02, -187500.02, -187500.02, -178206.41, -187500.02, -187500.02, 0.000, 0.000, 0.000, 14:54:09.179
145, 40975.53, 25111.65, -187500.02, -187500.02, -187500.02, -178542.80, -187500.02, -187500.02, 0.000, 0.000, 0.000, 14:54:09.179
146, 41042.27, 25187.67, -187500.02, -187500.02, -187500.02, -178675.41, -187500.02, -187500.02, 0.000, 0.000, 0.000, 14:54:09.179
147, 41309.26, 25296.09, -187500.02, -187500.02, -187500.02, -178587.86, -187500.02, -187500.02, 0.000, 0.000, 0.000, 14:54:09.179
148, 41524.11, 25327.30, -187500.02, -187500.02, -187500.02, -178308.17, -187500.02, -187500.02, 0.008, -0.018, 1.030, 14:54:09.179
149, 41418.56, 25236.75, -187500.02, -187500.02, -187500.02, -178180.19, -187500.02, -187500.02, 0.000, 0.000, 0.000, 14:54:09.180
150, 40977.63, 25115.85, -187500.02, -187500.02, -187500.02, -178497.00, -187500.02, -187500.02, 0.000, 0.000, 0.000, 14:54:09.180
151, 41051.79, 25210.22, -187500.02, -187500.02, -187500.02, -178657.31, -187500.02, -187500.02, 0.000, 0.000, 0.000, 14:54:09.180
152, 41329.52, 25322.31, -187500.02, -187500.02, -187500.02, -178631.72, -187500.02, -187500.02, 0.000, 0.000, 0.000, 14:54:09.180
153, 41534.86, 25340.02, -187500.02, -187500.02, -187500.02, -178330.91, -187500.02, -187500.02, 0.000, 0.000, 0.000, 14:54:09.180
154, 41430.05, 25247.23, -187500.02, -187500.02, -187500.02, -178248.61, -187500.02, -187500.02, 0.000, 0.000, 0.000, 14:54:09.180
155, 40967.57, 25110.48, -187500.02, -187500.02, -187500.02, -178543.56, -187500.02, -187500.02, 0.000, 0.000, 0.000, 14:54:09.181
156, 41035.36, 25193.05, -187500.02, -187500.02, -187500.02, -178732.80, -187500.02, -187500.02, 0.000, 0.000, 0.000, 14:54:09.181
157, 41307.36, 25292.32, -187500.02, -187500.02, -187500.02, -178622.59, -187500.02, -187500.02, 0.004, -0.012, 1.034, 14:54:09.181
158, 41520.40, 25322.98, -187500.02, -187500.02, -187500.02, -178328.41, -187500.02, -187500.02, 0.000, 0.000, 0.000, 14:54:09.181
159, 41436.11, 25252.80, -187500.02, -187500.02, -187500.02, -178249.61, -187500.02, -187500.02, 0.000, 0.000, 0.000, 14:54:09.181
160, 40978.23, 25109.41, -187500.02, -187500.02, -187500.02, -178526.03, -187500.02, -187500.02, 0.000, 0.000, 0.000, 14:54:09.181
161, 41022.96, 25156.08, -187500.02, -187500.02, -187500.02, -178700.16, -187500.02, -187500.02, 0.000, 0.000, 0.000, 14:54:09.182
162, 41292.90, 25259.91, -187500.02, -187500.02, -187500.02, -178615.05, -187500.02, -187500.02, 0.000, 0.000, 0.000, 14:54:09.182
163, 41516.42, 25308.30, -187500.02, -187500.02, -187500.02, -178342.16, -187500.02, -187500.02, 0.000, 0.000, 0.000, 14:54:09.182
164, 41395.54, 25200.83, -187500.02, -187500.02, -187500.02, -178250.95, -187500.02, -187500.02, 0.000, 0.000, 0.000, 14:54:09.182
165, 40923.92, 25051.28, -187500.02, -187500.02, -187500.02, -178567.77, -187500.02, -187500.02, 0.000, 0.000, 0.000, 14:54:09.182
166, 40985.59, 25130.22, -187500.02, -187500.02, -187500.02, -178723.56, -187500.02, -187500.02, 0.000, 0.000, 0.000, 14:54:09.182
167, 41249.88, 25231.54, -187500.02, -187500.02, -187500.02, -178608.05, -187500.02, -187500.02, 0.008, -0.014, 1.032, 14:54:09.182
168, 41468.79, 25265.45, -187500.02, -187500.02, -187500.02, -178341.91, -187500.02, -187500.02, 0.000, 0.000, 0.000, 14:54:09.183
169, 41365.37, 25164.71, -187500.02, -187500.02, -187500.02, -178270.31, -187500.02, -187500.02, 0.000, 0.000, 0.000, 14:54:09.183
170, 40901.66, 25021.71, -187500.02, -187500.02, -187500.02, -178573.58, -187500.02, -187500.02, 0.000, 0.000, 0.000, 14:54:09.183
171, 40957.07, 25097.54, -187500.02, -187500.02, -187500.02, -178743.25, -187500.02, -187500.02, 0.000, 0.000, 0.000, 14:54:09.183
172, 41214.00, 25199.38, -187500.02, -187500.02, -187500.02, -178632.05, -187500.02, -187500.02, 0.000, 0.000, 0.000, 14:54:09.183
173, 41421.71, 25214.26, -187500.02, -187500.02, -187500.02, -178333.05, -187500.02, -187500.02, 0.000, 0.000, 0.000, 14:54:09.183
174, 41323.70, 25132.59, -187500.02, -187500.02, -187500.02, -178217.34, -187500.02, -187500.02, 0.000, 0.000, 0.000, 14:54:09.183
175, 40877.34, 25007.49, -187500.02, -187500.02, -187500.02, -178581.73, -187500.02, -187500.02, 0.000, 0.000, 0.000, 14:54:09.184
176, 40932.91, 25072.91, -187500.02, -187500.02, -187500.02, -178741.66, -187500.02, -187500.02, 0.000, 0.000, 0.000, 14:54:09.184
177, 41198.64, 25187.02, -187500.02, -187500.02, -187500.02, -178648.23, -187500.02, -187500.02, 0.008, -0.014, 1.028, 14:54:09.184
178, 41414.16, 25224.26, -187500.02, -187500.02, -187500.02, -178406.77, -187500.02, -187500.02, 0.000, 0.000, 0.000, 14:54:09.184
179, 41298.04, 25123.87, -187500.02, -187500.02, -187500.02, -178306.92, -187500.02, -187500.02, 0.000, 0.000, 0.000, 14:54:09.184
180, 40844.64, 24995.46, -187500.02, -187500.02, -187500.02, -178612.38, -187500.02, -187500.02, 0.000, 0.000, 0.000, 14:54:09.185
181, 40905.01, 25067.23, -187500.02, -187500.02, -187500.02, -178770.41, -187500.02, -187500.02, 0.000, 0.000, 0.000, 14:54:09.185
182, 41184.29, 25176.58, -187500.02, -187500.02, -187500.02, -178669.94, -187500.02, -187500.02, 0.000, 0.000, 0.000, 14:54:09.185
183, 41405.29, 25207.42, -187500.02, -187500.02, -187500.02, -178372.61, -187500.02, -187500.02, 0.000, 0.000, 0.000, 14:54:09.185
184, 41304.75, 25137.13, -187500.02, -187500.02, -187500.02, -178259.05, -187500.02, -187500.02, 0.000, 0.000, 0.000, 14:54:09.186
185, 40850.07, 25006.28, -187500.02, -187500.02, -187500.02, -178575.33, -187500.02, -187500.02, 0.000, 0.000, 0.000, 14:54:09.186
186, 40914.26, 25077.11, -187500.02, -187500.02, -187500.02, -178758.88, -187500.02, -187500.02, 0.000, 0.000, 0.000, 14:54:09.186
187, 41186.06, 25179.44, -187500.02, -187500.02, -187500.02, -178671.69, -187500.02, -187500.02, 0.008, -0.016, 1.022, 14:54:09.186
188, 41405.73, 25218.60, -187500.02, -187500.02, -187500.02, -178402.72, -187500.02, -187500.02, 0.000, 0.000, 0.000, 14:54:09.186
189, 41312.13, 25134.67, -187500.02, -187500.02, -187500.02, -178304.52, -187500.02, -187500.02, 0.000, 0.000, 0.000, 14:54:09.186
190, 40864.62, 25002.93, -187500.02, -187500.02, -187500.02, -178613.59, -187500.02, -187500.02, 0.000, 0.000, 0.000, 14:54:09.187
191, 40922.49, 25086.35, -187500.02, -187500.02, -187500.02, -178759.25, -187500.02, -187500.02, 0.000, 0.000, 0.000, 14:54:09.187
192, 41200.14, 25199.27, -187500.02, -187500.02, -187500.02, -178669.22, -187500.02, -187500.02, 0.000, 0.000, 0.000, 14:54:09.187
193, 41414.61, 25227.90, -187500.02, -187500.02, -187500.02, -178375.20, -187500.02, -187500.02, 0.000, 0.000, 0.000, 14:54:09.187
194, 41309.75, 25140.41, -187500.02, -187500.02, -187500.02, -178262.67, -187500.02, -187500.02, 0.000, 0.000, 0.000, 14:54:09.187
195, 40860.30, 25009.30, -187500.02, -187500.02, -187500.02, -178602.81, -187500.02, -187500.02, 0.000, 0.000, 0.000, 14:54:09.187
196, 40928.25, 25088.96, -187500.02, -187500.02, -187500.02, -178775.66, -187500.02, -187500.02, 0.000, 0.000, 0.000, 14:54:09.187
197, 41197.57, 25186.64, -187500.02, -187500.02, -187500.02, -178660.97, -187500.02, -187500.02, 0.004, -0.012, 1.028, 14:54:09.187
198, 41411.03, 25223.85, -187500.02, -187500.02, -187500.02, -178373.06, -187500.02, -187500.02, 0.000, 0.000, 0.000, 14:54:09.188
199, 41315.10, 25144.28, -187500.02, -187500.02, -187500.02, -178264.72, -187500.02, -187500.02, 0.000, 0.000, 0.000, 14:54:09.188
200, 40868.96, 25016.65, -187500.02, -187500.02, -187500.02, -178583.30, -187500.02, -187500.02, 0.000, 0.000, 0.000, 14:54:09.188
201, 40940.88, 25103.22, -187500.02, -187500.02, -187500.02, -178778.56, -187500.02, -187500.02, 0.000, 0.000, 0.000, 14:54:09.188
202, 41206.18, 25208.72, -187500.02, -187500.02, -187500.02, -178692.69, -187500.02, -187500.02, 0.000, 0.000, 0.000, 14:54:09.188
203, 41421.43, 25227.52, -187500.02, -187500.02, -187500.02, -178389.67, -187500.02, -187500.02, 0.000, 0.000, 0.000, 14:54:09.188
204, 41328.08, 25140.64, -187500.02, -187500.02, -187500.02, -178285.48, -187500.02, -187500.02, 0.000, 0.000, 0.000, 14:54:09.188
205, 40868.24, 25007.47, -187500.02, -187500.02, -187500.02, -178587.84, -187500.02, -187500.02, 0.000, 0.000, 0.000, 14:54:09.188
206, 40930.91, 25092.96, -187500.02, -187500.02, -187500.02, -178747.50, -187500.02, -187500.02, 0.000, 0.000, 0.000, 14:54:09.189
207, 41201.66, 25199.31, -187500.02, -187500.02, -187500.02, -178654.97, -187500.02, -187500.02, 0.006, -0.012, 1.024, 14:54:09.189
208, 41416.91, 25234.80, -187500.02, -187500.02, -187500.02, -178370.77, -187500.02, -187500.02, 0.000, 0.000, 0.000, 14:54:09.189
209, 41323.70, 25149.80, -187500.02, -187500.02, -187500.02, -178281.23, -187500.02, -187500.02, 0.000, 0.000, 0.000, 14:54:09.189
210, 40876.15, 25018.69, -187500.02, -187500.02, -187500.02, -178598.25, -187500.02, -187500.02, 0.000, 0.000, 0.000, 14:54:09.189
211, 40928.61, 25093.03, -187500.02, -187500.02, -187500.02, -178738.22, -187500.02, -187500.02, 0.000, 0.000, 0.000, 14:54:09.189
212, 41197.10, 25197.93, -187500.02, -187500.02, -187500.02, -178643.20, -187500.02, -187500.02, 0.000, 0.000, 0.000, 14:54:09.189
213, 41425.78, 25240.17, -187500.02, -187500.02, -187500.02, -178371.34, -187500.02, -187500.02, 0.000, 0.000, 0.000, 14:54:09.189
214, 41333.61, 25161.54, -187500.02, -187500.02, -187500.02, -178276.64, -187500.02, -187500.02, 0.000, 0.000, 0.000, 14:54:09.190
215, 40879.37, 25029.77, -187500.02, -187500.02, -187500.02, -178571.13, -187500.02, -187500.02, 0.000, 0.000, 0.000, 14:54:09.190
216, 40939.70, 25113.88, -187500.02, -187500.02, -187500.02, -178725.64, -187500.02, -187500.02, 0.000, 0.000, 0.000, 14:54:09.190
217, 41209.84, 25224.68, -187500.02, -187500.02, -187500.02, -178631.89, -187500.02, -187500.02, 0.000, -0.016, 1.024, 14:54:09.190
218, 41437.14, 25249.96, -187500.02, -187500.02, -187500.02, -178344.86, -187500.02, -187500.02, 0.000, 0.000, 0.000, 14:54:09.190
219, 41348.22, 25174.17, -187500.02, -187500.02, -187500.02, -178248.67, -187500.02, -187500.02, 0.000, 0.000, 0.000, 14:54:09.190
220, 40891.71, 25038.96, -187500.02, -187500.02, -187500.02, -178586.23, -187500.02, -187500.02, 0.000, 0.000, 0.000, 14:54:09.190
221, 40940.68, 25101.79, -187500.02, -187500.02, -187500.02, -178729.44, -187500.02, -187500.02, 0.000, 0.000, 0.000, 14:54:09.190
222, 41201.89, 25205.70, -187500.02, -187500.02, -187500.02, -178602.09, -187500.02, -187500.02, 0.000, 0.000, 0.000, 14:54:09.191
223, 41427.71, 25249.45, -187500.02, -187500.02, -187500.02, -178341.14, -187500.02, -187500.02, 0.000, 0.000, 0.000, 14:54:09.191
224, 41339.50, 25164.64, -187500.02, -187500.02, -187500.02, -178235.02, -187500.02, -187500.02, 0.000, 0.000, 0.000, 14:54:09.654
225, 40891.04, 25037.04, -187500.02, -187500.02, -187500.02, -178578.94, -187500.02, -187500.02, 0.000, 0.000, 0.000, 14:54:09.654
226, 40949.24, 25119.58, -187500.02, -187500.02, -187500.02, -178780.89, -187500.02, -187500.02, 0.000, 0.000, 0.000, 14:54:09.654
227, 41216.97, 25220.50, -187500.02, -187500.02, -187500.02, -178705.30, -187500.02, -187500.02, 0.002, -0.018, 1.028, 14:54:09.654
228, 41427.82, 25239.39, -187500.02, -187500.02, -187500.02, -178421.36, -187500.02, -187500.02, 0.000, 0.000, 0.000, 14:54:09.654
229, 41329.22, 25153.31, -187500.02, -187500.02, -187500.02, -178292.13, -187500.02, -187500.02, 0.000, 0.000, 0.000, 14:54:09.654
230, 40880.58, 25022.26, -187500.02, -187500.02, -187500.02, -178617.64, -187500.02, -187500.02, 0.000, 0.000, 0.000, 14:54:09.654
231, 40937.98, 25087.64, -187500.02, -187500.02, -187500.02, -178761.80, -187500.02, -187500.02, 0.000, 0.000, 0.000, 14:54:09.654
232, 41209.11, 25200.45, -187500.02, -187500.02, -187500.02, -178689.30, -187500.02, -187500.02, 0.000, 0.000, 0.000, 14:54:09.655
233, 41412.51, 25235.21, -187500.02, -187500.02, -187500.02, -178434.58, -187500.02, -187500.02, 0.000, 0.000, 0.000, 14:54:09.655
234, 41322.81, 25160.75, -187500.02, -187500.02, -187500.02, -178316.67, -187500.02, -187500.02, 0.000, 0.000, 0.000, 14:54:09.655
235, 40867.32, 25022.11, -187500.02, -187500.02, -187500.02, -178611.52, -187500.02, -187500.02, 0.000, 0.000, 0.000, 14:54:09.655
236, 40924.32, 25092.54, -187500.02, -187500.02, -187500.02, -178758.14, -187500.02, -187500.02, 0.000, 0.000, 0.000, 14:54:09.655
237, 41199.61, 25201.93, -187500.02, -187500.02, -187500.02, -178670.23, -187500.02, -187500.02, 0.002, -0.012, 1.026, 14:54:09.655
238, 41421.22, 25241.36, -187500.02, -187500.02, -187500.02, -178410.56, -187500.02, -187500.02, 0.000, 0.000, 0.000, 14:54:09.655
239, 41330.07, 25155.46, -187500.02, -187500.02, -187500.02, -178316.84, -187500.02, -187500.02, 0.000, 0.000, 0.000, 14:54:09.655
240, 40870.70, 25016.54, -187500.02, -187500.02, -187500.02, -178621.64, -187500.02, -187500.02, 0.000, 0.000, 0.000, 14:54:09.656
241, 40926.63, 25096.05, -187500.02, -187500.02, -187500.02, -178761.13, -187500.02, -187500.02, 0.000, 0.000, 0.000, 14:54:09.656
242, 41198.42, 25204.65, -187500.02, -187500.02, -187500.02, -178649.53, -187500.02, -187500.02, 0.000, 0.000, 0.000, 14:54:09.656
243, 41415.52, 25234.98, -187500.02, -187500.02, -187500.02, -178385.47, -187500.02, -187500.02, 0.000, 0.000, 0.000, 14:54:09.656
244, 41315.07, 25143.21, -187500.02, -187500.02, -187500.02, -178257.44, -187500.02, -187500.02, 0.000, 0.000, 0.000, 14:54:09.656
245, 40867.01, 25016.47, -187500.02, -187500.02, -187500.02, -178588.06, -187500.02, -187500.02, 0.000, 0.000, 0.000, 14:54:09.656
246, 40930.13, 25093.36, -187500.02, -187500.02, -187500.02, -178766.55, -187500.02, -187500.02, 0.000, 0.000, 0.000, 14:54:09.656
247, 41218.43, 25212.65, -187500.02, -187500.02, -187500.02, -178680.83, -187500.02, -187500.02, 0.004, -0.012, 1.022, 14:54:09.656
248, 41435.57, 25246.16, -187500.02, -187500.02, -187500.02, -178407.55, -187500.02, -187500.02, 0.000, 0.000, 0.000, 14:54:09.657
249, 41342.43, 25165.40, -187500.02, -187500.02, -187500.02, -178295.08, -187500.02, -187500.02, 0.000, 0.000, 0.000, 14:54:09.657
250, 40882.41, 25031.23, -187500.02, -187500.02, -187500.02, -178622.27, -187500.02, -187500.02, 0.000, 0.000, 0.000, 14:54:09.657
251, 40938.18, 25106.17, -187500.02, -187500.02, -187500.02, -178788.17, -187500.02, -187500.02, 0.000, 0.000, 0.000, 14:54:09.657
252, 41207.18, 25211.94, -187500.02, -187500.02, -187500.02, -178665.95, -187500.02, -187500.02, 0.000, 0.000, 0.000, 14:54:09.657
253, 41421.31, 25238.45, -187500.02, -187500.02, -187500.02, -178390.20, -187500.02, -187500.02, 0.000, 0.000, 0.000, 14:54:09.657
254, 41323.48, 25148.71, -187500.02, -187500.02, -187500.02, -178260.16, -187500.02, -187500.02, 0.000, 0.000, 0.000, 14:54:09.657
255, 40873.27, 25020.36, -187500.02, -187500.02, -187500.02, -178573.67, -187500.02, -187500.02, 0.000, 0.000, 0.000, 14:54:09.657
0, 40936.35, 25103.82, -187500.02, -187500.02, -187500.02, -178740.17, -187500.02, -187500.02, 0.000, 0.000, 0.000, 14:54:09.657
1, 41212.23, 25216.54, -187500.02, -187500.02, -187500.02, -178661.91, -187500.02, -187500.02, 0.000, -0.020, 1.036, 14:54:09.658
2, 41416.86, 25244.60, -187500.02, -187500.02, -187500.02, -178397.95, -187500.02, -187500.02, 0.000, 0.000, 0.000, 14:54:09.658
3, 41313.13, 25142.00, -187500.02, -187500.02, -187500.02, -178266.13, -187500.02, -187500.02, 0.000, 0.000, 0.000, 14:54:09.658
4, 40863.21, 25003.40, -187500.02, -187500.02, -187500.02, -178595.81, -187500.02, -187500.02, 0.000, 0.000, 0.000, 14:54:09.658
5, 40915.38, 25082.63, -187500.02, -187500.02, -187500.02, -178746.31, -187500.02, -187500.02, 0.000, 0.000, 0.000, 14:54:09.658
6, 41181.88, 25186.57, -187500.02, -187500.02, -187500.02, -178641.64, -187500.02, -187500.02, 0.000, 0.000, 0.000, 14:54:09.658
7, 41397.89, 25218.22, -187500.02, -187500.02, -187500.02, -178372.22, -187500.02, -187500.02, 0.000, 0.000, 0.000, 14:54:09.658
8, 41309.33, 25140.26, -187500.02, -187500.02, -187500.02, -178275.72, -187500.02, -187500.02, 0.000, 0.000, 0.000, 14:54:09.658
9, 40841.44, 24987.82, -187500.02, -187500.02, -187500.02, -178577.05, -187500.02, -187500.02, 0.000, 0.000, 0.000, 14:54:09.659
10, 40885.86, 25043.34, -187500.02, -187500.02, -187500.02, -178706.38, -187500.02, -187500.02, 0.000, 0.000, 0.000, 14:54:09.659
11, 41162.19, 25159.19, -187500.02, -187500.02, -187500.02, -178601.45, -187500.02, -187500.02, 0.002, -0.018, 1.036, 14:54:09.659
12, 41390.63, 25198.98, -187500.02, -187500.02, -187500.02, -178343.83, -187500.02, -187500.02, 0.000, 0.000, 0.000, 14:54:09.659
13, 41310.11, 25114.89, -187500.02, -187500.02, -187500.02, -178244.06, -187500.02, -187500.02, 0.000, 0.000, 0.000, 14:54:09.659
14, 40853.62, 24991.87, -187500.02, -187500.02, -187500.02, -178588.86, -187500.02, -187500.02, 0.000, 0.000, 0.000, 14:54:09.659
15, 40907.58, 25069.58, -187500.02, -187500.02, -187500.02, -178787.86, -187500.02, -187500.02, 0.000, 0.000, 0.000, 14:54:09.659
16, 41175.40, 25178.23, -187500.02, -187500.02, -187500.02, -178699.58, -187500.02, -187500.02, 0.000, 0.000, 0.000, 14:54:09.659
17, 41385.35, 25199.67, -187500.02, -187500.02, -187500.02, -178388.69, -187500.02, -187500.02, 0.000, 0.000, 0.000, 14:54:09.659
18, 41309.98, 25115.29, -187500.02, -187500.02, -187500.02, -178239.53, -187500.02, -187500.02, 0.000, 0.000, 0.000, 14:54:09.660
19, 40859.77, 24987.86, -187500.02, -187500.02, -187500.02, -178593.69, -187500.02, -187500.02, 0.000, 0.000, 0.000, 14:54:09.660
20, 40908.36, 25069.29, -187500.02, -187500.02, -187500.02, -178785.20, -187500.02, -187500.02, 0.000, 0.000, 0.000, 14:54:09.660
21, 41170.57, 25175.08, -187500.02, -187500.02, -187500.02, -178680.42, -187500.02, -187500.02, 0.004, -0.014, 1.036, 14:54:09.660
22, 41387.47, 25200.83, -187500.02, -187500.02, -187500.02, -178400.83, -187500.02, -187500.02, 0.000, 0.000, 0.000, 14:54:09.660
23, 41306.45, 25125.19, -187500.02, -187500.02, -187500.02, -178281.11, -187500.02, -187500.02, 0.000, 0.000, 0.000, 14:54:09.660
24, 40847.77, 24987.04, -187500.02, -187500.02, -187500.02, -178633.25, -187500.02, -187500.02, 0.000, 0.000, 0.000, 14:54:09.660
25, 40905.93, 25059.95, -187500.02, -187500.02, -187500.02, -178802.84, -187500.02, -187500.02, 0.000, 0.000, 0.000, 14:54:09.660
26, 41178.80, 25176.11, -187500.02, -187500.02, -187500.02, -178711.89, -187500.02, -187500.02, 0.000, 0.000, 0.000, 14:54:09.661
27, 41389.68, 25201.84, -187500.02, -187500.02, -187500.02, -178416.63, -187500.02, -187500.02, 0.000, 0.000, 0.000, 14:54:09.661
28, 41305.15, 25124.14, -187500.02, -187500.02, -187500.02, -178302.97, -187500.02, -187500.02, 0.000, 0.000, 0.000, 14:54:09.661
29, 40857.40, 24998.84, -187500.02, -187500.02, -187500.02, -178612.47, -187500.02, -187500.02, 0.000, 0.000, 0.000, 14:54:09.661
30, 40913.73, 25077.29, -187500.02, -187500.02, -187500.02, -178788.67, -187500.02, -187500.02, 0.000, 0.000, 0.000, 14:54:09.661
31, 41176.41, 25183.46, -187500.02, -187500.02, -187500.02, -178701.00, -187500.02, -187500.02, 0.006, -0.012, 1.036, 14:54:09.661
32, 41382.96, 25201.72, -187500.02, -187500.02, -187500.02, -178374.77, -187500.02, -187500.02, 0.000, 0.000, 0.000, 14:54:09.662
33, 41301.53, 25117.79, -187500.02, -187500.02, -187500.02, -178233.55, -187500.02, -187500.02, 0.000, 0.000, 0.000, 14:54:09.662
34, 40848.48, 24994.55, -187500.02, -187500.02, -187500.02, -178568.48, -187500.02, -187500.02, 0.000, 0.000, 0.000, 14:54:09.662
35, 40895.62, 25063.14, -187500.02, -187500.02, -187500.02, -178737.11, -187500.02, -187500.02, 0.000, 0.000, 0.000, 14:54:09.662
36, 41167.15, 25178.77, -187500.02, -187500.02, -187500.02, -178634.75, -187500.02, -187500.02, 0.000, 0.000, 0.000, 14:54:09.662
37, 41384.16, 25221.28, -187500.02, -187500.02, -187500.02, -178370.17, -187500.02, -187500.02, 0.000, 0.000, 0.000, 14:54:09.663
38, 41297.51, 25131.38, -187500.02, -187500.02, -187500.02, -178239.84, -187500.02, -187500.02, 0.000, 0.000, 0.000, 14:54:09.663
39, 40851.25, 24996.36, -187500.02, -187500.02, -187500.02, -178561.20, -187500.02, -187500.02, 0.000, 0.000, 0.000, 14:54:09.663
40, 40913.21, 25078.39, -187500.02, -187500.02, -187500.02, -178779.06, -187500.02, -187500.02, 0.004, -0.010, 1.028, 14:54:09.663
41, 41180.32, 25181.27, -187500.02, -187500.02, -187500.02, -178704.89, -187500.02, -187500.02, 0.000, 0.000, 0.000, 14:54:09.663
42, 41397.66, 25214.09, -187500.02, -187500.02, -187500.02, -178420.27, -187500.02, -187500.02, 0.000, 0.000, 0.000, 14:54:09.663
43, 41320.91, 25141.51, -187500.02, -187500.02, -187500.02, -178302.81, -187500.02, -187500.02, 0.000, 0.000, 0.000, 14:54:09.664
44, 40856.33, 24993.72, -187500.02, -187500.02, -187500.02, -178614.27, -187500.02, -187500.02, 0.000, 0.000, 0.000, 14:54:09.664
45, 40899.91, 25060.80, -187500.02, -187500.02, -187500.02, -178764.08, -187500.02, -187500.02, 0.000, 0.000, 0.000, 14:54:09.664
46, 41173.25, 25166.99, -187500.02, -187500.02, -187500.02, -178687.03, -187500.02, -187500.02, 0.000, 0.000, 0.000, 14:54:09.664
47, 41399.99, 25191.13, -187500.02, -187500.02, -187500.02, -178413.31, -187500.02, -187500.02, 0.000, 0.000, 0.000, 14:54:09.664
48, 41313.87, 25110.48, -187500.02, -187500.02, -187500.02, -178304.02, -187500.02, -187500.02, 0.000, 0.000, 0.000, 14:54:09.664
49, 40843.25, 24975.46, -187500.02, -187500.02, -187500.02, -178593.34, -187500.02, -187500.02, 0.000, 0.000, 0.000, 14:54:09.665
50, 40904.32, 25058.81, -187500.02, -187500.02, -187500.02, -178785.98, -187500.02, -187500.02, 0.008, -0.014, 1.030, 14:54:09.665
51, 41174.95, 25168.31, -187500.02, -187500.02, -187500.02, -178716.41, -187500.02, -187500.02, 0.000, 0.000, 0.000, 14:54:09.665
52, 41382.49, 25193.99, -187500.02, -187500.02, -187500.02, -178467.30, -187500.02, -187500.02, 0.000, 0.000, 0.000, 14:54:09.665
53, 41297.08, 25100.47, -187500.02, -187500.02, -187500.02, -178344.34, -187500.02, -187500.02, 0.000, 0.000, 0.000, 14:54:09.665
54, 40835.70, 24960.84, -187500.02, -187500.02, -187500.02, -178620.55, -187500.02, -187500.02, 0.000, 0.000, 0.000, 14:54:09.665
55, 40884.00, 25044.73, -187500.02, -187500.02, -187500.02, -178768.16, -187500.02, -187500.02, 0.000, 0.000, 0.000, 14:54:09.666
56, 41152.31, 25149.13, -187500.02, -187500.02, -187500.02, -178658.73, -187500.02, -187500.02, 0.000, 0.000, 0.000, 14:54:09.666
57, 41374.04, 25180.09, -187500.02, -187500.02, -187500.02, -178359.89, -187500.02, -187500.02, 0.000, 0.000, 0.000, 14:54:09.666
58, 41305.24, 25108.36, -187500.02, -187500.02, -187500.02, -178251.92, -187500.02, -187500.02, 0.000, 0.000, 0.000, 14:54:09.666
59, 40856.73, 24986.52, -187500.02, -187500.02, -187500.02, -178623.27, -187500.02, -187500.02, 0.000, 0.000, 0.000, 14:54:09.666
60, 40898.55, 25053.18, -187500.02, -187500.02, -187500.02, -178795.95, -187500.02, -187500.02, 0.006, -0.012, 1.028, 14:54:09.666
61, 41169.97, 25161.49, -187500.02, -187500.02, -187500.02, -178707.17, -187500.02, -187500.02, 0.000, 0.000, 0.000, 14:54:09.667
62, 41394.74, 25198.42, -187500.02, -187500.02, -187500.02, -178461.53, -187500.02, -187500.02, 0.000, 0.000, 0.000, 14:54:09.667
63, 41308.88, 25114.71, -187500.02, -187500.02, -187500.02, -178344.14, -187500.02, -187500.02, 0.000, 0.000, 0.000, 14:54:09.667
64, 40849.55, 24982.86, -187500.02, -187500.02, -187500.02, -178640.92, -187500.02, -187500.02, 0.000, 0.000, 0.000, 14:54:09.667
65, 40892.71, 25056.04, -187500.02, -187500.02, -187500.02, -178786.77, -187500.02, -187500.02, 0.000, 0.000, 0.000, 14:54:09.667
66, 41167.71, 25169.29, -187500.02, -187500.02, -187500.02, -178685.19, -187500.02, -187500.02, 0.000, 0.000, 0.000, 14:54:09.667
67, 41385.28, 25199.67, -187500.02, -187500.02, -187500.02, -178417.61, -187500.02, -187500.02, 0.000, 0.000, 0.000, 14:54:09.668
68, 41301.75, 25120.19, -187500.02, -187500.02, -187500.02, -178307.25, -187500.02, -187500.02, 0.000, 0.000, 0.000, 14:54:09.668
69, 40843.90, 24990.50, -187500.02, -187500.02, -187500.02, -178604.53, -187500.02, -187500.02, 0.000, 0.000, 0.000, 14:54:09.668
70, 40895.80, 25061.22, -187500.02, -187500.02, -187500.02, -178783.19, -187500.02, -187500.02, 0.006, -0.014, 1.032, 14:54:09.668
71, 41167.73, 25164.91, -187500.02, -187500.02, -187500.02, -178695.73, -187500.02, -187500.02, 0.000, 0.000, 0.000, 14:54:09.668
72, 41384.12, 25192.61, -187500.02, -187500.02, -187500.02, -178372.95, -187500.02, -187500.02, 0.000, 0.000, 0.000, 14:54:09.668
73, 41311.81, 25114.08, -187500.02, -187500.02, -187500.02, -178224.78, -187500.02, -187500.02, 0.000, 0.000, 0.000, 14:54:09.669
74, 40856.89, 24988.89, -187500.02, -187500.02, -187500.02, -178572.44, -187500.02, -187500.02, 0.000, 0.000, 0.000, 14:54:09.669
75, 40899.64, 25056.15, -187500.02, -187500.02, -187500.02, -178761.84, -187500.02, -187500.02, 0.000, 0.000, 0.000, 14:54:09.669
76, 41174.10, 25167.37, -187500.02, -187500.02, -187500.02, -178679.97, -187500.02, -187500.02, 0.000, 0.000, 0.000, 14:54:09.669
77, 41386.13, 25197.75, -187500.02, -187500.02, -187500.02, -178375.34, -187500.02, -187500.02, 0.000, 0.000, 0.000, 14:54:09.669
78, 41316.26, 25122.82, -187500.02, -187500.02, -187500.02, -178288.48, -187500.02, -187500.02, 0.000, 0.000, 0.000, 14:54:09.669
79, 40846.00, 24984.55, -187500.02, -187500.02, -187500.02, -178613.88, -187500.02, -187500.02, 0.000, 0.000, 0.000, 14:54:09.670
80, 40889.59, 25048.66, -187500.02, -187500.02, -187500.02, -178788.14, -187500.02, -187500.02, 0.010, -0.010, 1.028, 14:54:09.670
81, 41168.09, 25164.51, -187500.02, -187500.02, -187500.02, -178729.39, -187500.02, -187500.02, 0.000, 0.000, 0.000, 14:54:09.670
82, 41376.03, 25192.54, -187500.02, -187500.02, -187500.02, -178433.25, -187500.02, -187500.02, 0.000, 0.000, 0.000, 14:54:09.670
83, 41307.30, 25120.46, -187500.02, -187500.02, -187500.02, -178345.34, -187500.02, -187500.02, 0.000, 0.000, 0.000, 14:54:09.670
84, 40846.47, 24978.43, -187500.02, -187500.02, -187500.02, -178651.94, -187500.02, -187500.02, 0.000, 0.000, 0.000, 14:54:09.671
85, 40896.29, 25056.57, -187500.02, -187500.02, -187500.02, -178844.59, -187500.02, -187500.02, 0.000, 0.000, 0.000, 14:54:09.671
86, 41163.66, 25161.63, -187500.02, -187500.02, -187500.02, -178723.97, -187500.02, -187500.02, 0.000, 0.000, 0.000, 14:54:09.671
87, 41374.89, 25183.55, -187500.02, -187500.02, -187500.02, -178409.05, -187500.02, -187500.02, 0.000, 0.000, 0.000, 14:54:09.671
88, 41306.56, 25110.15, -187500.02, -187500.02, -187500.02, -178315.19, -187500.02, -187500.02, 0.000, 0.000, 0.000, 14:54:09.671
89, 40839.52, 24979.86, -187500.02, -187500.02, -187500.02, -178633.22, -187500.02, -187500.02, 0.000, 0.000, 0.000, 14:54:10.133
90, 40886.66, 25058.12, -187500.02, -187500.02, -187500.02, -178801.66, -187500.02, -187500.02, 0.010, -0.010, 1.026, 14:54:10.134
91, 41162.77, 25165.04, -187500.02, -187500.02, -187500.02, -178723.98, -187500.02, -187500.02, 0.000, 0.000, 0.000, 14:54:10.134
92, 41375.18, 25191.87, -187500.02, -187500.02, -187500.02, -178407.45, -187500.02, -187500.02, 0.000, 0.000, 0.000, 14:54:10.134
93, 41294.20, 25110.17, -187500.02, -187500.02, -187500.02, -178247.22, -187500.02, -187500.02, 0.000, 0.000, 0.000, 14:54:10.134
94, 40833.28, 24972.57, -187500.02, -187500.02, -187500.02, -178567.77, -187500.02, -187500.02, 0.000, 0.000, 0.000, 14:54:10.134
95, 40878.30, 25041.69, -187500.02, -187500.02, -187500.02, -178731.19, -187500.02, -187500.02, 0.000, 0.000, 0.000, 14:54:10.134
96, 41159.68, 25159.35, -187500.02, -187500.02, -187500.02, -178646.89, -187500.02, -187500.02, 0.000, 0.000, 0.000, 14:54:10.135
97, 41376.07, 25202.46, -187500.02, -187500.02, -187500.02, -178393.83, -187500.02, -187500.02, 0.000, 0.000, 0.000, 14:54:10.135
98, 41289.01, 25122.00, -187500.02, -187500.02, -187500.02, -178277.06, -187500.02, -187500.02, 0.000, 0.000, 0.000, 14:54:10.135
99, 40833.46, 24988.69, -187500.02, -187500.02, -187500.02, -178600.20, -187500.02, -187500.02, 0.000, 0.000, 0.000, 14:54:10.135
100, 40879.28, 25055.70, -187500.02, -187500.02, -187500.02, -178774.14, -187500.02, -187500.02, 0.016, -0.010, 1.024, 14:54:10.135
101, 41158.52, 25167.66, -187500.02, -187500.02, -187500.02, -178702.70, -187500.02, -187500.02, 0.000, 0.000, 0.000, 14:54:10.136
102, 41371.82, 25198.64, -187500.02, -187500.02, -187500.02, -178425.67, -187500.02, -187500.02, 0.000, 0.000, 0.000, 14:54:10.136
103, 41296.99, 25117.19, -187500.02, -187500.02, -187500.02, -178298.67, -187500.02, -187500.02, 0.000, 0.000, 0.000, 14:54:10.136
104, 40831.11, 24985.76, -187500.02, -187500.02, -187500.02, -178600.53, -187500.02, -187500.02, 0.000, 0.000, 0.000, 14:54:10.136
105, 40883.30, 25073.40, -187500.02, -187500.02, -187500.02, -178809.72, -187500.02, -187500.02, 0.000, 0.000, 0.000, 14:54:10.136
106, 41148.93, 25183.93, -187500.02, -187500.02, -187500.02, -178732.80, -187500.02, -187500.02, 0.000, 0.000, 0.000, 14:54:10.136
107, 41369.37, 25211.34, -187500.02, -187500.02, -187500.02, -178450.84, -187500.02, -187500.02, 0.000, 0.000, 0.000, 14:54:10.137
108, 41300.14, 25130.02, -187500.02, -187500.02, -187500.02, -178326.33, -187500.02, -187500.02, 0.000, 0.000, 0.000, 14:54:10.137
109, 40834.63, 24982.25, -187500.02, -187500.02, -187500.02, -178622.58, -187500.02, -187500.02, 0.000, 0.000, 0.000, 14:54:10.137
110, 40876.55, 25047.54, -187500.02, -187500.02, -187500.02, -178790.34, -187500.02, -187500.02, 0.012, -0.012, 1.032, 14:54:10.137
111, 41147.79, 25156.44, -187500.02, -187500.02, -187500.02, -178689.94, -187500.02, -187500.02, 0.000, 0.000, 0.000, 14:54:10.138
112, 41366.71, 25192.58, -187500.02, -187500.02, -187500.02, -178415.66, -187500.02, -187500.02, 0.000, 0.000, 0.000, 14:54:10.138
113, 41304.05, 25128.37, -187500.02, -187500.02, -187500.02, -178302.91, -187500.02, -187500.02, 0.000, 0.000, 0.000, 14:54:10.138
114, 40842.43, 24994.88, -187500.02, -187500.02, -187500.02, -178599.58, -187500.02, -187500.02, 0.000, 0.000, 0.000, 14:54:10.138
115, 40884.76, 25069.25, -187500.02, -187500.02, -187500.02, -178760.11, -187500.02, -187500.02, 0.000, 0.000, 0.000, 14:54:10.138
116, 41151.53, 25183.53, -187500.02, -187500.02, -187500.02, -178678.94, -187500.02, -187500.02, 0.000, 0.000, 0.000, 14:54:10.138
117, 41364.52, 25216.07, -187500.02, -187500.02, -187500.02, -178398.67, -187500.02, -187500.02, 0.000, 0.000, 0.000, 14:54:10.139
118, 41298.76, 25138.49, -187500.02, -187500.02, -187500.02, -178306.03, -187500.02, -187500.02, 0.000, 0.000, 0.000, 14:54:10.139
119, 40842.58, 25001.72, -187500.02, -187500.02, -187500.02, -178614.86, -187500.02, -187500.02, 0.000, 0.000, 0.000, 14:54:10.139
120, 40893.27, 25081.09, -187500.02, -187500.02, -187500.02, -178787.02, -187500.02, -187500.02, 0.008, -0.016, 1.030, 14:54:10.139
121, 41155.62, 25182.99, -187500.02, -187500.02, -187500.02, -178699.31, -187500.02, -187500.02, 0.000, 0.000, 0.000, 14:54:10.139
122, 41368.23, 25204.74, -187500.02, -187500.02, -187500.02, -178398.36, -187500.02, -187500.02, 0.000, 0.000, 0.000, 14:54:10.139
123, 41301.39, 25137.29, -187500.02, -187500.02, -187500.02, -178303.91, -187500.02, -187500.02, 0.000, 0.000, 0.000, 14:54:10.140
124, 40843.97, 25003.89, -187500.02, -187500.02, -187500.02, -178637.73, -187500.02, -187500.02, 0.000, 0.000, 0.000, 14:54:10.140
125, 40887.42, 25082.90, -187500.02, -187500.02, -187500.02, -178847.20, -187500.02, -187500.02, 0.000, 0.000, 0.000, 14:54:10.140
126, 41149.43, 25188.00, -187500.02, -187500.02, -187500.02, -178747.14, -187500.02, -187500.02, 0.000, 0.000, 0.000, 14:54:10.140
127, 41378.64, 25218.94, -187500.02, -187500.02, -187500.02, -178458.25, -187500.02, -187500.02, 0.000, 0.000, 0.000, 14:54:10.140
128, 41312.75, 25141.42, -187500.02, -187500.02, -187500.02, -178321.19, -187500.02, -187500.02, 0.000, 0.000, 0.000, 14:54:10.140
129, 40843.77, 25006.53, -187500.02, -187500.02, -187500.02, -178628.41, -187500.02, -187500.02, 0.000, 0.000, 0.000, 14:54:10.141
130, 40879.33, 25069.04, -187500.02, -187500.02, -187500.02, -178802.02, -187500.02, -187500.02, 0.010, -0.016, 1.030, 14:54:10.141
131, 41148.13, 25171.48, -187500.02, -187500.02, -187500.02, -178683.70, -187500.02, -187500.02, 0.000, 0.000, 0.000, 14:54:10.141
132, 41370.60, 25215.40, -187500.02, -187500.02, -187500.02, -178408.42, -187500.02, -187500.02, 0.000, 0.000, 0.000, 14:54:10.141
133, 41313.04, 25139.97, -187500.02, -187500.02, -187500.02, -178296.75, -187500.02, -187500.02, 0.000, 0.000, 0.000, 14:54:10.141
134, 40852.98, 24996.94, -187500.02, -187500.02, -187500.02, -178635.53, -187500.02, -187500.02, 0.000, 0.000, 0.000, 14:54:10.142
135, 40880.82, 25063.32, -187500.02, -187500.02, -187500.02, -178799.47, -187500.02, -187500.02, 0.000, 0.000, 0.000, 14:54:10.142
136, 41157.63, 25175.08, -187500.02, -187500.02, -187500.02, -178707.22, -187500.02, -187500.02, 0.000, 0.000, 0.000, 14:54:10.142
137, 41368.85, 25201.35, -187500.02, -187500.02, -187500.02, -178418.08, -187500.02, -187500.02, 0.000, 0.000, 0.000, 14:54:10.142
138, 41301.20, 25130.31, -187500.02, -187500.02, -187500.02, -178277.13, -187500.02, -187500.02, 0.000, 0.000, 0.000, 14:54:10.142
139, 40844.30, 24989.83, -187500.02, -187500.02, -187500.02, -178587.44, -187500.02, -187500.02, 0.000, 0.000, 0.000, 14:54:10.142
140, 40885.81, 25063.08, -187500.02, -187500.02, -187500.02, -178783.55, -187500.02, -187500.02, 0.010, -0.014, 1.030, 14:54:10.143
141, 41163.98, 25171.39, -187500.02, -187500.02, -187500.02, -178698.80, -187500.02, -187500.02, 0.000, 0.000, 0.000, 14:54:10.143
142, 41374.17, 25195.62, -187500.02, -187500.02, -187500.02, -178410.14, -187500.02, -187500.02, 0.000, 0.000, 0.000, 14:54:10.143
143, 41296.70, 25128.79, -187500.02, -187500.02, -187500.02, -178281.70, -187500.02, -187500.02, 0.000, 0.000, 0.000, 14:54:10.143
144, 40833.46, 24986.63, -187500.02, -187500.02, -187500.02, -178611.73, -187500.02, -187500.02, 0.000, 0.000, 0.000, 14:54:10.143
145, 40874.37, 25051.92, -187500.02, -187500.02, -187500.02, -178787.44, -187500.02, -187500.02, 0.000, 0.000, 0.000, 14:54:10.143
146, 41152.64, 25159.41, -187500.02, -187500.02, -187500.02, -178690.72, -187500.02, -187500.02, 0.000, 0.000, 0.000, 14:54:10.144
147, 41377.17, 25193.75, -187500.02, -187500.02, -187500.02, -178399.08, -187500.02, -187500.02, 0.000, 0.000, 0.000, 14:54:10.144
148, 41306.92, 25122.49, -187500.02, -187500.02, -187500.02, -178293.41, -187500.02, -187500.02, 0.000, 0.000, 0.000, 14:54:10.144
149, 40850.41, 24993.00, -187500.02, -187500.02, -187500.02, -178638.36, -187500.02, -187500.02, 0.000, 0.000, 0.000, 14:54:10.144
150, 40886.12, 25053.80, -187500.02, -187500.02, -187500.02, -178800.81, -187500.02, -187500.02, 0.010, -0.012, 1.026, 14:54:10.144
151, 41158.03, 25168.73, -187500.02, -187500.02, -187500.02, -178674.77, -187500.02, -187500.02, 0.000, 0.000, 0.000, 14:54:10.144
152, 41376.63, 25209.95, -187500.02, -187500.02, -187500.02, -178421.86, -187500.02, -187500.02, 0.000, 0.000, 0.000, 14:54:10.145
153, 41310.22, 25128.66, -187500.02, -187500.02, -187500.02, -178331.69, -187500.02, -187500.02, 0.000, 0.000, 0.000, 14:54:10.145
154, 40847.25, 24986.19, -187500.02, -187500.02, -187500.02, -178661.08, -187500.02, -187500.02, 0.000, 0.000, 0.000, 14:54:10.145
155, 40872.04, 25048.17, -187500.02, -187500.02, -187500.02, -178785.86, -187500.02, -187500.02, 0.000, 0.000, 0.000, 14:54:10.145
156, 41153.38, 25162.34, -187500.02, -187500.02, -187500.02, -178717.17, -187500.02, -187500.02, 0.000, 0.000, 0.000, 14:54:10.145
157, 41370.42, 25192.05, -187500.02, -187500.02, -187500.02, -178454.20, -187500.02, -187500.02, 0.000, 0.000, 0.000, 14:54:10.145
158, 41302.40, 25113.77, -187500.02, -187500.02, -187500.02, -178314.70, -187500.02, -187500.02, 0.000, 0.000, 0.000, 14:54:10.146
159, 40843.65, 24978.63, -187500.02, -187500.02, -187500.02, -178641.22, -187500.02, -187500.02, 0.000, 0.000, 0.000, 14:54:10.146
160, 40889.27, 25067.62, -187500.02, -187500.02, -187500.02, -178831.77, -187500.02, -187500.02, 0.008, -0.012, 1.022, 14:54:10.146
161, 41156.82, 25175.62, -187500.02, -187500.02, -187500.02, -178733.45, -187500.02, -187500.02, 0.000, 0.000, 0.000, 14:54:10.146
162, 41363.60, 25196.27, -187500.02, -187500.02, -187500.02, -178449.50, -187500.02, -187500.02, 0.000, 0.000, 0.000, 14:54:10.146
163, 41307.03, 25127.07, -187500.02, -187500.02, -187500.02, -178359.58, -187500.02, -187500.02, 0.000, 0.000, 0.000, 14:54:10.146
164, 40835.77, 24974.74, -187500.02, -187500.02, -187500.02, -178656.84, -187500.02, -187500.02, 0.000, 0.000, 0.000, 14:54:10.147
165, 40867.68, 25035.61, -187500.02, -187500.02, -187500.02, -178776.84, -187500.02, -187500.02, 0.000, 0.000, 0.000, 14:54:10.147
166, 41147.59, 25153.40, -187500.02, -187500.02, -187500.02, -178683.95, -187500.02, -187500.02, 0.000, 0.000, 0.000, 14:54:10.147
167, 41360.25, 25186.59, -187500.02, -187500.02, -187500.02, -178413.55, -187500.02, -187500.02, 0.000, 0.000, 0.000, 14:54:10.147
168, 41300.08, 25122.80, -187500.02, -187500.02, -187500.02, -178296.66, -187500.02, -187500.02, 0.000, 0.000, 0.000, 14:54:10.147
169, 40847.43, 24987.86, -187500.02, -187500.02, -187500.02, -178654.58, -187500.02, -187500.02, 0.008, -0.016, 1.030, 14:54:10.147
170, 40896.49, 25060.48, -187500.02, -187500.02, -187500.02, -178875.13, -187500.02, -187500.02, 0.000, 0.000, 0.000, 14:54:10.148
171, 41169.61, 25171.28, -187500.02, -187500.02, -187500.02, -178788.73, -187500.02, -187500.02, 0.000, 0.000, 0.000, 14:54:10.148
172, 41375.54, 25188.38, -187500.02, -187500.02, -187500.02, -178484.97, -187500.02, -187500.02, 0.000, 0.000, 0.000, 14:54:10.148
173, 41302.25, 25104.38, -187500.02, -187500.02, -187500.02, -178362.69, -187500.02, -187500.02, 0.000, 0.000, 0.000, 14:54:10.148
174, 40839.79, 24971.08, -187500.02, -187500.02, -187500.02, -178668.86, -187500.02, -187500.02, 0.000, 0.000, 0.000, 14:54:10.148
175, 40869.85, 25043.34, -187500.02, -187500.02, -187500.02, -178841.38, -187500.02, -187500.02, 0.000, 0.000, 0.000, 14:54:10.149
176, 41142.59, 25161.27, -187500.02, -187500.02, -187500.02, -178751.97, -187500.02, -187500.02, 0.000, 0.000, 0.000, 14:54:10.149
177, 41368.47, 25200.72, -187500.02, -187500.02, -187500.02, -178478.41, -187500.02, -187500.02, 0.000, 0.000, 0.000, 14:54:10.149
178, 41304.93, 25112.21, -187500.02, -187500.02, -187500.02, -178341.61, -187500.02, -187500.02, 0.000, 0.000, 0.000, 14:54:10.149
179, 40839.95, 24973.07, -187500.02, -187500.02, -187500.02, -178632.50, -187500.02, -187500.02, 0.004, -0.018, 1.026, 14:54:10.149
180, 40867.44, 25046.34, -187500.02, -187500.02, -187500.02, -178806.13, -187500.02, -187500.02, 0.000, 0.000, 0.000, 14:54:10.149
181, 41141.89, 25171.06, -187500.02, -187500.02, -187500.02, -178722.80, -187500.02, -187500.02, 0.000, 0.000, 0.000, 14:54:10.149
182, 41362.21, 25208.50, -187500.02, -187500.02, -187500.02, -178474.09, -187500.02, -187500.02, 0.000, 0.000, 0.000, 14:54:10.149
183, 41299.74, 25126.80, -187500.02, -187500.02, -187500.02, -178367.47, -187500.02, -187500.02, 0.000, 0.000, 0.000, 14:54:10.150
184, 40832.84, 24984.13, -187500.02, -187500.02, -187500.02, -178683.02, -187500.02, -187500.02, 0.000, 0.000, 0.000, 14:54:10.150
185, 40867.32, 25050.56, -187500.02, -187500.02, -187500.02, -178831.19, -187500.02, -187500.02, 0.000, 0.000, 0.000, 14:54:10.150
186, 41139.82, 25158.25, -187500.02, -187500.02, -187500.02, -178735.98, -187500.02, -187500.02, 0.000, 0.000, 0.000, 14:54:10.150
187, 41354.26, 25184.85, -187500.02, -187500.02, -187500.02, -178455.03, -187500.02, -187500.02, 0.000, 0.000, 0.000, 14:54:10.150
188, 41297.59, 25122.15, -187500.02, -187500.02, -187500.02, -178328.97, -187500.02, -187500.02, 0.000, 0.000, 0.000, 14:54:10.150
189, 40839.39, 24989.43, -187500.02, -187500.02, -187500.02, -178621.88, -187500.02, -187500.02, 0.004, -0.018, 1.028, 14:54:10.151
190, 40874.41, 25056.10, -187500.02, -187500.02, -187500.02, -178801.48, -187500.02, -187500.02, 0.000, 0.000, 0.000, 14:54:10.151
191, 41143.46, 25150.09, -187500.02, -187500.02, -187500.02, -178685.53, -187500.02, -187500.02, 0.000, 0.000, 0.000, 14:54:10.151
192, 41363.11, 25192.96, -187500.02, -187500.02, -187500.02, -178426.39, -187500.02, -187500.02, 0.000, 0.000, 0.000, 14:54:10.151
193, 41306.34, 25121.44, -187500.02, -187500.02, -187500.02, -178324.27, -187500.02, -187500.02, 0.000, 0.000, 0.000, 14:54:10.151
194, 40848.93, 24988.00, -187500.02, -187500.02, -187500.02, -178654.20, -187500.02, -187500.02, 0.000, 0.000, 0.000, 14:54:10.151
195, 40894.53, 25058.09, -187500.02, -187500.02, -187500.02, -178861.25, -187500.02, -187500.02, 0.000, 0.000, 0.000, 14:54:10.151
196, 41161.65, 25167.82, -187500.02, -187500.02, -187500.02, -178761.00, -187500.02, -187500.02, 0.000, 0.000, 0.000, 14:54:10.151
197, 41366.46, 25198.82, -187500.02, -187500.02, -187500.02, -178458.59, -187500.02, -187500.02, 0.000, 0.000, 0.000, 14:54:10.152
198, 41302.67, 25122.98, -187500.02, -187500.02, -187500.02, -178339.48, -187500.02, -187500.02, 0.000, 0.000, 0.000, 14:54:10.152
199, 40839.12, 24979.57, -187500.02, -187500.02, -187500.02, -178665.67, -187500.02, -187500.02, 0.004, -0.018, 1.032, 14:54:10.152
200, 40869.18, 25043.92, -187500.02, -187500.02, -187500.02, -178847.67, -187500.02, -187500.02, 0.000, 0.000, 0.000, 14:54:10.152
201, 41152.53, 25159.30, -187500.02, -187500.02, -187500.02, -178777.63, -187500.02, -187500.02, 0.000, 0.000, 0.000, 14:54:10.152
202, 41369.37, 25196.21, -187500.02, -187500.02, -187500.02, -178510.34, -187500.02, -187500.02, 0.000, 0.000, 0.000, 14:54:10.152
203, 41300.77, 25124.88, -187500.02, -187500.02, -187500.02, -178354.86, -187500.02, -187500.02, 0.000, 0.000, 0.000, 14:54:10.152
204, 40835.61, 24987.06, -187500.02, -187500.02, -187500.02, -178642.36, -187500.02, -187500.02, 0.000, 0.000, 0.000, 14:54:10.152
205, 40866.12, 25057.87, -187500.02, -187500.02, -187500.02, -178821.59, -187500.02, -187500.02, 0.000, 0.000, 0.000, 14:54:10.153
206, 41140.20, 25164.87, -187500.02, -187500.02, -187500.02, -178716.98, -187500.02, -187500.02, 0.000, 0.000, 0.000, 14:54:10.153
207, 41361.43, 25197.12, -187500.02, -187500.02, -187500.02, -178468.89, -187500.02, -187500.02, 0.000, 0.000, 0.000, 14:54:10.153
208, 41304.66, 25120.81, -187500.02, -187500.02, -187500.02, -178334.34, -187500.02, -187500.02, 0.000, 0.000, 0.000, 14:54:10.153
209, 40837.20, 24986.66, -187500.02, -187500.02, -187500.02, -178647.73, -187500.02, -187500.02, 0.000, -0.014, 1.026, 14:54:10.614
210, 40857.82, 25055.88, -187500.02, -187500.02, -187500.02, -178806.50, -187500.02, -187500.02, 0.000, 0.000, 0.000, 14:54:10.614
211, 41134.45, 25166.03, -187500.02, -187500.02, -187500.02, -178701.00, -187500.02, -187500.02, 0.000, 0.000, 0.000, 14:54:10.614
212, 41343.59, 25187.73, -187500.02, -187500.02, -187500.02, -178423.94, -187500.02, -187500.02, 0.000, 0.000, 0.000, 14:54:10.614
213, 41294.38, 25128.21, -187500.02, -187500.02, -187500.02, -178293.73, -187500.02, -187500.02, 0.000, 0.000, 0.000, 14:54:10.614
214, 40843.81, 25005.66, -187500.02, -187500.02, -187500.02, -178643.63, -187500.02, -187500.02, 0.000, 0.000, 0.000, 14:54:10.614
215, 40868.53, 25067.86, -187500.02, -187500.02, -187500.02, -178825.91, -187500.02, -187500.02, 0.000, 0.000, 0.000, 14:54:10.615
216, 41134.36, 25169.74, -187500.02, -187500.02, -187500.02, -178729.61, -187500.02, -187500.02, 0.000, 0.000, 0.000, 14:54:10.615
217, 41342.99, 25191.09, -187500.02, -187500.02, -187500.02, -178454.17, -187500.02, -187500.02, 0.000, 0.000, 0.000, 14:54:10.615
218, 41284.68, 25119.56, -187500.02, -187500.02, -187500.02, -178331.23, -187500.02, -187500.02, 0.000, 0.000, 0.000, 14:54:10.615
219, 40815.27, 24982.12, -187500.02, -187500.02, -187500.02, -178632.47, -187500.02, -187500.02, 0.004, -0.012, 1.030, 14:54:10.615
220, 40849.58, 25051.86, -187500.02, -187500.02, -187500.02, -178801.52, -187500.02, -187500.02, 0.000, 0.000, 0.000, 14:54:10.616
221, 41125.33, 25160.33, -187500.02, -187500.02, -187500.02, -178735.39, -187500.02, -187500.02, 0.000, 0.000, 0.000, 14:54:10.616
222, 41332.69, 25188.29, -187500.02, -187500.02, -187500.02, -178460.28, -187500.02, -187500.02, 0.000, 0.000, 0.000, 14:54:10.616
223, 41282.44, 25117.59, -187500.02, -187500.02, -187500.02, -178337.00, -187500.02, -187500.02, 0.000, 0.000, 0.000, 14:54:10.616
224, 40806.48, 24965.89, -187500.02, -187500.02, -187500.02, -178632.03, -187500.02, -187500.02, 0.000, 0.000, 0.000, 14:54:10.616
225, 40839.96, 25035.70, -187500.02, -187500.02, -187500.02, -178811.25, -187500.02, -187500.02, 0.000, 0.000, 0.000, 14:54:10.616
226, 41112.81, 25147.12, -187500.02, -187500.02, -187500.02, -178717.97, -187500.02, -187500.02, 0.000, 0.000, 0.000, 14:54:10.617
227, 41330.34, 25177.59, -187500.02, -187500.02, -187500.02, -178416.20, -187500.02, -187500.02, 0.000, 0.000, 0.000, 14:54:10.617
228, 41283.31, 25112.77, -187500.02, -187500.02, -187500.02, -178256.42, -187500.02, -187500.02, 0.000, 0.000, 0.000, 14:54:10.617
229, 40824.30, 24974.79, -187500.02, -187500.02, -187500.02, -178574.20, -187500.02, -187500.02, 0.006, -0.010, 1.028, 14:54:10.617
230, 40854.79, 25041.93, -187500.02, -187500.02, -187500.02, -178779.08, -187500.02, -187500.02, 0.000, 0.000, 0.000, 14:54:10.617
231, 41134.67, 25155.05, -187500.02, -187500.02, -187500.02, -178708.03, -187500.02, -187500.02, 0.000, 0.000, 0.000, 14:54:10.617
232, 41342.63, 25181.47, -187500.02, -187500.02, -187500.02, -178450.00, -187500.02, -187500.02, 0.000, 0.000, 0.000, 14:54:10.617
233, 41287.27, 25105.54, -187500.02, -187500.02, -187500.02, -178318.64, -187500.02, -187500.02, 0.000, 0.000, 0.000, 14:54:10.617
234, 40832.84, 24975.53, -187500.02, -187500.02, -187500.02, -178648.48, -187500.02, -187500.02, 0.000, 0.000, 0.000, 14:54:10.617
235, 40869.25, 25055.86, -187500.02, -187500.02, -187500.02, -178865.97, -187500.02, -187500.02, 0.000, 0.000, 0.000, 14:54:10.617
236, 41133.98, 25165.96, -187500.02, -187500.02, -187500.02, -178772.27, -187500.02, -187500.02, 0.000, 0.000, 0.000, 14:54:10.618
237, 41351.51, 25197.03, -187500.02, -187500.02, -187500.02, -178498.41, -187500.02, -187500.02, 0.000, 0.000, 0.000, 14:54:10.618
238, 41296.37, 25118.98, -187500.02, -187500.02, -187500.02, -178368.88, -187500.02, -187500.02, 0.000, 0.000, 0.000, 14:54:10.618
239, 40826.78, 24970.74, -187500.02, -187500.02, -187500.02, -178644.34, -187500.02, -187500.02, 0.006, -0.012, 1.036, 14:54:10.618
240, 40856.66, 25033.57, -187500.02, -187500.02, -187500.02, -178831.09, -187500.02, -187500.02, 0.000, 0.000, 0.000, 14:54:10.618
241, 41126.63, 25137.44, -187500.02, -187500.02, -187500.02, -178727.94, -187500.02, -187500.02, 0.000, 0.000, 0.000, 14:54:10.618
242, 41339.04, 25169.20, -187500.02, -187500.02, -187500.02, -178439.78, -187500.02, -187500.02, 0.000, 0.000, 0.000, 14:54:10.618
243, 41305.84, 25114.82, -187500.02, -187500.02, -187500.02, -178361.59, -187500.02, -187500.02, 0.000, 0.000, 0.000, 14:54:10.618
244, 40835.16, 24974.23, -187500.02, -187500.02, -187500.02, -178688.28, -187500.02, -187500.02, 0.000, 0.000, 0.000, 14:54:10.619
245, 40860.30, 25039.38, -187500.02, -187500.02, -187500.02, -178855.44, -187500.02, -187500.02, 0.000, 0.000, 0.000, 14:54:10.619
246, 41140.80, 25151.75, -187500.02, -187500.02, -187500.02, -178763.25, -187500.02, -187500.02, 0.000, 0.000, 0.000, 14:54:10.619
247, 41357.95, 25180.00, -187500.02, -187500.02, -187500.02, -178479.55, -187500.02, -187500.02, 0.000, 0.000, 0.000, 14:54:10.619
248, 41298.71, 25110.08, -187500.02, -187500.02, -187500.02, -178332.89, -187500.02, -187500.02, 0.000, 0.000, 0.000, 14:54:10.619
249, 40836.61, 24970.59, -187500.02, -187500.02, -187500.02, -178668.16, -187500.02, -187500.02, 0.002, -0.018, 1.028, 14:54:10.619
250, 40858.74, 25029.37, -187500.02, -187500.02, -187500.02, -178851.23, -187500.02, -187500.02, 0.000, 0.000, 0.000, 14:54:10.619
251, 41132.59, 25144.55, -187500.02, -187500.02, -187500.02, -178753.83, -187500.02, -187500.02, 0.000, 0.000, 0.000, 14:54:10.619
252, 41355.73, 25183.66, -187500.02, -187500.02, -187500.02, -178494.63, -187500.02, -187500.02, 0.000, 0.000, 0.000, 14:54:10.619
253, 41292.59, 25104.49, -187500.02, -187500.02, -187500.02, -178352.14, -187500.02, -187500.02, 0.000, 0.000, 0.000, 14:54:10.620
254, 40826.53, 24965.18, -187500.02, -187500.02, -187500.02, -178683.06, -187500.02, -187500.02, 0.000, 0.000, 0.000, 14:54:10.620
255, 40858.05, 25025.53, -187500.02, -187500.02, -187500.02, -178840.03, -187500.02, -187500.02, 0.000, 0.000, 0.000, 14:54:10.620
0, 41139.57, 25144.75, -187500.02, -187500.02, -187500.02, -178742.42, -187500.02, -187500.02, 0.000, 0.000, 0.000, 14:54:10.620
1, 41346.28, 25176.04, -187500.02, -187500.02, -187500.02, -178487.75, -187500.02, -187500.02, 0.000, 0.000, 0.000, 14:54:10.620
2, 41294.20, 25099.53, -187500.02, -187500.02, -187500.02, -178337.80, -187500.02, -187500.02, 0.000, 0.000, 0.000, 14:54:10.620
3, 40840.26, 24971.30, -187500.02, -187500.02, -187500.02, -178659.75, -187500.02, -187500.02, 0.002, -0.016, 1.026, 14:54:10.620
4, 40863.48, 25043.97, -187500.02, -187500.02, -187500.02, -178855.44, -187500.02, -187500.02, 0.000, 0.000, 0.000, 14:54:10.620
5, 41123.03, 25147.23, -187500.02, -187500.02, -187500.02, -178748.73, -187500.02, -187500.02, 0.000, 0.000, 0.000, 14:54:10.621
6, 41336.18, 25179.93, -187500.02, -187500.02, -187500.02, -178462.45, -187500.02, -187500.02, 0.000, 0.000, 0.000, 14:54:10.621
7, 41284.74, 25103.76, -187500.02, -187500.02, -187500.02, -178328.97, -187500.02, -187500.02, 0.000, 0.000, 0.000, 14:54:10.621
8, 40817.10, 24955.10, -187500.02, -187500.02, -187500.02, -178640.75, -187500.02, -187500.02, 0.000, 0.000, 0.000, 14:54:10.621
9, 40845.15, 25031.49, -187500.02, -187500.02, -187500.02, -178845.52, -187500.02, -187500.02, 0.000, 0.000, 0.000, 14:54:10.621
10, 41118.43, 25140.01, -187500.02, -187500.02, -187500.02, -178760.33, -187500.02, -187500.02, 0.000, 0.000, 0.000, 14:54:10.621
11, 41340.27, 25164.64, -187500.02, -187500.02, -187500.02, -178472.58, -187500.02, -187500.02, 0.000, 0.000, 0.000, 14:54:10.621
12, 41289.88, 25096.25, -187500.02, -187500.02, -187500.02, -178349.66, -187500.02, -187500.02, 0.000, 0.000, 0.000, 14:54:10.621
13, 40818.44, 24954.80, -187500.02, -187500.02, -187500.02, -178656.39, -187500.02, -187500.02, 0.006, -0.016, 1.028, 14:54:10.621
14, 40844.84, 25033.71, -187500.02, -187500.02, -187500.02, -178871.06, -187500.02, -187500.02, 0.000, 0.000, 0.000, 14:54:10.622
15, 41128.37, 25151.88, -187500.02, -187500.02, -187500.02, -178808.97, -187500.02, -187500.02, 0.000, 0.000, 0.000, 14:54:10.622
16, 41344.38, 25178.08, -187500.02, -187500.02, -187500.02, -178528.19, -187500.02, -187500.02, 0.000, 0.000, 0.000, 14:54:10.622
17, 41294.11, 25104.56, -187500.02, -187500.02, -187500.02, -178409.88, -187500.02, -187500.02, 0.000, 0.000, 0.000, 14:54:10.622
18, 40828.77, 24966.65, -187500.02, -187500.02, -187500.02, -178718.31, -187500.02, -187500.02, 0.000, 0.000, 0.000, 14:54:10.622
19, 40840.48, 25023.34, -187500.02, -187500.02, -187500.02, -178877.88, -187500.02, -187500.02, 0.000, 0.000, 0.000, 14:54:10.623
20, 41109.68, 25130.49, -187500.02, -187500.02, -187500.02, -178755.98, -187500.02, -187500.02, 0.000, 0.000, 0.000, 14:54:10.623
21, 41332.73, 25172.71, -187500.02, -187500.02, -187500.02, -178492.80, -187500.02, -187500.02, 0.000, 0.000, 0.000, 14:54:10.623
22, 41286.49, 25106.13, -187500.02, -187500.02, -187500.02, -178352.70, -187500.02, -187500.02, 0.000, 0.000, 0.000, 14:54:10.623
23, 40833.42, 24981.07, -187500.02, -187500.02, -187500.02, -178677.31, -187500.02, -187500.02, 0.004, -0.016, 1.030, 14:54:10.623
24, 40866.52, 25049.49, -187500.02, -187500.02, -187500.02, -178909.97, -187500.02, -187500.02, 0.000, 0.000, 0.000, 14:54:10.623
25, 41132.53, 25156.20, -187500.02, -187500.02, -187500.02, -178822.28, -187500.02, -187500.02, 0.000, 0.000, 0.000, 14:54:10.624
26, 41335.50, 25183.66, -187500.02, -187500.02, -187500.02, -178555.09, -187500.02, -187500.02, 0.000, 0.000, 0.000, 14:54:10.624
27, 41277.99, 25103.20, -187500.02, -187500.02, -187500.02, -178424.14, -187500.02, -187500.02, 0.000, 0.000, 0.000, 14:54:10.624
28, 40813.37, 24966.99, -187500.02, -187500.02, -187500.02, -178705.47, -187500.02, -187500.02, 0.000, 0.000, 0.000, 14:54:10.624
29, 40852.08, 25044.97, -187500.02, -187500.02, -187500.02, -178910.94, -187500.02, -187500.02, 0.000, 0.000, 0.000, 14:54:10.624
30, 41128.26, 25151.52, -187500.02, -187500.02, -187500.02, -178829.39, -187500.02, -187500.02, 0.000, 0.000, 0.000, 14:54:10.624
31, 41343.37, 25184.69, -187500.02, -187500.02, -187500.02, -178548.88, -187500.02, -187500.02, 0.000, 0.000, 0.000, 14:54:10.625
32, 41293.53, 25117.24, -187500.02, -187500.02, -187500.02, -178405.22, -187500.02, -187500.02, 0.000, 0.000, 0.000, 14:54:10.625
33, 40822.84, 24973.25, -187500.02, -187500.02, -187500.02, -178678.47, -187500.02, -187500.02, 0.008, -0.016, 1.028, 14:54:10.625
34, 40838.91, 25030.00, -187500.02, -187500.02, -187500.02, -178835.27, -187500.02, -187500.02, 0.000, 0.000, 0.000, 14:54:10.625
35, 41119.23, 25145.62, -187500.02, -187500.02, -187500.02, -178754.27, -187500.02, -187500.02, 0.000, 0.000, 0.000, 14:54:10.625
36, 41337.38, 25187.76, -187500.02, -187500.02, -187500.02, -178512.61, -187500.02, -187500.02, 0.000, 0.000, 0.000, 14:54:10.625
37, 41286.00, 25110.46, -187500.02, -187500.02, -187500.02, -178387.75, -187500.02, -187500.02, 0.000, 0.000, 0.000, 14:54:10.625
38, 40812.29, 24963.01, -187500.02, -187500.02, -187500.02, -178687.84, -187500.02, -187500.02, 0.000, 0.000, 0.000, 14:54:10.626
39, 40840.77, 25032.19, -187500.02, -187500.02, -187500.02, -178855.86, -187500.02, -187500.02, 0.000, 0.000, 0.000, 14:54:10.626
40, 41120.75, 25154.50, -187500.02, -187500.02, -187500.02, -178768.91, -187500.02, -187500.02, 0.000, 0.000, 0.000, 14:54:10.626
41, 41329.45, 25178.08, -187500.02, -187500.02, -187500.02, -178465.84, -187500.02, -187500.02, 0.000, 0.000, 0.000, 14:54:10.626
42, 41292.68, 25115.40, -187500.02, -187500.02, -187500.02, -178344.39, -187500.02, -187500.02, 0.008, -0.020, 1.024, 14:54:10.626
43, 40836.01, 24982.68, -187500.02, -187500.02, -187500.02, -178694.92, -187500.02, -187500.02, 0.000, 0.000, 0.000, 14:54:10.626
44, 40858.90, 25053.49, -187500.02, -187500.02, -187500.02, -178909.30, -187500.02, -187500.02, 0.000, 0.000, 0.000, 14:54:10.626
45, 41129.40, 25161.71, -187500.02, -187500.02, -187500.02, -178805.77, -187500.02, -187500.02, 0.000, 0.000, 0.000, 14:54:10.626
46, 41348.85, 25195.91, -187500.02, -187500.02, -187500.02, -178552.84, -187500.02, -187500.02, 0.000, 0.000, 0.000, 14:54:10.626
47, 41295.43, 25121.01, -187500.02, -187500.02, -187500.02, -178440.03, -187500.02, -187500.02, 0.000, 0.000, 0.000, 14:54:10.627
48, 40827.25, 24976.26, -187500.02, -187500.02, -187500.02, -178746.83, -187500.02, -187500.02, 0.000, 0.000, 0.000, 14:54:10.627
49, 40852.15, 25041.29, -187500.02, -187500.02, -187500.02, -178950.47, -187500.02, -187500.02, 0.000, 0.000, 0.000, 14:54:10.627
50, 41127.79, 25156.75, -187500.02, -187500.02, -187500.02, -178870.08, -187500.02, -187500.02, 0.000, 0.000, 0.000, 14:54:10.627
51, 41340.85, 25184.74, -187500.02, -187500.02, -187500.02, -178612.03, -187500.02, -187500.02, 0.000, 0.000, 0.000, 14:54:10.627
52, 41287.92, 25115.20, -187500.02, -187500.02, -187500.02, -178456.23, -187500.02, -187500.02, 0.006, -0.022, 1.030, 14:54:10.627
53, 40831.25, 24973.49, -187500.02, -187500.02, -187500.02, -178732.91, -187500.02, -187500.02, 0.000, 0.000, 0.000, 14:54:10.627
54, 40850.02, 25031.18, -187500.02, -187500.02, -187500.02, -178891.27, -187500.02, -187500.02, 0.000, 0.000, 0.000, 14:54:10.627
55, 41127.86, 25147.12, -187500.02, -187500.02, -187500.02, -178799.78, -187500.02, -187500.02, 0.000, 0.000, 0.000, 14:54:10.628
56, 41344.63, 25184.96, -187500.02, -187500.02, -187500.02, -178510.53, -187500.02, -187500.02, 0.000, 0.000, 0.000, 14:54:10.628
57, 41299.81, 25121.35, -187500.02, -187500.02, -187500.02, -178403.61, -187500.02, -187500.02, 0.000, 0.000, 0.000, 14:54:10.628
58, 40831.11, 24970.68, -187500.02, -187500.02, -187500.02, -178719.48, -187500.02, -187500.02, 0.000, 0.000, 0.000, 14:54:10.628
59, 40841.84, 25028.05, -187500.02, -187500.02, -187500.02, -178873.56, -187500.02, -187500.02, 0.000, 0.000, 0.000, 14:54:10.628
60, 41118.25, 25145.91, -187500.02, -187500.02, -187500.02, -178795.23, -187500.02, -187500.02, 0.000, 0.000, 0.000, 14:54:10.628
61, 41337.09, 25170.75, -187500.02, -187500.02, -187500.02, -178530.86, -187500.02, -187500.02, 0.000, 0.000, 0.000, 14:54:10.628
62, 41277.97, 25083.06, -187500.02, -187500.02, -187500.02, -178372.75, -187500.02, -187500.02, 0.004, -0.016, 1.028, 14:54:10.628
63, 40825.55, 24951.74, -187500.02, -187500.02, -187500.02, -178693.05, -187500.02, -187500.02, 0.000, 0.000, 0.000, 14:54:10.628
64, 40843.25, 25021.55, -187500.02, -187500.02, -187500.02, -178888.27, -187500.02, -187500.02, 0.000, 0.000, 0.000, 14:54:10.629
65, 41104.39, 25130.11, -187500.02, -187500.02, -187500.02, -178780.41, -187500.02, -187500.02, 0.000, 0.000, 0.000, 14:54:10.629
66, 41319.59, 25168.00, -187500.02, -187500.02, -187500.02, -178481.89, -187500.02, -187500.02, 0.000, 0.000, 0.000, 14:54:10.629
67, 41287.61, 25101.99, -187500.02, -187500.02, -187500.02, -178369.48, -187500.02, -187500.02, 0.000, 0.000, 0.000, 14:54:10.629
68, 40823.07, 24956.19, -187500.02, -187500.02, -187500.02, -178670.83, -187500.02, -187500.02, 0.000, 0.000, 0.000, 14:54:10.629
69, 40845.78, 25024.01, -187500.02, -187500.02, -187500.02, -178888.81, -187500.02, -187500.02, 0.000, 0.000, 0.000, 14:54:10.629
70, 41116.12, 25129.53, -187500.02, -187500.02, -187500.02, -178815.00, -187500.02, -187500.02, 0.000, 0.000, 0.000, 14:54:10.629
71, 41338.57, 25174.19, -187500.02, -187500.02, -187500.02, -178545.27, -187500.02, -187500.02, 0.000, 0.000, 0.000, 14:54:10.629
72, 41295.59, 25104.38, -187500.02, -187500.02, -187500.02, -178397.67, -187500.02, -187500.02, 0.004, -0.018, 1.030, 14:54:10.630
73, 40820.41, 24966.63, -187500.02, -187500.02, -187500.02, -178685.67, -187500.02, -187500.02, 0.000, 0.000, 0.000, 14:54:11.095
74, 40842.40, 25031.14, -187500.02, -187500.02, -187500.02, -178875.39, -187500.02, -187500.02, 0.000, 0.000, 0.000, 14:54:11.096
75, 41119.25, 25140.04, -187500.02, -187500.02, -187500.02, -178815.48, -187500.02, -187500.02, 0.000, 0.000, 0.000, 14:54:11.096
76, 41331.04, 25162.77, -187500.02, -187500.02, -187500.02, -178561.70, -187500.02, -187500.02, 0.000, 0.000, 0.000, 14:54:11.096
77, 41286.64, 25098.06, -187500.02, -187500.02, -187500.02, -178424.14, -187500.02, -187500.02, 0.000, 0.000, 0.000, 14:54:11.096
78, 40818.11, 24950.85, -187500.02, -187500.02, -187500.02, -178713.30, -187500.02, -187500.02, 0.000, 0.000, 0.000, 14:54:11.096
79, 40840.86, 25020.32, -187500.02, -187500.02, -187500.02, -178904.34, -187500.02, -187500.02, 0.000, 0.000, 0.000, 14:54:11.097
80, 41127.79, 25142.89, -187500.02, -187500.02, -187500.02, -178812.91, -187500.02, -187500.02, 0.000, 0.000, 0.000, 14:54:11.097
81, 41335.95, 25163.59, -187500.02, -187500.02, -187500.02, -178548.98, -187500.02, -187500.02, 0.000, 0.000, 0.000, 14:54:11.097
82, 41287.11, 25089.27, -187500.02, -187500.02, -187500.02, -178394.05, -187500.02, -187500.02, 0.006, -0.016, 1.024, 14:54:11.097
83, 40823.20, 24952.55, -187500.02, -187500.02, -187500.02, -178724.67, -187500.02, -187500.02, 0.000, 0.000, 0.000, 14:54:11.097
84, 40843.48, 25016.05, -187500.02, -187500.02, -187500.02, -178898.33, -187500.02, -187500.02, 0.000, 0.000, 0.000, 14:54:11.097
85, 41127.07, 25130.38, -187500.02, -187500.02, -187500.02, -178821.45, -187500.02, -187500.02, 0.000, 0.000, 0.000, 14:54:11.098
86, 41342.52, 25162.45, -187500.02, -187500.02, -187500.02, -178549.28, -187500.02, -187500.02, 0.000, 0.000, 0.000, 14:54:11.098
87, 41299.45, 25096.63, -187500.02, -187500.02, -187500.02, -178405.38, -187500.02, -187500.02, 0.000, 0.000, 0.000, 14:54:11.098
88, 40829.46, 24954.47, -187500.02, -187500.02, -187500.02, -178720.31, -187500.02, -187500.02, 0.000, 0.000, 0.000, 14:54:11.098
89, 40840.79, 25018.44, -187500.02, -187500.02, -187500.02, -178891.42, -187500.02, -187500.02, 0.000, 0.000, 0.000, 14:54:11.098
90, 41123.21, 25142.34, -187500.02, -187500.02, -187500.02, -178818.55, -187500.02, -187500.02, 0.000, 0.000, 0.000, 14:54:11.098
91, 41331.32, 25161.65, -187500.02, -187500.02, -187500.02, -178508.53, -187500.02, -187500.02, 0.000, 0.000, 0.000, 14:54:11.099
92, 41293.82, 25093.59, -187500.02, -187500.02, -187500.02, -178353.89, -187500.02, -187500.02, 0.008, -0.018, 1.022, 14:54:11.099
93, 40844.84, 24959.70, -187500.02, -187500.02, -187500.02, -178702.45, -187500.02, -187500.02, 0.000, 0.000, 0.000, 14:54:11.099
94, 40875.21, 25036.81, -187500.02, -187500.02, -187500.02, -178952.83, -187500.02, -187500.02, 0.000, 0.000, 0.000, 14:54:11.099
95, 41142.09, 25148.91, -187500.02, -187500.02, -187500.02, -178896.19, -187500.02, -187500.02, 0.000, 0.000, 0.000, 14:54:11.099
96, 41345.94, 25174.05, -187500.02, -187500.02, -187500.02, -178599.75, -187500.02, -187500.02, 0.000, 0.000, 0.000, 14:54:11.100
97, 41305.11, 25105.95, -187500.02, -187500.02, -187500.02, -178454.73, -187500.02, -187500.02, 0.000, 0.000, 0.000, 14:54:11.100
98, 40837.66, 24962.25, -187500.02, -187500.02, -187500.02, -178727.05, -187500.02, -187500.02, 0.000, 0.000, 0.000, 14:54:11.100
99, 40858.18, 25026.24, -187500.02, -187500.02, -187500.02, -178920.36, -187500.02, -187500.02, 0.000, 0.000, 0.000, 14:54:11.100
100, 41138.86, 25138.04, -187500.02, -187500.02, -187500.02, -178845.89, -187500.02, -187500.02, 0.000, 0.000, 0.000, 14:54:11.100
101, 41351.38, 25169.34, -187500.02, -187500.02, -187500.02, -178569.17, -187500.02, -187500.02, 0.000, 0.000, 0.000, 14:54:11.101
102, 41305.42, 25096.65, -187500.02, -187500.02, -187500.02, -178426.23, -187500.02, -187500.02, 0.008, -0.018, 1.030, 14:54:11.101
103, 40838.40, 24960.17, -187500.02, -187500.02, -187500.02, -178714.91, -187500.02, -187500.02, 0.000, 0.000, 0.000, 14:54:11.101
104, 40847.50, 25024.21, -187500.02, -187500.02, -187500.02, -178896.36, -187500.02, -187500.02, 0.000, 0.000, 0.000, 14:54:11.101
105, 41123.86, 25136.57, -187500.02, -187500.02, -187500.02, -178821.19, -187500.02, -187500.02, 0.000, 0.000, 0.000, 14:54:11.101
106, 41341.67, 25166.97, -187500.02, -187500.02, -187500.02, -178583.70, -187500.02, -187500.02, 0.000, 0.000, 0.000, 14:54:11.101
107, 41308.73, 25097.10, -187500.02, -187500.02, -187500.02, -178445.28, -187500.02, -187500.02, 0.000, 0.000, 0.000, 14:54:11.102
108, 40848.50, 24953.58, -187500.02, -187500.02, -187500.02, -178747.77, -187500.02, -187500.02, 0.000, 0.000, 0.000, 14:54:11.102
109, 40848.66, 25007.87, -187500.02, -187500.02, -187500.02, -178910.73, -187500.02, -187500.02, 0.000, 0.000, 0.000, 14:54:11.102
110, 41120.23, 25128.28, -187500.02, -187500.02, -187500.02, -178819.17, -187500.02, -187500.02, 0.000, 0.000, 0.000, 14:54:11.102
111, 41331.64, 25163.84, -187500.02, -187500.02, -187500.02, -178556.02, -187500.02, -187500.02, 0.000, 0.000, 0.000, 14:54:11.102
112, 41289.57, 25091.33, -187500.02, -187500.02, -187500.02, -178409.31, -187500.02, -187500.02, 0.006, -0.010, 1.026, 14:54:11.103
113, 40821.50, 24949.57, -187500.02, -187500.02, -187500.02, -178711.67, -187500.02, -187500.02, 0.000, 0.000, 0.000, 14:54:11.103
114, 40834.07, 25014.53, -187500.02, -187500.02, -187500.02, -178926.80, -187500.02, -187500.02, 0.000, 0.000, 0.000, 14:54:11.103
115, 41117.35, 25126.51, -187500.02, -187500.02, -187500.02, -178853.67, -187500.02, -187500.02, 0.000, 0.000, 0.000, 14:54:11.103
116, 41337.72, 25164.55, -187500.02, -187500.02, -187500.02, -178580.89, -187500.02, -187500.02, 0.000, 0.000, 0.000, 14:54:11.103
117, 41295.81, 25093.16, -187500.02, -187500.02, -187500.02, -178416.63, -187500.02, -187500.02, 0.000, 0.000, 0.000, 14:54:11.103
118, 40834.91, 24952.62, -187500.02, -187500.02, -187500.02, -178716.58, -187500.02, -187500.02, 0.000, 0.000, 0.000, 14:54:11.104
119, 40849.22, 25017.01, -187500.02, -187500.02, -187500.02, -178926.52, -187500.02, -187500.02, 0.000, 0.000, 0.000, 14:54:11.104
120, 41127.81, 25130.56, -187500.02, -187500.02, -187500.02, -178836.56, -187500.02, -187500.02, 0.000, 0.000, 0.000, 14:54:11.104
121, 41343.51, 25163.77, -187500.02, -187500.02, -187500.02, -178577.27, -187500.02, -187500.02, 0.000, 0.000, 0.000, 14:54:11.104
122, 41302.96, 25095.11, -187500.02, -187500.02, -187500.02, -178440.34, -187500.02, -187500.02, 0.006, -0.014, 1.028, 14:54:11.104
123, 40833.30, 24937.66, -187500.02, -187500.02, -187500.02, -178733.61, -187500.02, -187500.02, 0.000, 0.000, 0.000, 14:54:11.104
124, 40846.27, 25002.08, -187500.02, -187500.02, -187500.02, -178911.72, -187500.02, -187500.02, 0.000, 0.000, 0.000, 14:54:11.105
125, 41130.20, 25126.24, -187500.02, -187500.02, -187500.02, -178839.77, -187500.02, -187500.02, 0.000, 0.000, 0.000, 14:54:11.105
126, 41344.33, 25154.18, -187500.02, -187500.02, -187500.02, -178559.52, -187500.02, -187500.02, 0.000, 0.000, 0.000, 14:54:11.105
127, 41313.24, 25088.96, -187500.02, -187500.02, -187500.02, -178433.13, -187500.02, -187500.02, 0.000, 0.000, 0.000, 14:54:11.105
128, 40853.51, 24953.33, -187500.02, -187500.02, -187500.02, -178742.20, -187500.02, -187500.02, 0.000, 0.000, 0.000, 14:54:11.105
129, 40859.01, 25013.26, -187500.02, -187500.02, -187500.02, -178908.09, -187500.02, -187500.02, 0.000, 0.000, 0.000, 14:54:11.105
130, 41138.74, 25127.29, -187500.02, -187500.02, -187500.02, -178853.20, -187500.02, -187500.02, 0.000, 0.000, 0.000, 14:54:11.105
131, 41352.78, 25159.48, -187500.02, -187500.02, -187500.02, -178596.17, -187500.02, -187500.02, 0.000, 0.000, 0.000, 14:54:11.105
132, 41314.32, 25091.82, -187500.02, -187500.02, -187500.02, -178434.95, -187500.02, -187500.02, 0.006, -0.010, 1.018, 14:54:11.106
133, 40851.12, 24958.05, -187500.02, -187500.02, -187500.02, -178744.23, -187500.02, -187500.02, 0.000, 0.000, 0.000, 14:54:11.106
134, 40856.26, 25011.98, -187500.02, -187500.02, -187500.02, -178911.22, -187500.02, -187500.02, 0.000, 0.000, 0.000, 14:54:11.106
135, 41131.19, 25122.67, -187500.02, -187500.02, -187500.02, -178803.95, -187500.02, -187500.02, 0.000, 0.000, 0.000, 14:54:11.106
136, 41353.72, 25157.20, -187500.02, -187500.02, -187500.02, -178548.20, -187500.02, -187500.02, 0.000, 0.000, 0.000, 14:54:11.106
137, 41319.86, 25090.93, -187500.02, -187500.02, -187500.02, -178397.94, -187500.02, -187500.02, 0.000, 0.000, 0.000, 14:54:11.106
138, 40854.61, 24958.36, -187500.02, -187500.02, -187500.02, -178716.78, -187500.02, -187500.02, 0.000, 0.000, 0.000, 14:54:11.107
139, 40860.95, 25022.49, -187500.02, -187500.02, -187500.02, -178930.88, -187500.02, -187500.02, 0.000, 0.000, 0.000, 14:54:11.107
140, 41131.10, 25129.08, -187500.02, -187500.02, -187500.02, -178850.47, -187500.02, -187500.02, 0.000, 0.000, 0.000, 14:54:11.107
141, 41340.27, 25150.67, -187500.02, -187500.02, -187500.02, -178574.92, -187500.02, -187500.02, 0.000, 0.000, 0.000, 14:54:11.107
142, 41314.70, 25088.25, -187500.02, -187500.02, -187500.02, -178456.48, -187500.02, -187500.02, 0.000, -0.014, 1.024, 14:54:11.107
143, 40848.23, 24941.73, -187500.02, -187500.02, -187500.02, -178739.56, -187500.02, -187500.02, 0.000, 0.000, 0.000, 14:54:11.107
144, 40853.20, 24998.68, -187500.02, -187500.02, -187500.02, -178927.19, -187500.02, -187500.02, 0.000, 0.000, 0.000, 14:54:11.108
145, 41129.62, 25118.69, -187500.02, -187500.02, -187500.02, -178875.78, -187500.02, -187500.02, 0.000, 0.000, 0.000, 14:54:11.108
146, 41339.80, 25155.72, -187500.02, -187500.02, -187500.02, -178604.92, -187500.02, -187500.02, 0.000, 0.000, 0.000, 14:54:11.108
147, 41304.86, 25089.70, -187500.02, -187500.02, -187500.02, -178446.31, -187500.02, -187500.02, 0.000, 0.000, 0.000, 14:54:11.108
148, 40835.43, 24933.21, -187500.02, -187500.02, -187500.02, -178722.78, -187500.02, -187500.02, 0.000, 0.000, 0.000, 14:54:11.108
