%OpenBCI Raw EEG Data
%
%Sample Rate = 250.0 Hz
%First Column = SampleIndex
%Last Column = Timestamp 
%Other Columns = EEG data in microvolts followed by Accel Data (in G) interleaved with Aux Data
0, 49382.45, 46622.86, -187500.02, -187500.02, -187500.02, -187500.02, -187500.02, -187500.02, 0.190, -0.076, 1.024, 14:40:18.777
1, 48432.74, 45724.14, -187500.02, -187500.02, -187500.02, -187500.02, -187500.02, -187500.02, 0.000, 0.000, 0.000, 14:40:18.778
2, 49196.84, 46307.47, -187500.02, -187500.02, -187500.02, -187500.02, -187500.02, -187500.02, 0.000, 0.000, 0.000, 14:40:18.778
3, 50179.29, 47242.55, -187500.02, -187500.02, -187500.02, -187500.02, -187500.02, -187500.02, 0.000, 0.000, 0.000, 14:40:18.778
4, 50160.98, 47282.03, -187500.02, -187500.02, -187500.02, -187500.02, -187500.02, -187500.02, 0.000, 0.000, 0.000, 14:40:18.778
5, 49363.27, 46613.93, -187500.02, -187500.02, -187500.02, -187500.02, -187500.02, -187500.02, 0.000, 0.000, 0.000, 14:40:18.779
6, 48426.64, 45735.42, -187500.02, -187500.02, -187500.02, -187500.02, -187500.02, -187500.02, 0.000, 0.000, 0.000, 14:40:18.779
7, 49185.75, 46299.25, -187500.02, -187500.02, -187500.02, -187500.02, -187500.02, -187500.02, 0.180, -0.080, 1.008, 14:40:18.779
8, 50179.75, 47243.18, -187500.02, -187500.02, -187500.02, -187500.02, -187500.02, -187500.02, 0.000, 0.000, 0.000, 14:40:18.779
9, 50173.36, 47300.43, -187500.02, -187500.02, -187500.02, -187500.02, -187500.02, -187500.02, 0.000, 0.000, 0.000, 14:40:18.779
10, 49378.94, 46630.83, -187500.02, -187500.02, -187500.02, -187500.02, -187500.02, -187500.02, 0.000, 0.000, 0.000, 14:40:18.779
11, 48431.31, 45737.37, -187500.02, -187500.02, -187500.02, -187500.02, -187500.02, -187500.02, 0.000, 0.000, 0.000, 14:40:18.780
12, 49193.68, 46317.51, -187500.02, -187500.02, -187500.02, -187500.02, -187500.02, -187500.02, 0.000, 0.000, 0.000, 14:40:18.780
13, 50174.25, 47246.76, -187500.02, -187500.02, -187500.02, -187500.02, -187500.02, -187500.02, 0.000, 0.000, 0.000, 14:40:18.780
14, 50166.05, 47302.55, -187500.02, -187500.02, -187500.02, -187500.02, -187500.02, -187500.02, 0.000, 0.000, 0.000, 14:40:18.780
15, 49366.26, 46627.73, -187500.02, -187500.02, -187500.02, -187500.02, -187500.02, -187500.02, 0.000, 0.000, 0.000, 14:40:18.780
16, 48411.73, 45731.46, -187500.02, -187500.02, -187500.02, -187500.02, -187500.02, -187500.02, 0.178, -0.078, 1.010, 14:40:18.780
17, 49175.20, 46316.16, -187500.02, -187500.02, -187500.02, -187500.02, -187500.02, -187500.02, 0.000, 0.000, 0.000, 14:40:18.781
18, 50176.58, 47253.62, -187500.02, -187500.02, -187500.02, -187500.02, -187500.02, -187500.02, 0.000, 0.000, 0.000, 14:40:18.781
19, 50158.74, 47300.85, -187500.02, -187500.02, -187500.02, -187500.02, -187500.02, -187500.02, 0.000, 0.000, 0.000, 14:40:18.781
20, 49359.76, 46629.94, -187500.02, -187500.02, -187500.02, -187500.02, -187500.02, -187500.02, 0.000, 0.000, 0.000, 14:40:18.781
21, 48409.79, 45730.55, -187500.02, -187500.02, -187500.02, -187500.02, -187500.02, -187500.02, 0.000, 0.000, 0.000, 14:40:18.781
22, 49171.78, 46306.55, -187500.02, -187500.02, -187500.02, -187500.02, -187500.02, -187500.02, 0.000, 0.000, 0.000, 14:40:18.782
23, 50176.00, 47256.19, -187500.02, -187500.02, -187500.02, -187500.02, -187500.02, -187500.02, 0.000, 0.000, 0.000, 14:40:18.782
24, 50170.57, 47311.04, -187500.02, -187500.02, -187500.02, -187500.02, -187500.02, -187500.02, 0.000, 0.000, 0.000, 14:40:18.782
25, 49359.02, 46637.70, -187500.02, -187500.02, -187500.02, -187500.02, -187500.02, -187500.02, 0.000, 0.000, 0.000, 14:40:18.782
26, 48375.66, 45717.79, -187500.02, -187500.02, -187500.02, -187500.02, -187500.02, -187500.02, 0.184, -0.076, 1.026, 14:40:18.782
27, 49130.77, 46278.46, -187500.02, -187500.02, -187500.02, -187500.02, -187500.02, -187500.02, 0.000, 0.000, 0.000, 14:40:18.782
28, 50152.30, 47244.70, -187500.02, -187500.02, -187500.02, -187500.02, -187500.02, -187500.02, 0.000, 0.000, 0.000, 14:40:18.783
29, 50151.97, 47309.16, -187500.02, -187500.02, -187500.02, -187500.02, -187500.02, -187500.02, 0.000, 0.000, 0.000, 14:40:18.783
30, 49364.27, 46653.07, -187500.02, -187500.02, -187500.02, -187500.02, -187500.02, -187500.02, 0.000, 0.000, 0.000, 14:40:18.783
31, 48377.62, 45728.85, -187500.02, -187500.02, -187500.02, -187500.02, -187500.02, -187500.02, 0.000, 0.000, 0.000, 14:40:18.783
32, 49125.67, 46284.71, -187500.02, -187500.02, -187500.02, -187500.02, -187500.02, -187500.02, 0.000, 0.000, 0.000, 14:40:18.783
33, 50169.88, 47269.51, -187500.02, -187500.02, -187500.02, -187500.02, -187500.02, -187500.02, 0.000, 0.000, 0.000, 14:40:18.783
34, 50169.11, 47330.15, -187500.02, -187500.02, -187500.02, -187500.02, -187500.02, -187500.02, 0.000, 0.000, 0.000, 14:40:18.783
35, 49370.35, 46652.49, -187500.02, -187500.02, -187500.02, -187500.02, -187500.02, -187500.02, 0.000, 0.000, 0.000, 14:40:18.783
36, 48373.84, 45712.11, -187500.02, -187500.02, -187500.02, -187500.02, -187500.02, -187500.02, 0.194, -0.076, 1.012, 14:40:18.783
37, 49143.04, 46295.00, -187500.02, -187500.02, -187500.02, -187500.02, -187500.02, -187500.02, 0.000, 0.000, 0.000, 14:40:18.784
38, 50186.39, 47282.41, -187500.02, -187500.02, -187500.02, -187500.02, -187500.02, -187500.02, 0.000, 0.000, 0.000, 14:40:18.784
39, 50179.22, 47335.67, -187500.02, -187500.02, -187500.02, -187500.02, -187500.02, -187500.02, 0.000, 0.000, 0.000, 14:40:18.784
40, 49395.50, 46671.51, -187500.02, -187500.02, -187500.02, -187500.02, -187500.02, -187500.02, 0.000, 0.000, 0.000, 14:40:18.784
41, 48396.38, 45734.89, -187500.02, -187500.02, -187500.02, -187500.02, -187500.02, -187500.02, 0.000, 0.000, 0.000, 14:40:18.784
42, 49135.52, 46284.83, -187500.02, -187500.02, -187500.02, -187500.02, -187500.02, -187500.02, 0.000, 0.000, 0.000, 14:40:18.784
43, 50186.26, 47291.39, -187500.02, -187500.02, -187500.02, -187500.02, -187500.02, -187500.02, 0.000, 0.000, 0.000, 14:40:18.784
44, 50181.65, 47354.49, -187500.02, -187500.02, -187500.02, -187500.02, -187500.02, -187500.02, 0.000, 0.000, 0.000, 14:40:18.784
45, 49394.98, 46687.65, -187500.02, -187500.02, -187500.02, -187500.02, -187500.02, -187500.02, 0.000, 0.000, 0.000, 14:40:18.784
46, 48400.29, 45758.07, -187500.02, -187500.02, -187500.02, -187500.02, -187500.02, -187500.02, 0.190, -0.084, 1.018, 14:40:18.785
47, 49146.01, 46317.04, -187500.02, -187500.02, -187500.02, -187500.02, -187500.02, -187500.02, 0.000, 0.000, 0.000, 14:40:18.785
48, 50187.40, 47297.41, -187500.02, -187500.02, -187500.02, -187500.02, -187500.02, -187500.02, 0.000, 0.000, 0.000, 14:40:18.785
49, 50188.07, 47357.85, -187500.02, -187500.02, -187500.02, -187500.02, -187500.02, -187500.02, 0.000, 0.000, 0.000, 14:40:18.785
50, 49402.96, 46700.66, -187500.02, -187500.02, -187500.02, -187500.02, -187500.02, -187500.02, 0.000, 0.000, 0.000, 14:40:18.785
51, 48376.64, 45734.68, -187500.02, -187500.02, -187500.02, -187500.02, -187500.02, -187500.02, 0.000, 0.000, 0.000, 14:40:18.785
52, 49118.85, 46291.45, -187500.02, -187500.02, -187500.02, -187500.02, -187500.02, -187500.02, 0.000, 0.000, 0.000, 14:40:18.785
53, 50168.91, 47283.57, -187500.02, -187500.02, -187500.02, -187500.02, -187500.02, -187500.02, 0.000, 0.000, 0.000, 14:40:18.785
54, 50195.11, 47375.84, -187500.02, -187500.02, -187500.02, -187500.02, -187500.02, -187500.02, 0.000, 0.000, 0.000, 14:40:18.786
55, 49398.49, 46716.87, -187500.02, -187500.02, -187500.02, -187500.02, -187500.02, -187500.02, 0.000, 0.000, 0.000, 14:40:18.786
56, 48389.02, 45775.50, -187500.02, -187500.02, -187500.02, -187500.02, -187500.02, -187500.02, 0.190, -0.078, 1.016, 14:40:18.786
57, 49114.54, 46297.30, -187500.02, -187500.02, -187500.02, -187500.02, -187500.02, -187500.02, 0.000, 0.000, 0.000, 14:40:18.786
58, 50135.27, 47257.13, -187500.02, -187500.02, -187500.02, -187500.02, -187500.02, -187500.02, 0.000, 0.000, 0.000, 14:40:18.786
59, 50154.43, 47340.99, -187500.02, -187500.02, -187500.02, -187500.02, -187500.02, -187500.02, 0.000, 0.000, 0.000, 14:40:18.786
60, 49376.30, 46684.19, -187500.02, -187500.02, -187500.02, -187500.02, -187500.02, -187500.02, 0.000, 0.000, 0.000, 14:40:18.787
61, 48380.80, 45755.45, -187500.02, -187500.02, -187500.02, -187500.02, -187500.02, -187500.02, 0.000, 0.000, 0.000, 14:40:18.787
62, 49099.00, 46280.76, -187500.02, -187500.02, -187500.02, -187500.02, -187500.02, -187500.02, 0.000, 0.000, 0.000, 14:40:18.787
63, 50137.62, 47256.28, -187500.02, -187500.02, -187500.02, -187500.02, -187500.02, -187500.02, 0.000, 0.000, 0.000, 14:40:18.824
64, 50157.45, 47344.14, -187500.02, -187500.02, -187500.02, -187500.02, -187500.02, -187500.02, 0.000, 0.000, 0.000, 14:40:18.824
65, 49390.09, 46707.25, -187500.02, -187500.02, -187500.02, -187500.02, -187500.02, -187500.02, 0.000, 0.000, 0.000, 14:40:18.824
66, 48371.99, 45764.14, -187500.02, -187500.02, -187500.02, -187500.02, -187500.02, -187500.02, 0.186, -0.082, 1.016, 14:40:18.824
67, 49086.78, 46284.79, -187500.02, -187500.02, -187500.02, -187500.02, -187500.02, -187500.02, 0.000, 0.000, 0.000, 14:40:18.824
68, 50148.06, 47277.58, -187500.02, -187500.02, -187500.02, -187500.02, -187500.02, -187500.02, 0.000, 0.000, 0.000, 14:40:18.825
69, 50161.14, 47355.81, -187500.02, -187500.02, -187500.02, -187500.02, -187500.02, -187500.02, 0.000, 0.000, 0.000, 14:40:18.825
70, 49374.64, 46698.31, -187500.02, -187500.02, -187500.02, -187500.02, -187500.02, -187500.02, 0.000, 0.000, 0.000, 14:40:18.825
71, 48347.18, 45744.68, -187500.02, -187500.02, -187500.02, -187500.02, -187500.02, -187500.02, 0.000, 0.000, 0.000, 14:40:18.825
72, 49073.72, 46272.31, -187500.02, -187500.02, -187500.02, -187500.02, -187500.02, -187500.02, 0.000, 0.000, 0.000, 14:40:18.825
73, 50147.61, 47279.61, -187500.02, -187500.02, -187500.02, -187500.02, -187500.02, -187500.02, 0.000, 0.000, 0.000, 14:40:18.825
74, 50192.83, 47383.75, -187500.02, -187500.02, -187500.02, -187500.02, -187500.02, -187500.02, 0.000, 0.000, 0.000, 14:40:18.825
75, 49439.89, 46756.74, -187500.02, -187500.02, -187500.02, -187500.02, -187500.02, -187500.02, 0.000, 0.000, 0.000, 14:40:18.826
76, 48422.10, 45813.96, -187500.02, -187500.02, -187500.02, -187500.02, -187500.02, -187500.02, 0.182, -0.078, 1.008, 14:40:18.826
77, 49116.14, 46320.95, -187500.02, -187500.02, -187500.02, -187500.02, -187500.02, -187500.02, 0.000, 0.000, 0.000, 14:40:18.826
78, 50175.21, 47317.66, -187500.02, -187500.02, -187500.02, -187500.02, -187500.02, -187500.02, 0.000, 0.000, 0.000, 14:40:18.826
79, 50202.15, 47417.41, -187500.02, -187500.02, -187500.02, -187500.02, -187500.02, -187500.02, 0.000, 0.000, 0.000, 14:40:18.826
80, 49433.05, 46770.69, -187500.02, -187500.02, -187500.02, -187500.02, -187500.02, -187500.02, 0.000, 0.000, 0.000, 14:40:18.826
81, 48387.70, 45796.51, -187500.02, -187500.02, -187500.02, -187500.02, -187500.02, -187500.02, 0.000, 0.000, 0.000, 14:40:18.826
82, 49091.74, 46311.20, -187500.02, -187500.02, -187500.02, -187500.02, -187500.02, -187500.02, 0.000, 0.000, 0.000, 14:40:18.826
83, 50166.50, 47316.92, -187500.02, -187500.02, -187500.02, -187500.02, -187500.02, -187500.02, 0.000, 0.000, 0.000, 14:40:18.826
84, 50207.14, 47416.52, -187500.02, -187500.02, -187500.02, -187500.02, -187500.02, -187500.02, 0.000, 0.000, 0.000, 14:40:18.827
85, 49420.09, 46757.37, -187500.02, -187500.02, -187500.02, -187500.02, -187500.02, -187500.02, 0.000, 0.000, 0.000, 14:40:18.827
86, 48366.22, 45786.03, -187500.02, -187500.02, -187500.02, -187500.02, -187500.02, -187500.02, 0.184, -0.078, 1.012, 14:40:18.827
87, 49064.22, 46289.97, -187500.02, -187500.02, -187500.02, -187500.02, -187500.02, -187500.02, 0.000, 0.000, 0.000, 14:40:18.827
88, 50153.16, 47299.57, -187500.02, -187500.02, -187500.02, -187500.02, -187500.02, -187500.02, 0.000, 0.000, 0.000, 14:40:18.827
89, 50195.67, 47410.95, -187500.02, -187500.02, -187500.02, -187500.02, -187500.02, -187500.02, 0.000, 0.000, 0.000, 14:40:18.827
90, 49417.74, 46768.52, -187500.02, -187500.02, -187500.02, -187500.02, -187500.02, -187500.02, 0.000, 0.000, 0.000, 14:40:18.827
91, 48377.36, 45800.82, -187500.02, -187500.02, -187500.02, -187500.02, -187500.02, -187500.02, 0.000, 0.000, 0.000, 14:40:18.827
92, 49071.53, 46297.61, -187500.02, -187500.02, -187500.02, -187500.02, -187500.02, -187500.02, 0.000, 0.000, 0.000, 14:40:18.828
93, 50150.59, 47308.83, -187500.02, -187500.02, -187500.02, -187500.02, -187500.02, -187500.02, 0.000, 0.000, 0.000, 14:40:18.828
94, 50197.05, 47416.09, -187500.02, -187500.02, -187500.02, -187500.02, -187500.02, -187500.02, 0.000, 0.000, 0.000, 14:40:18.828
95, 49426.88, 46769.37, -187500.02, -187500.02, -187500.02, -187500.02, -187500.02, -187500.02, 0.000, 0.000, 0.000, 14:40:18.828
96, 48374.23, 45799.57, -187500.02, -187500.02, -187500.02, -187500.02, -187500.02, -187500.02, 0.184, -0.078, 1.004, 14:40:18.828
97, 49071.87, 46310.64, -187500.02, -187500.02, -187500.02, -187500.02, -187500.02, -187500.02, 0.000, 0.000, 0.000, 14:40:18.828
98, 50140.19, 47305.88, -187500.02, -187500.02, -187500.02, -187500.02, -187500.02, -187500.02, 0.000, 0.000, 0.000, 14:40:18.828
99, 50191.62, 47421.44, -187500.02, -187500.02, -187500.02, -187500.02, -187500.02, -187500.02, 0.000, 0.000, 0.000, 14:40:18.828
100, 49432.96, 46790.67, -187500.02, -187500.02, -187500.02, -187500.02, -187500.02, -187500.02, 0.000, 0.000, 0.000, 14:40:18.828
101, 48382.05, 45815.87, -187500.02, -187500.02, -187500.02, -187500.02, -187500.02, -187500.02, 0.000, 0.000, 0.000, 14:40:18.829
102, 49064.51, 46301.91, -187500.02, -187500.02, -187500.02, -187500.02, -187500.02, -187500.02, 0.000, 0.000, 0.000, 14:40:18.829
103, 50172.42, 47334.94, -187500.02, -187500.02, -187500.02, -187500.02, -187500.02, -187500.02, 0.000, 0.000, 0.000, 14:40:18.829
104, 50208.45, 47433.51, -187500.02, -187500.02, -187500.02, -187500.02, -187500.02, -187500.02, 0.000, 0.000, 0.000, 14:40:18.829
105, 49441.77, 46798.47, -187500.02, -187500.02, -187500.02, -187500.02, -187500.02, -187500.02, 0.000, 0.000, 0.000, 14:40:18.829
106, 48390.88, 45826.98, -187500.02, -187500.02, -187500.02, -187500.02, -187500.02, -187500.02, 0.188, -0.080, 1.006, 14:40:18.829
107, 49065.96, 46306.67, -187500.02, -187500.02, -187500.02, -187500.02, -187500.02, -187500.02, 0.000, 0.000, 0.000, 14:40:18.829
108, 50177.61, 47345.60, -187500.02, -187500.02, -187500.02, -187500.02, -187500.02, -187500.02, 0.000, 0.000, 0.000, 14:40:18.829
109, 50235.45, 47456.69, -187500.02, -187500.02, -187500.02, -187500.02, -187500.02, -187500.02, 0.000, 0.000, 0.000, 14:40:18.830
110, 49460.32, 46804.84, -187500.02, -187500.02, -187500.02, -187500.02, -187500.02, -187500.02, 0.000, 0.000, 0.000, 14:40:18.830
111, 48390.65, 45819.96, -187500.02, -187500.02, -187500.02, -187500.02, -187500.02, -187500.02, 0.000, 0.000, 0.000, 14:40:18.830
112, 49063.82, 46300.48, -187500.02, -187500.02, -187500.02, -187500.02, -187500.02, -187500.02, 0.000, 0.000, 0.000, 14:40:18.830
113, 50157.40, 47320.30, -187500.02, -187500.02, -187500.02, -187500.02, -187500.02, -187500.02, 0.000, 0.000, 0.000, 14:40:18.830
114, 50196.16, 47425.28, -187500.02, -187500.02, -187500.02, -187500.02, -187500.02, -187500.02, 0.000, 0.000, 0.000, 14:40:18.830
115, 49430.16, 46791.63, -187500.02, -187500.02, -187500.02, -187500.02, -187500.02, -187500.02, 0.000, 0.000, 0.000, 14:40:18.830
116, 48361.55, 45809.65, -187500.02, -187500.02, -187500.02, -187500.02, -187500.02, -187500.02, 0.186, -0.074, 0.998, 14:40:18.830
117, 49031.52, 46287.31, -187500.02, -187500.02, -187500.02, -187500.02, -187500.02, -187500.02, 0.000, 0.000, 0.000, 14:40:18.831
118, 50149.40, 47325.70, -187500.02, -187500.02, -187500.02, -187500.02, -187500.02, -187500.02, 0.000, 0.000, 0.000, 14:40:18.831
119, 50208.12, 47447.36, -187500.02, -187500.02, -187500.02, -187500.02, -187500.02, -187500.02, 0.000, 0.000, 0.000, 14:40:18.831
120, 49462.31, 46826.57, -187500.02, -187500.02, -187500.02, -187500.02, -187500.02, -187500.02, 0.000, 0.000, 0.000, 14:40:19.258
121, 48386.56, 45832.68, -187500.02, -187500.02, -187500.02, -187500.02, -187500.02, -187500.02, 0.000, 0.000, 0.000, 14:40:19.258
122, 49054.30, 46305.06, -187500.02, -187500.02, -187500.02, -187500.02, -187500.02, -187500.02, 0.000, 0.000, 0.000, 14:40:19.258
123, 50173.32, 47345.93, -187500.02, -187500.02, -187500.02, -187500.02, -187500.02, -187500.02, 0.000, 0.000, 0.000, 14:40:19.258
124, 50219.81, 47459.86, -187500.02, -187500.02, -187500.02, -187500.02, -187500.02, -187500.02, 0.000, 0.000, 0.000, 14:40:19.258
125, 49455.33, 46831.48, -187500.02, -187500.02, -187500.02, -187500.02, -187500.02, -187500.02, 0.000, 0.000, 0.000, 14:40:19.258
126, 48360.03, 45817.52, -187500.02, -187500.02, -187500.02, -187500.02, -187500.02, -187500.02, 0.182, -0.074, 1.002, 14:40:19.259
127, 49018.02, 46263.68, -187500.02, -187500.02, -187500.02, -187500.02, -187500.02, -187500.02, 0.000, 0.000, 0.000, 14:40:19.259
128, 50161.29, 47328.16, -187500.02, -187500.02, -187500.02, -187500.02, -187500.02, -187500.02, 0.000, 0.000, 0.000, 14:40:19.259
129, 50248.93, 47479.13, -187500.02, -187500.02, -187500.02, -187500.02, -187500.02, -187500.02, 0.000, 0.000, 0.000, 14:40:19.259
130, 49489.40, 46848.29, -187500.02, -187500.02, -187500.02, -187500.02, -187500.02, -187500.02, 0.000, 0.000, 0.000, 14:40:19.259
131, 48384.91, 45827.94, -187500.02, -187500.02, -187500.02, -187500.02, -187500.02, -187500.02, 0.000, 0.000, 0.000, 14:40:19.259
132, 49030.09, 46274.48, -187500.02, -187500.02, -187500.02, -187500.02, -187500.02, -187500.02, 0.000, 0.000, 0.000, 14:40:19.259
133, 50157.85, 47327.07, -187500.02, -187500.02, -187500.02, -187500.02, -187500.02, -187500.02, 0.000, 0.000, 0.000, 14:40:19.259
134, 50226.80, 47465.47, -187500.02, -187500.02, -187500.02, -187500.02, -187500.02, -187500.02, 0.000, 0.000, 0.000, 14:40:19.260
135, 49473.59, 46851.24, -187500.02, -187500.02, -187500.02, -187500.02, -187500.02, -187500.02, 0.182, -0.076, 1.000, 14:40:19.260
136, 48366.74, 45829.75, -187500.02, -187500.02, -187500.02, -187500.02, -187500.02, -187500.02, 0.000, 0.000, 0.000, 14:40:19.260
137, 49022.56, 46270.84, -187500.02, -187500.02, -187500.02, -187500.02, -187500.02, -187500.02, 0.000, 0.000, 0.000, 14:40:19.260
138, 50168.22, 47335.72, -187500.02, -187500.02, -187500.02, -187500.02, -187500.02, -187500.02, 0.000, 0.000, 0.000, 14:40:19.260
139, 50249.47, 47484.13, -187500.02, -187500.02, -187500.02, -187500.02, -187500.02, -187500.02, 0.000, 0.000, 0.000, 14:40:19.260
140, 49484.21, 46856.92, -187500.02, -187500.02, -187500.02, -187500.02, -187500.02, -187500.02, 0.000, 0.000, 0.000, 14:40:19.260
141, 48364.50, 45832.00, -187500.02, -187500.02, -187500.02, -187500.02, -187500.02, -187500.02, 0.000, 0.000, 0.000, 14:40:19.260
142, 49014.91, 46267.95, -187500.02, -187500.02, -187500.02, -187500.02, -187500.02, -187500.02, 0.000, 0.000, 0.000, 14:40:19.260
143, 50190.82, 47355.28, -187500.02, -187500.02, -187500.02, -187500.02, -187500.02, -187500.02, 0.000, 0.000, 0.000, 14:40:19.261
144, 50265.36, 47503.67, -187500.02, -187500.02, -187500.02, -187500.02, -187500.02, -187500.02, 0.000, 0.000, 0.000, 14:40:19.261
145, 49508.29, 46886.09, -187500.02, -187500.02, -187500.02, -187500.02, -187500.02, -187500.02, 0.184, -0.078, 0.998, 14:40:19.261
146, 48387.03, 45862.71, -187500.02, -187500.02, -187500.02, -187500.02, -187500.02, -187500.02, 0.000, 0.000, 0.000, 14:40:19.261
147, 49028.13, 46285.52, -187500.02, -187500.02, -187500.02, -187500.02, -187500.02, -187500.02, 0.000, 0.000, 0.000, 14:40:19.261
148, 50192.94, 47360.86, -187500.02, -187500.02, -187500.02, -187500.02, -187500.02, -187500.02, 0.000, 0.000, 0.000, 14:40:19.261
149, 50277.43, 47518.04, -187500.02, -187500.02, -187500.02, -187500.02, -187500.02, -187500.02, 0.000, 0.000, 0.000, 14:40:19.261
150, 49514.99, 46902.25, -187500.02, -187500.02, -187500.02, -187500.02, -187500.02, -187500.02, 0.000, 0.000, 0.000, 14:40:19.261
151, 48388.38, 45871.03, -187500.02, -187500.02, -187500.02, -187500.02, -187500.02, -187500.02, 0.000, 0.000, 0.000, 14:40:19.262
152, 49013.39, 46271.37, -187500.02, -187500.02, -187500.02, -187500.02, -187500.02, -187500.02, 0.000, 0.000, 0.000, 14:40:19.262
153, 50180.07, 47350.67, -187500.02, -187500.02, -187500.02, -187500.02, -187500.02, -187500.02, 0.000, 0.000, 0.000, 14:40:19.262
154, 50258.95, 47496.63, -187500.02, -187500.02, -187500.02, -187500.02, -187500.02, -187500.02, 0.000, 0.000, 0.000, 14:40:19.262
155, 49499.81, 46878.58, -187500.02, -187500.02, -187500.02, -187500.02, -187500.02, -187500.02, 0.190, -0.074, 1.006, 14:40:19.262
156, 48342.91, 45827.38, -187500.02, -187500.02, -187500.02, -187500.02, -187500.02, -187500.02, 0.000, 0.000, 0.000, 14:40:19.262
157, 48968.02, 46235.61, -187500.02, -187500.02, -187500.02, -187500.02, -187500.02, -187500.02, 0.000, 0.000, 0.000, 14:40:19.262
158, 50159.70, 47333.84, -187500.02, -187500.02, -187500.02, -187500.02, -187500.02, -187500.02, 0.000, 0.000, 0.000, 14:40:19.262
159, 50246.36, 47495.45, -187500.02, -187500.02, -187500.02, -187500.02, -187500.02, -187500.02, 0.000, 0.000, 0.000, 14:40:19.262
160, 49495.05, 46881.69, -187500.02, -187500.02, -187500.02, -187500.02, -187500.02, -187500.02, 0.000, 0.000, 0.000, 14:40:19.263
161, 48329.19, 45819.02, -187500.02, -187500.02, -187500.02, -187500.02, -187500.02, -187500.02, 0.000, 0.000, 0.000, 14:40:19.263
162, 48945.82, 46217.35, -187500.02, -187500.02, -187500.02, -187500.02, -187500.02, -187500.02, 0.000, 0.000, 0.000, 14:40:19.263
163, 50156.55, 47336.50, -187500.02, -187500.02, -187500.02, -187500.02, -187500.02, -187500.02, 0.000, 0.000, 0.000, 14:40:19.263
164, 50269.77, 47520.05, -187500.02, -187500.02, -187500.02, -187500.02, -187500.02, -187500.02, 0.000, 0.000, 0.000, 14:40:19.263
165, 49508.87, 46899.30, -187500.02, -187500.02, -187500.02, -187500.02, -187500.02, -187500.02, 0.192, -0.078, 1.014, 14:40:19.263
166, 48324.78, 45820.32, -187500.02, -187500.02, -187500.02, -187500.02, -187500.02, -187500.02, 0.000, 0.000, 0.000, 14:40:19.263
167, 48942.88, 46215.70, -187500.02, -187500.02, -187500.02, -187500.02, -187500.02, -187500.02, 0.000, 0.000, 0.000, 14:40:19.263
168, 50172.89, 47350.38, -187500.02, -187500.02, -187500.02, -187500.02, -187500.02, -187500.02, 0.000, 0.000, 0.000, 14:40:19.264
169, 50285.57, 47530.96, -187500.02, -187500.02, -187500.02, -187500.02, -187500.02, -187500.02, 0.000, 0.000, 0.000, 14:40:19.264
170, 49530.50, 46925.23, -187500.02, -187500.02, -187500.02, -187500.02, -187500.02, -187500.02, 0.000, 0.000, 0.000, 14:40:19.264
171, 48316.82, 45828.38, -187500.02, -187500.02, -187500.02, -187500.02, -187500.02, -187500.02, 0.000, 0.000, 0.000, 14:40:19.264
172, 48928.37, 46209.93, -187500.02, -187500.02, -187500.02, -187500.02, -187500.02, -187500.02, 0.000, 0.000, 0.000, 14:40:19.264
173, 50176.04, 47355.14, -187500.02, -187500.02, -187500.02, -187500.02, -187500.02, -187500.02, 0.000, 0.000, 0.000, 14:40:19.264
174, 50294.82, 47550.03, -187500.02, -187500.02, -187500.02, -187500.02, -187500.02, -187500.02, 0.000, 0.000, 0.000, 14:40:19.264
175, 49538.82, 46938.86, -187500.02, -187500.02, -187500.02, -187500.02, -187500.02, -187500.02, 0.188, -0.078, 1.014, 14:40:19.264
176, 48308.22, 45816.70, -187500.02, -187500.02, -187500.02, -187500.02, -187500.02, -187500.02, 0.000, 0.000, 0.000, 14:40:19.265
177, 48907.14, 46189.50, -187500.02, -187500.02, -187500.02, -187500.02, -187500.02, -187500.02, 0.000, 0.000, 0.000, 14:40:19.265
178, 50185.90, 47360.30, -187500.02, -187500.02, -187500.02, -187500.02, -187500.02, -187500.02, 0.000, 0.000, 0.000, 14:40:19.265
179, 50311.50, 47565.47, -187500.02, -187500.02, -187500.02, -187500.02, -187500.02, -187500.02, 0.000, 0.000, 0.000, 14:40:19.265
180, 49546.35, 46953.32, -187500.02, -187500.02, -187500.02, -187500.02, -187500.02, -187500.02, 0.000, 0.000, 0.000, 14:40:19.265
181, 48302.86, 45821.68, -187500.02, -187500.02, -187500.02, -187500.02, -187500.02, -187500.02, 0.000, 0.000, 0.000, 14:40:19.265
182, 48906.71, 46200.23, -187500.02, -187500.02, -187500.02, -187500.02, -187500.02, -187500.02, 0.000, 0.000, 0.000, 14:40:19.265
183, 50184.40, 47372.84, -187500.02, -187500.02, -187500.02, -187500.02, -187500.02, -187500.02, 0.000, 0.000, 0.000, 14:40:19.265
184, 50303.20, 47565.47, -187500.02, -187500.02, -187500.02, -187500.02, -187500.02, -187500.02, 0.000, 0.000, 0.000, 14:40:19.265
185, 49536.45, 46948.79, -187500.02, -187500.02, -187500.02, -187500.02, -187500.02, -187500.02, 0.190, -0.074, 1.012, 14:40:19.266
186, 48290.18, 45815.66, -187500.02, -187500.02, -187500.02, -187500.02, -187500.02, -187500.02, 0.000, 0.000, 0.000, 14:40:19.266
187, 48877.68, 46177.32, -187500.02, -187500.02, -187500.02, -187500.02, -187500.02, -187500.02, 0.000, 0.000, 0.000, 14:40:19.266
188, 50164.80, 47364.66, -187500.02, -187500.02, -187500.02, -187500.02, -187500.02, -187500.02, 0.000, 0.000, 0.000, 14:40:19.266
189, 50304.70, 47570.72, -187500.02, -187500.02, -187500.02, -187500.02, -187500.02, -187500.02, 0.000, 0.000, 0.000, 14:40:19.266
190, 49544.88, 46954.40, -187500.02, -187500.02, -187500.02, -187500.02, -187500.02, -187500.02, 0.000, 0.000, 0.000, 14:40:19.266
191, 48300.53, 45826.64, -187500.02, -187500.02, -187500.02, -187500.02, -187500.02, -187500.02, 0.000, 0.000, 0.000, 14:40:19.266
192, 48910.64, 46208.74, -187500.02, -187500.02, -187500.02, -187500.02, -187500.02, -187500.02, 0.000, 0.000, 0.000, 14:40:19.266
193, 50219.32, 47420.10, -187500.02, -187500.02, -187500.02, -187500.02, -187500.02, -187500.02, 0.000, 0.000, 0.000, 14:40:19.267
194, 50338.99, 47629.22, -187500.02, -187500.02, -187500.02, -187500.02, -187500.02, -187500.02, 0.000, 0.000, 0.000, 14:40:19.267
195, 49547.65, 46988.06, -187500.02, -187500.02, -187500.02, -187500.02, -187500.02, -187500.02, 0.188, -0.080, 1.010, 14:40:19.267
196, 48291.55, 45850.76, -187500.02, -187500.02, -187500.02, -187500.02, -187500.02, -187500.02, 0.000, 0.000, 0.000, 14:40:19.267
197, 48889.28, 46216.88, -187500.02, -187500.02, -187500.02, -187500.02, -187500.02, -187500.02, 0.000, 0.000, 0.000, 14:40:19.267
198, 50190.64, 47415.20, -187500.02, -187500.02, -187500.02, -187500.02, -187500.02, -187500.02, 0.000, 0.000, 0.000, 14:40:19.267
199, 50350.90, 47651.57, -187500.02, -187500.02, -187500.02, -187500.02, -187500.02, -187500.02, 0.000, 0.000, 0.000, 14:40:19.267
200, 49578.00, 47024.92, -187500.02, -187500.02, -187500.02, -187500.02, -187500.02, -187500.02, 0.000, 0.000, 0.000, 14:40:19.267
201, 48290.14, 45852.86, -187500.02, -187500.02, -187500.02, -187500.02, -187500.02, -187500.02, 0.000, 0.000, 0.000, 14:40:19.267
202, 48884.11, 46211.34, -187500.02, -187500.02, -187500.02, -187500.02, -187500.02, -187500.02, 0.000, 0.000, 0.000, 14:40:19.268
203, 50210.67, 47436.64, -187500.02, -187500.02, -187500.02, -187500.02, -187500.02, -187500.02, 0.000, 0.000, 0.000, 14:40:19.268
204, 50363.15, 47663.02, -187500.02, -187500.02, -187500.02, -187500.02, -187500.02, -187500.02, 0.000, 0.000, 0.000, 14:40:19.268
205, 49621.95, 47064.61, -187500.02, -187500.02, -187500.02, -187500.02, -187500.02, -187500.02, 0.188, -0.080, 1.014, 14:40:19.268
206, 48307.44, 45874.45, -187500.02, -187500.02, -187500.02, -187500.02, -187500.02, -187500.02, 0.000, 0.000, 0.000, 14:40:19.268
207, 48893.90, 46213.88, -187500.02, -187500.02, -187500.02, -187500.02, -187500.02, -187500.02, 0.000, 0.000, 0.000, 14:40:19.268
208, 50235.45, 47446.67, -187500.02, -187500.02, -187500.02, -187500.02, -187500.02, -187500.02, 0.000, 0.000, 0.000, 14:40:19.268
209, 50376.83, 47666.39, -187500.02, -187500.02, -187500.02, -187500.02, -187500.02, -187500.02, 0.000, 0.000, 0.000, 14:40:19.268
210, 49604.35, 47048.92, -187500.02, -187500.02, -187500.02, -187500.02, -187500.02, -187500.02, 0.000, 0.000, 0.000, 14:40:19.269
211, 48295.57, 45865.35, -187500.02, -187500.02, -187500.02, -187500.02, -187500.02, -187500.02, 0.000, 0.000, 0.000, 14:40:19.269
212, 48861.52, 46190.77, -187500.02, -187500.02, -187500.02, -187500.02, -187500.02, -187500.02, 0.000, 0.000, 0.000, 14:40:19.269
213, 50222.94, 47442.38, -187500.02, -187500.02, -187500.02, -187500.02, -187500.02, -187500.02, 0.000, 0.000, 0.000, 14:40:19.269
214, 50379.73, 47675.20, -187500.02, -187500.02, -187500.02, -187500.02, -187500.02, -187500.02, 0.000, 0.000, 0.000, 14:40:19.269
215, 49624.83, 47073.42, -187500.02, -187500.02, -187500.02, -187500.02, -187500.02, -187500.02, 0.184, -0.078, 1.014, 14:40:19.269
216, 48298.12, 45870.76, -187500.02, -187500.02, -187500.02, -187500.02, -187500.02, -187500.02, 0.000, 0.000, 0.000, 14:40:19.269
217, 48861.65, 46193.75, -187500.02, -187500.02, -187500.02, -187500.02, -187500.02, -187500.02, 0.000, 0.000, 0.000, 14:40:19.269
218, 50237.67, 47454.20, -187500.02, -187500.02, -187500.02, -187500.02, -187500.02, -187500.02, 0.000, 0.000, 0.000, 14:40:19.269
219, 50406.94, 47703.11, -187500.02, -187500.02, -187500.02, -187500.02, -187500.02, -187500.02, 0.000, 0.000, 0.000, 14:40:19.270
220, 49625.92, 47071.01, -187500.02, -187500.02, -187500.02, -187500.02, -187500.02, -187500.02, 0.000, 0.000, 0.000, 14:40:19.270
221, 48292.24, 45858.96, -187500.02, -187500.02, -187500.02, -187500.02, -187500.02, -187500.02, 0.000, 0.000, 0.000, 14:40:19.270
222, 48867.15, 46200.43, -187500.02, -187500.02, -187500.02, -187500.02, -187500.02, -187500.02, 0.000, 0.000, 0.000, 14:40:19.270
223, 50266.55, 47484.56, -187500.02, -187500.02, -187500.02, -187500.02, -187500.02, -187500.02, 0.000, 0.000, 0.000, 14:40:19.270
224, 50430.72, 47725.36, -187500.02, -187500.02, -187500.02, -187500.02, -187500.02, -187500.02, 0.000, 0.000, 0.000, 14:40:19.270
225, 49633.72, 47079.03, -187500.02, -187500.02, -187500.02, -187500.02, -187500.02, -187500.02, 0.186, -0.082, 1.014, 14:40:19.270
226, 48296.44, 45870.45, -187500.02, -187500.02, -187500.02, -187500.02, -187500.02, -187500.02, 0.000, 0.000, 0.000, 14:40:19.270
227, 48887.80, 46219.52, -187500.02, -187500.02, -187500.02, -187500.02, -187500.02, -187500.02, 0.000, 0.000, 0.000, 14:40:19.271
228, 50255.86, 47470.36, -187500.02, -187500.02, -187500.02, -187500.02, -187500.02, -187500.02, 0.000, 0.000, 0.000, 14:40:19.271
229, 50409.62, 47705.08, -187500.02, -187500.02, -187500.02, -187500.02, -187500.02, -187500.02, 0.000, 0.000, 0.000, 14:40:19.271
230, 49645.70, 47092.09, -187500.02, -187500.02, -187500.02, -187500.02, -187500.02, -187500.02, 0.000, 0.000, 0.000, 14:40:19.271
231, 48279.23, 45856.97, -187500.02, -187500.02, -187500.02, -187500.02, -187500.02, -187500.02, 0.000, 0.000, 0.000, 14:40:19.271
232, 48834.94, 46169.83, -187500.02, -187500.02, -187500.02, -187500.02, -187500.02, -187500.02, 0.000, 0.000, 0.000, 14:40:19.271
233, 50227.79, 47443.81, -187500.02, -187500.02, -187500.02, -187500.02, -187500.02, -187500.02, 0.000, 0.000, 0.000, 14:40:19.271
234, 50420.26, 47714.29, -187500.02, -187500.02, -187500.02, -187500.02, -187500.02, -187500.02, 0.000, 0.000, 0.000, 14:40:19.271
235, 49659.85, 47103.53, -187500.02, -187500.02, -187500.02, -187500.02, -187500.02, -187500.02, 0.184, -0.076, 1.008, 14:40:19.271
236, 48304.33, 45881.51, -187500.02, -187500.02, -187500.02, -187500.02, -187500.02, -187500.02, 0.000, 0.000, 0.000, 14:40:19.272
237, 48843.39, 46172.33, -187500.02, -187500.02, -187500.02, -187500.02, -187500.02, -187500.02, 0.000, 0.000, 0.000, 14:40:19.272
238, 50246.16, 47455.72, -187500.02, -187500.02, -187500.02, -187500.02, -187500.02, -187500.02, 0.000, 0.000, 0.000, 14:40:19.272
239, 50422.14, 47719.48, -187500.02, -187500.02, -187500.02, -187500.02, -187500.02, -187500.02, 0.000, 0.000, 0.000, 14:40:19.272
240, 49657.93, 47110.79, -187500.02, -187500.02, -187500.02, -187500.02, -187500.02, -187500.02, 0.000, 0.000, 0.000, 14:40:19.738
241, 48277.40, 45865.53, -187500.02, -187500.02, -187500.02, -187500.02, -187500.02, -187500.02, 0.000, 0.000, 0.000, 14:40:19.739
242, 48805.99, 46150.92, -187500.02, -187500.02, -187500.02, -187500.02, -187500.02, -187500.02, 0.000, 0.000, 0.000, 14:40:19.739
243, 50236.17, 47451.28, -187500.02, -187500.02, -187500.02, -187500.02, -187500.02, -187500.02, 0.000, 0.000, 0.000, 14:40:19.739
244, 50428.84, 47709.66, -187500.02, -187500.02, -187500.02, -187500.02, -187500.02, -187500.02, 0.000, 0.000, 0.000, 14:40:19.739
245, 49652.90, 47086.90, -187500.02, -187500.02, -187500.02, -187500.02, -187500.02, -187500.02, 0.190, -0.078, 1.008, 14:40:19.739
246, 48278.89, 45854.67, -187500.02, -187500.02, -187500.02, -187500.02, -187500.02, -187500.02, 0.000, 0.000, 0.000, 14:40:19.739
247, 48808.95, 46138.31, -187500.02, -187500.02, -187500.02, -187500.02, -187500.02, -187500.02, 0.000, 0.000, 0.000, 14:40:19.739
248, 50229.91, 47438.63, -187500.02, -187500.02, -187500.02, -187500.02, -187500.02, -187500.02, 0.000, 0.000, 0.000, 14:40:19.739
249, 50434.32, 47724.13, -187500.02, -187500.02, -187500.02, -187500.02, -187500.02, -187500.02, 0.000, 0.000, 0.000, 14:40:19.740
250, 49666.60, 47111.44, -187500.02, -187500.02, -187500.02, -187500.02, -187500.02, -187500.02, 0.000, 0.000, 0.000, 14:40:19.740
251, 48273.98, 45861.15, -187500.02, -187500.02, -187500.02, -187500.02, -187500.02, -187500.02, 0.000, 0.000, 0.000, 14:40:19.740
252, 48788.11, 46121.91, -187500.02, -187500.02, -187500.02, -187500.02, -187500.02, -187500.02, 0.000, 0.000, 0.000, 14:40:19.740
253, 50223.00, 47429.46, -187500.02, -187500.02, -187500.02, -187500.02, -187500.02, -187500.02, 0.000, 0.000, 0.000, 14:40:19.740
254, 50417.35, 47708.93, -187500.02, -187500.02, -187500.02, -187500.02, -187500.02, -187500.02, 0.184, -0.076, 0.998, 14:40:19.740
255, 49652.57, 47095.86, -187500.02, -187500.02, -187500.02, -187500.02, -187500.02, -187500.02, 0.000, 0.000, 0.000, 14:40:19.740
0, 48259.27, 45840.95, -187500.02, -187500.02, -187500.02, -187500.02, -187500.02, -187500.02, 0.000, 0.000, 0.000, 14:40:19.740
1, 48783.08, 46107.13, -187500.02, -187500.02, -187500.02, -187500.02, -187500.02, -187500.02, 0.000, 0.000, 0.000, 14:40:19.741
2, 50227.07, 47428.34, -187500.02, -187500.02, -187500.02, -187500.02, -187500.02, -187500.02, 0.000, 0.000, 0.000, 14:40:19.741
3, 50431.99, 47720.84, -187500.02, -187500.02, -187500.02, -187500.02, -187500.02, -187500.02, 0.000, 0.000, 0.000, 14:40:19.741
4, 49688.11, 47130.35, -187500.02, -187500.02, -187500.02, -187500.02, -187500.02, -187500.02, 0.000, 0.000, 0.000, 14:40:19.741
5, 48286.65, 45874.96, -187500.02, -187500.02, -187500.02, -187500.02, -187500.02, -187500.02, 0.000, 0.000, 0.000, 14:40:19.741
6, 48796.63, 46136.03, -187500.02, -187500.02, -187500.02, -187500.02, -187500.02, -187500.02, 0.000, 0.000, 0.000, 14:40:19.741
7, 50244.06, 47448.17, -187500.02, -187500.02, -187500.02, -187500.02, -187500.02, -187500.02, 0.000, 0.000, 0.000, 14:40:19.741
8, 50465.83, 47756.80, -187500.02, -187500.02, -187500.02, -187500.02, -187500.02, -187500.02, 0.190, -0.076, 1.004, 14:40:19.741
9, 49692.33, 47139.65, -187500.02, -187500.02, -187500.02, -187500.02, -187500.02, -187500.02, 0.000, 0.000, 0.000, 14:40:19.741
10, 48283.25, 45874.20, -187500.02, -187500.02, -187500.02, -187500.02, -187500.02, -187500.02, 0.000, 0.000, 0.000, 14:40:19.742
11, 48793.43, 46134.87, -187500.02, -187500.02, -187500.02, -187500.02, -187500.02, -187500.02, 0.000, 0.000, 0.000, 14:40:19.742
12, 50230.02, 47444.50, -187500.02, -187500.02, -187500.02, -187500.02, -187500.02, -187500.02, 0.000, 0.000, 0.000, 14:40:19.742
13, 50431.25, 47724.44, -187500.02, -187500.02, -187500.02, -187500.02, -187500.02, -187500.02, 0.000, 0.000, 0.000, 14:40:19.742
14, 49683.10, 47129.14, -187500.02, -187500.02, -187500.02, -187500.02, -187500.02, -187500.02, 0.000, 0.000, 0.000, 14:40:19.742
15, 48279.90, 45873.91, -187500.02, -187500.02, -187500.02, -187500.02, -187500.02, -187500.02, 0.000, 0.000, 0.000, 14:40:19.742
16, 48763.32, 46102.68, -187500.02, -187500.02, -187500.02, -187500.02, -187500.02, -187500.02, 0.000, 0.000, 0.000, 14:40:19.742
17, 50223.21, 47425.84, -187500.02, -187500.02, -187500.02, -187500.02, -187500.02, -187500.02, 0.000, 0.000, 0.000, 14:40:19.742
18, 50458.01, 47740.62, -187500.02, -187500.02, -187500.02, -187500.02, -187500.02, -187500.02, 0.188, -0.080, 1.010, 14:40:19.742
19, 49717.21, 47157.44, -187500.02, -187500.02, -187500.02, -187500.02, -187500.02, -187500.02, 0.000, 0.000, 0.000, 14:40:19.743
20, 48284.01, 45878.25, -187500.02, -187500.02, -187500.02, -187500.02, -187500.02, -187500.02, 0.000, 0.000, 0.000, 14:40:19.743
21, 48768.02, 46109.55, -187500.02, -187500.02, -187500.02, -187500.02, -187500.02, -187500.02, 0.000, 0.000, 0.000, 14:40:19.743
22, 50227.30, 47430.87, -187500.02, -187500.02, -187500.02, -187500.02, -187500.02, -187500.02, 0.000, 0.000, 0.000, 14:40:19.743
23, 50454.70, 47744.44, -187500.02, -187500.02, -187500.02, -187500.02, -187500.02, -187500.02, 0.000, 0.000, 0.000, 14:40:19.743
24, 49728.43, 47173.67, -187500.02, -187500.02, -187500.02, -187500.02, -187500.02, -187500.02, 0.000, 0.000, 0.000, 14:40:19.743
25, 48303.21, 45896.31, -187500.02, -187500.02, -187500.02, -187500.02, -187500.02, -187500.02, 0.000, 0.000, 0.000, 14:40:19.743
26, 48757.85, 46099.87, -187500.02, -187500.02, -187500.02, -187500.02, -187500.02, -187500.02, 0.000, 0.000, 0.000, 14:40:19.743
27, 50225.53, 47431.38, -187500.02, -187500.02, -187500.02, -187500.02, -187500.02, -187500.02, 0.000, 0.000, 0.000, 14:40:19.744
28, 50460.71, 47751.35, -187500.02, -187500.02, -187500.02, -187500.02, -187500.02, -187500.02, 0.186, -0.076, 1.014, 14:40:19.744
29, 49729.75, 47174.67, -187500.02, -187500.02, -187500.02, -187500.02, -187500.02, -187500.02, 0.000, 0.000, 0.000, 14:40:19.744
30, 48307.59, 45906.12, -187500.02, -187500.02, -187500.02, -187500.02, -187500.02, -187500.02, 0.000, 0.000, 0.000, 14:40:19.744
31, 48767.19, 46116.70, -187500.02, -187500.02, -187500.02, -187500.02, -187500.02, -187500.02, 0.000, 0.000, 0.000, 14:40:19.744
32, 50248.57, 47454.43, -187500.02, -187500.02, -187500.02, -187500.02, -187500.02, -187500.02, 0.000, 0.000, 0.000, 14:40:19.744
33, 50487.43, 47775.27, -187500.02, -187500.02, -187500.02, -187500.02, -187500.02, -187500.02, 0.000, 0.000, 0.000, 14:40:19.744
34, 49754.22, 47200.91, -187500.02, -187500.02, -187500.02, -187500.02, -187500.02, -187500.02, 0.000, 0.000, 0.000, 14:40:19.744
35, 48323.75, 45930.17, -187500.02, -187500.02, -187500.02, -187500.02, -187500.02, -187500.02, 0.000, 0.000, 0.000, 14:40:19.744
36, 48745.60, 46098.17, -187500.02, -187500.02, -187500.02, -187500.02, -187500.02, -187500.02, 0.000, 0.000, 0.000, 14:40:19.745
37, 50239.50, 47453.00, -187500.02, -187500.02, -187500.02, -187500.02, -187500.02, -187500.02, 0.000, 0.000, 0.000, 14:40:19.745
38, 50494.60, 47797.04, -187500.02, -187500.02, -187500.02, -187500.02, -187500.02, -187500.02, 0.192, -0.082, 1.008, 14:40:19.745
39, 49775.95, 47235.34, -187500.02, -187500.02, -187500.02, -187500.02, -187500.02, -187500.02, 0.000, 0.000, 0.000, 14:40:19.745
40, 48309.70, 45921.46, -187500.02, -187500.02, -187500.02, -187500.02, -187500.02, -187500.02, 0.000, 0.000, 0.000, 14:40:19.745
41, 48722.84, 46075.86, -187500.02, -187500.02, -187500.02, -187500.02, -187500.02, -187500.02, 0.000, 0.000, 0.000, 14:40:19.745
42, 50216.54, 47429.33, -187500.02, -187500.02, -187500.02, -187500.02, -187500.02, -187500.02, 0.000, 0.000, 0.000, 14:40:19.745
43, 50496.66, 47787.94, -187500.02, -187500.02, -187500.02, -187500.02, -187500.02, -187500.02, 0.000, 0.000, 0.000, 14:40:19.745
44, 49772.86, 47218.08, -187500.02, -187500.02, -187500.02, -187500.02, -187500.02, -187500.02, 0.000, 0.000, 0.000, 14:40:19.746
45, 48299.73, 45910.28, -187500.02, -187500.02, -187500.02, -187500.02, -187500.02, -187500.02, 0.000, 0.000, 0.000, 14:40:19.746
46, 48724.41, 46068.60, -187500.02, -187500.02, -187500.02, -187500.02, -187500.02, -187500.02, 0.000, 0.000, 0.000, 14:40:19.746
47, 50230.98, 47435.50, -187500.02, -187500.02, -187500.02, -187500.02, -187500.02, -187500.02, 0.000, 0.000, 0.000, 14:40:19.746
48, 50499.41, 47797.08, -187500.02, -187500.02, -187500.02, -187500.02, -187500.02, -187500.02, 0.190, -0.078, 1.006, 14:40:19.746
49, 49770.74, 47224.72, -187500.02, -187500.02, -187500.02, -187500.02, -187500.02, -187500.02, 0.000, 0.000, 0.000, 14:40:19.746
50, 48285.31, 45901.50, -187500.02, -187500.02, -187500.02, -187500.02, -187500.02, -187500.02, 0.000, 0.000, 0.000, 14:40:19.746
51, 48698.26, 46052.06, -187500.02, -187500.02, -187500.02, -187500.02, -187500.02, -187500.02, 0.000, 0.000, 0.000, 14:40:19.746
52, 50239.48, 47443.90, -187500.02, -187500.02, -187500.02, -187500.02, -187500.02, -187500.02, 0.000, 0.000, 0.000, 14:40:19.746
53, 50510.92, 47801.08, -187500.02, -187500.02, -187500.02, -187500.02, -187500.02, -187500.02, 0.000, 0.000, 0.000, 14:40:19.747
54, 49778.09, 47227.02, -187500.02, -187500.02, -187500.02, -187500.02, -187500.02, -187500.02, 0.000, 0.000, 0.000, 14:40:19.747
55, 48285.06, 45900.31, -187500.02, -187500.02, -187500.02, -187500.02, -187500.02, -187500.02, 0.000, 0.000, 0.000, 14:40:19.747
56, 48699.55, 46052.88, -187500.02, -187500.02, -187500.02, -187500.02, -187500.02, -187500.02, 0.000, 0.000, 0.000, 14:40:19.747
57, 50245.73, 47453.27, -187500.02, -187500.02, -187500.02, -187500.02, -187500.02, -187500.02, 0.000, 0.000, 0.000, 14:40:19.747
58, 50517.51, 47809.98, -187500.02, -187500.02, -187500.02, -187500.02, -187500.02, -187500.02, 0.190, -0.076, 1.012, 14:40:19.747
59, 49772.62, 47220.94, -187500.02, -187500.02, -187500.02, -187500.02, -187500.02, -187500.02, 0.000, 0.000, 0.000, 14:40:19.747
60, 48249.14, 45866.36, -187500.02, -187500.02, -187500.02, -187500.02, -187500.02, -187500.02, 0.000, 0.000, 0.000, 14:40:19.748
61, 48662.16, 46018.55, -187500.02, -187500.02, -187500.02, -187500.02, -187500.02, -187500.02, 0.000, 0.000, 0.000, 14:40:19.748
62, 50240.30, 47442.05, -187500.02, -187500.02, -187500.02, -187500.02, -187500.02, -187500.02, 0.000, 0.000, 0.000, 14:40:19.748
63, 50539.15, 47824.26, -187500.02, -187500.02, -187500.02, -187500.02, -187500.02, -187500.02, 0.000, 0.000, 0.000, 14:40:19.748
64, 49790.66, 47237.35, -187500.02, -187500.02, -187500.02, -187500.02, -187500.02, -187500.02, 0.000, 0.000, 0.000, 14:40:19.748
65, 48253.37, 45869.55, -187500.02, -187500.02, -187500.02, -187500.02, -187500.02, -187500.02, 0.000, 0.000, 0.000, 14:40:19.748
66, 48671.75, 46031.32, -187500.02, -187500.02, -187500.02, -187500.02, -187500.02, -187500.02, 0.000, 0.000, 0.000, 14:40:19.748
67, 50266.86, 47471.59, -187500.02, -187500.02, -187500.02, -187500.02, -187500.02, -187500.02, 0.000, 0.000, 0.000, 14:40:19.748
68, 50543.80, 47831.26, -187500.02, -187500.02, -187500.02, -187500.02, -187500.02, -187500.02, 0.190, -0.080, 1.008, 14:40:19.748
69, 49796.51, 47245.35, -187500.02, -187500.02, -187500.02, -187500.02, -187500.02, -187500.02, 0.000, 0.000, 0.000, 14:40:19.749
70, 48251.58, 45875.52, -187500.02, -187500.02, -187500.02, -187500.02, -187500.02, -187500.02, 0.000, 0.000, 0.000, 14:40:19.749
71, 48646.74, 46016.12, -187500.02, -187500.02, -187500.02, -187500.02, -187500.02, -187500.02, 0.000, 0.000, 0.000, 14:40:19.749
72, 50266.25, 47477.47, -187500.02, -187500.02, -187500.02, -187500.02, -187500.02, -187500.02, 0.000, 0.000, 0.000, 14:40:19.749
73, 50564.50, 47861.36, -187500.02, -187500.02, -187500.02, -187500.02, -187500.02, -187500.02, 0.000, 0.000, 0.000, 14:40:19.749
74, 49799.08, 47260.01, -187500.02, -187500.02, -187500.02, -187500.02, -187500.02, -187500.02, 0.000, 0.000, 0.000, 14:40:19.749
75, 48233.79, 45861.38, -187500.02, -187500.02, -187500.02, -187500.02, -187500.02, -187500.02, 0.000, 0.000, 0.000, 14:40:19.749
76, 48637.35, 46000.76, -187500.02, -187500.02, -187500.02, -187500.02, -187500.02, -187500.02, 0.000, 0.000, 0.000, 14:40:19.749
77, 50266.14, 47473.94, -187500.02, -187500.02, -187500.02, -187500.02, -187500.02, -187500.02, 0.000, 0.000, 0.000, 14:40:19.749
78, 50556.20, 47858.91, -187500.02, -187500.02, -187500.02, -187500.02, -187500.02, -187500.02, 0.190, -0.082, 1.012, 14:40:19.750
79, 49790.27, 47250.60, -187500.02, -187500.02, -187500.02, -187500.02, -187500.02, -187500.02, 0.000, 0.000, 0.000, 14:40:19.750
80, 48211.71, 45837.01, -187500.02, -187500.02, -187500.02, -187500.02, -187500.02, -187500.02, 0.000, 0.000, 0.000, 14:40:19.750
81, 48611.67, 45974.61, -187500.02, -187500.02, -187500.02, -187500.02, -187500.02, -187500.02, 0.000, 0.000, 0.000, 14:40:19.750
82, 50249.47, 47460.44, -187500.02, -187500.02, -187500.02, -187500.02, -187500.02, -187500.02, 0.000, 0.000, 0.000, 14:40:19.750
83, 50544.07, 47850.25, -187500.02, -187500.02, -187500.02, -187500.02, -187500.02, -187500.02, 0.000, 0.000, 0.000, 14:40:19.750
84, 49788.06, 47249.04, -187500.02, -187500.02, -187500.02, -187500.02, -187500.02, -187500.02, 0.000, 0.000, 0.000, 14:40:19.750
85, 48205.98, 45840.59, -187500.02, -187500.02, -187500.02, -187500.02, -187500.02, -187500.02, 0.000, 0.000, 0.000, 14:40:19.750
86, 48599.57, 45970.61, -187500.02, -187500.02, -187500.02, -187500.02, -187500.02, -187500.02, 0.000, 0.000, 0.000, 14:40:19.751
87, 50250.59, 47462.05, -187500.02, -187500.02, -187500.02, -187500.02, -187500.02, -187500.02, 0.000, 0.000, 0.000, 14:40:19.751
88, 50564.72, 47862.68, -187500.02, -187500.02, -187500.02, -187500.02, -187500.02, -187500.02, 0.190, -0.080, 1.012, 14:40:19.751
89, 49802.39, 47258.02, -187500.02, -187500.02, -187500.02, -187500.02, -187500.02, -187500.02, 0.000, 0.000, 0.000, 14:40:19.751
90, 48197.89, 45833.05, -187500.02, -187500.02, -187500.02, -187500.02, -187500.02, -187500.02, 0.000, 0.000, 0.000, 14:40:19.751
91, 48582.07, 45961.06, -187500.02, -187500.02, -187500.02, -187500.02, -187500.02, -187500.02, 0.000, 0.000, 0.000, 14:40:19.751
92, 50249.49, 47463.61, -187500.02, -187500.02, -187500.02, -187500.02, -187500.02, -187500.02, 0.000, 0.000, 0.000, 14:40:19.751
93, 50577.70, 47878.71, -187500.02, -187500.02, -187500.02, -187500.02, -187500.02, -187500.02, 0.000, 0.000, 0.000, 14:40:19.751
94, 49817.32, 47279.77, -187500.02, -187500.02, -187500.02, -187500.02, -187500.02, -187500.02, 0.000, 0.000, 0.000, 14:40:19.751
95, 48205.96, 45848.86, -187500.02, -187500.02, -187500.02, -187500.02, -187500.02, -187500.02, 0.000, 0.000, 0.000, 14:40:19.752
96, 48592.87, 45975.59, -187500.02, -187500.02, -187500.02, -187500.02, -187500.02, -187500.02, 0.000, 0.000, 0.000, 14:40:19.752
97, 50263.17, 47479.64, -187500.02, -187500.02, -187500.02, -187500.02, -187500.02, -187500.02, 0.000, 0.000, 0.000, 14:40:19.752
98, 50574.31, 47883.34, -187500.02, -187500.02, -187500.02, -187500.02, -187500.02, -187500.02, 0.190, -0.078, 1.012, 14:40:19.752
99, 49813.54, 47288.55, -187500.02, -187500.02, -187500.02, -187500.02, -187500.02, -187500.02, 0.000, 0.000, 0.000, 14:40:19.752
100, 48198.25, 45844.45, -187500.02, -187500.02, -187500.02, -187500.02, -187500.02, -187500.02, 0.000, 0.000, 0.000, 14:40:19.752
101, 48550.09, 45939.34, -187500.02, -187500.02, -187500.02, -187500.02, -187500.02, -187500.02, 0.000, 0.000, 0.000, 14:40:19.752
102, 50208.77, 47434.18, -187500.02, -187500.02, -187500.02, -187500.02, -187500.02, -187500.02, 0.000, 0.000, 0.000, 14:40:19.752
103, 50516.59, 47830.59, -187500.02, -187500.02, -187500.02, -187500.02, -187500.02, -187500.02, 0.000, 0.000, 0.000, 14:40:19.752
104, 49755.18, 47232.95, -187500.02, -187500.02, -187500.02, -187500.02, -187500.02, -187500.02, 0.000, 0.000, 0.000, 14:40:20.223
105, 48131.82, 45788.04, -187500.02, -187500.02, -187500.02, -187500.02, -187500.02, -187500.02, 0.000, 0.000, 0.000, 14:40:20.223
106, 48493.65, 45882.30, -187500.02, -187500.02, -187500.02, -187500.02, -187500.02, -187500.02, 0.000, 0.000, 0.000, 14:40:20.223
107, 50187.00, 47412.18, -187500.02, -187500.02, -187500.02, -187500.02, -187500.02, -187500.02, 0.000, 0.000, 0.000, 14:40:20.223
108, 50528.48, 47842.72, -187500.02, -187500.02, -187500.02, -187500.02, -187500.02, -187500.02, 0.190, -0.080, 1.014, 14:40:20.223
109, 49767.48, 47237.86, -187500.02, -187500.02, -187500.02, -187500.02, -187500.02, -187500.02, 0.000, 0.000, 0.000, 14:40:20.223
110, 48155.00, 45798.12, -187500.02, -187500.02, -187500.02, -187500.02, -187500.02, -187500.02, 0.000, 0.000, 0.000, 14:40:20.224
111, 48510.75, 45897.56, -187500.02, -187500.02, -187500.02, -187500.02, -187500.02, -187500.02, 0.000, 0.000, 0.000, 14:40:20.224
112, 50213.66, 47439.07, -187500.02, -187500.02, -187500.02, -187500.02, -187500.02, -187500.02, 0.000, 0.000, 0.000, 14:40:20.224
113, 50561.19, 47877.52, -187500.02, -187500.02, -187500.02, -187500.02, -187500.02, -187500.02, 0.000, 0.000, 0.000, 14:40:20.224
114, 49793.07, 47265.87, -187500.02, -187500.02, -187500.02, -187500.02, -187500.02, -187500.02, 0.000, 0.000, 0.000, 14:40:20.224
115, 48145.19, 45794.95, -187500.02, -187500.02, -187500.02, -187500.02, -187500.02, -187500.02, 0.000, 0.000, 0.000, 14:40:20.224
116, 48498.32, 45891.37, -187500.02, -187500.02, -187500.02, -187500.02, -187500.02, -187500.02, 0.000, 0.000, 0.000, 14:40:20.224
117, 50205.53, 47432.90, -187500.02, -187500.02, -187500.02, -187500.02, -187500.02, -187500.02, 0.190, -0.080, 1.004, 14:40:20.224
118, 50546.08, 47862.30, -187500.02, -187500.02, -187500.02, -187500.02, -187500.02, -187500.02, 0.000, 0.000, 0.000, 14:40:20.225
119, 49775.12, 47247.63, -187500.02, -187500.02, -187500.02, -187500.02, -187500.02, -187500.02, 0.000, 0.000, 0.000, 14:40:20.225
120, 48129.65, 45783.43, -187500.02, -187500.02, -187500.02, -187500.02, -187500.02, -187500.02, 0.000, 0.000, 0.000, 14:40:20.225
121, 48483.75, 45877.36, -187500.02, -187500.02, -187500.02, -187500.02, -187500.02, -187500.02, 0.000, 0.000, 0.000, 14:40:20.225
122, 50201.99, 47424.75, -187500.02, -187500.02, -187500.02, -187500.02, -187500.02, -187500.02, 0.000, 0.000, 0.000, 14:40:20.225
123, 50546.41, 47858.95, -187500.02, -187500.02, -187500.02, -187500.02, -187500.02, -187500.02, 0.000, 0.000, 0.000, 14:40:20.225
124, 49788.46, 47261.89, -187500.02, -187500.02, -187500.02, -187500.02, -187500.02, -187500.02, 0.000, 0.000, 0.000, 14:40:20.225
125, 48116.98, 45777.11, -187500.02, -187500.02, -187500.02, -187500.02, -187500.02, -187500.02, 0.000, 0.000, 0.000, 14:40:20.225
126, 48457.20, 45854.47, -187500.02, -187500.02, -187500.02, -187500.02, -187500.02, -187500.02, 0.000, 0.000, 0.000, 14:40:20.225
127, 50206.26, 47430.76, -187500.02, -187500.02, -187500.02, -187500.02, -187500.02, -187500.02, 0.186, -0.076, 1.000, 14:40:20.226
128, 50565.70, 47876.70, -187500.02, -187500.02, -187500.02, -187500.02, -187500.02, -187500.02, 0.000, 0.000, 0.000, 14:40:20.226
129, 49800.49, 47266.43, -187500.02, -187500.02, -187500.02, -187500.02, -187500.02, -187500.02, 0.000, 0.000, 0.000, 14:40:20.226
130, 48145.72, 45795.91, -187500.02, -187500.02, -187500.02, -187500.02, -187500.02, -187500.02, 0.000, 0.000, 0.000, 14:40:20.226
131, 48469.51, 45868.77, -187500.02, -187500.02, -187500.02, -187500.02, -187500.02, -187500.02, 0.000, 0.000, 0.000, 14:40:20.226
132, 50201.19, 47432.16, -187500.02, -187500.02, -187500.02, -187500.02, -187500.02, -187500.02, 0.000, 0.000, 0.000, 14:40:20.226
133, 50563.36, 47885.28, -187500.02, -187500.02, -187500.02, -187500.02, -187500.02, -187500.02, 0.000, 0.000, 0.000, 14:40:20.226
134, 49801.32, 47275.52, -187500.02, -187500.02, -187500.02, -187500.02, -187500.02, -187500.02, 0.000, 0.000, 0.000, 14:40:20.226
135, 48124.20, 45774.34, -187500.02, -187500.02, -187500.02, -187500.02, -187500.02, -187500.02, 0.000, 0.000, 0.000, 14:40:20.226
136, 48452.57, 45844.92, -187500.02, -187500.02, -187500.02, -187500.02, -187500.02, -187500.02, 0.000, 0.000, 0.000, 14:40:20.227
137, 50209.35, 47430.00, -187500.02, -187500.02, -187500.02, -187500.02, -187500.02, -187500.02, 0.188, -0.078, 1.006, 14:40:20.227
138, 50563.91, 47870.42, -187500.02, -187500.02, -187500.02, -187500.02, -187500.02, -187500.02, 0.000, 0.000, 0.000, 14:40:20.227
139, 49805.70, 47269.11, -187500.02, -187500.02, -187500.02, -187500.02, -187500.02, -187500.02, 0.000, 0.000, 0.000, 14:40:20.227
140, 48130.77, 45782.27, -187500.02, -187500.02, -187500.02, -187500.02, -187500.02, -187500.02, 0.000, 0.000, 0.000, 14:40:20.227
141, 48443.70, 45837.14, -187500.02, -187500.02, -187500.02, -187500.02, -187500.02, -187500.02, 0.000, 0.000, 0.000, 14:40:20.227
142, 50193.37, 47409.55, -187500.02, -187500.02, -187500.02, -187500.02, -187500.02, -187500.02, 0.000, 0.000, 0.000, 14:40:20.227
143, 50574.35, 47876.34, -187500.02, -187500.02, -187500.02, -187500.02, -187500.02, -187500.02, 0.000, 0.000, 0.000, 14:40:20.227
144, 49833.61, 47295.82, -187500.02, -187500.02, -187500.02, -187500.02, -187500.02, -187500.02, 0.000, 0.000, 0.000, 14:40:20.228
145, 48177.04, 45828.68, -187500.02, -187500.02, -187500.02, -187500.02, -187500.02, -187500.02, 0.000, 0.000, 0.000, 14:40:20.228
146, 48480.46, 45879.28, -187500.02, -187500.02, -187500.02, -187500.02, -187500.02, -187500.02, 0.000, 0.000, 0.000, 14:40:20.228
147, 50221.15, 47442.87, -187500.02, -187500.02, -187500.02, -187500.02, -187500.02, -187500.02, 0.184, -0.072, 1.012, 14:40:20.228
148, 50594.63, 47904.68, -187500.02, -187500.02, -187500.02, -187500.02, -187500.02, -187500.02, 0.000, 0.000, 0.000, 14:40:20.228
149, 49837.97, 47302.48, -187500.02, -187500.02, -187500.02, -187500.02, -187500.02, -187500.02, 0.000, 0.000, 0.000, 14:40:20.228
150, 48157.30, 45804.64, -187500.02, -187500.02, -187500.02, -187500.02, -187500.02, -187500.02, 0.000, 0.000, 0.000, 14:40:20.228
151, 48439.74, 45841.26, -187500.02, -187500.02, -187500.02, -187500.02, -187500.02, -187500.02, 0.000, 0.000, 0.000, 14:40:20.228
152, 50191.27, 47416.03, -187500.02, -187500.02, -187500.02, -187500.02, -187500.02, -187500.02, 0.000, 0.000, 0.000, 14:40:20.228
153, 50581.04, 47898.82, -187500.02, -187500.02, -187500.02, -187500.02, -187500.02, -187500.02, 0.000, 0.000, 0.000, 14:40:20.229
154, 49825.88, 47301.45, -187500.02, -187500.02, -187500.02, -187500.02, -187500.02, -187500.02, 0.000, 0.000, 0.000, 14:40:20.229
155, 48156.52, 45820.94, -187500.02, -187500.02, -187500.02, -187500.02, -187500.02, -187500.02, 0.000, 0.000, 0.000, 14:40:20.229
156, 48447.27, 45863.14, -187500.02, -187500.02, -187500.02, -187500.02, -187500.02, -187500.02, 0.000, 0.000, 0.000, 14:40:20.229
157, 50209.19, 47445.38, -187500.02, -187500.02, -187500.02, -187500.02, -187500.02, -187500.02, 0.186, -0.074, 1.010, 14:40:20.229
158, 50587.20, 47900.59, -187500.02, -187500.02, -187500.02, -187500.02, -187500.02, -187500.02, 0.000, 0.000, 0.000, 14:40:20.229
159, 49853.04, 47317.79, -187500.02, -187500.02, -187500.02, -187500.02, -187500.02, -187500.02, 0.000, 0.000, 0.000, 14:40:20.229
160, 48164.50, 45824.76, -187500.02, -187500.02, -187500.02, -187500.02, -187500.02, -187500.02, 0.000, 0.000, 0.000, 14:40:20.229
161, 48433.75, 45842.02, -187500.02, -187500.02, -187500.02, -187500.02, -187500.02, -187500.02, 0.000, 0.000, 0.000, 14:40:20.230
162, 50201.61, 47431.47, -187500.02, -187500.02, -187500.02, -187500.02, -187500.02, -187500.02, 0.000, 0.000, 0.000, 14:40:20.230
163, 50595.27, 47908.46, -187500.02, -187500.02, -187500.02, -187500.02, -187500.02, -187500.02, 0.000, 0.000, 0.000, 14:40:20.230
164, 49843.07, 47313.30, -187500.02, -187500.02, -187500.02, -187500.02, -187500.02, -187500.02, 0.000, 0.000, 0.000, 14:40:20.230
165, 48164.34, 45824.47, -187500.02, -187500.02, -187500.02, -187500.02, -187500.02, -187500.02, 0.000, 0.000, 0.000, 14:40:20.230
166, 48444.70, 45854.18, -187500.02, -187500.02, -187500.02, -187500.02, -187500.02, -187500.02, 0.000, 0.000, 0.000, 14:40:20.230
167, 50209.84, 47439.09, -187500.02, -187500.02, -187500.02, -187500.02, -187500.02, -187500.02, 0.180, -0.080, 1.012, 14:40:20.230
168, 50597.33, 47909.98, -187500.02, -187500.02, -187500.02, -187500.02, -187500.02, -187500.02, 0.000, 0.000, 0.000, 14:40:20.230
169, 49860.91, 47327.43, -187500.02, -187500.02, -187500.02, -187500.02, -187500.02, -187500.02, 0.000, 0.000, 0.000, 14:40:20.231
170, 48177.89, 45834.78, -187500.02, -187500.02, -187500.02, -187500.02, -187500.02, -187500.02, 0.000, 0.000, 0.000, 14:40:20.231
171, 48424.96, 45837.52, -187500.02, -187500.02, -187500.02, -187500.02, -187500.02, -187500.02, 0.000, 0.000, 0.000, 14:40:20.231
172, 50199.74, 47431.50, -187500.02, -187500.02, -187500.02, -187500.02, -187500.02, -187500.02, 0.000, 0.000, 0.000, 14:40:20.231
173, 50598.89, 47917.76, -187500.02, -187500.02, -187500.02, -187500.02, -187500.02, -187500.02, 0.000, 0.000, 0.000, 14:40:20.231
174, 49880.69, 47351.05, -187500.02, -187500.02, -187500.02, -187500.02, -187500.02, -187500.02, 0.000, 0.000, 0.000, 14:40:20.231
175, 48214.86, 45881.34, -187500.02, -187500.02, -187500.02, -187500.02, -187500.02, -187500.02, 0.000, 0.000, 0.000, 14:40:20.231
176, 48455.85, 45868.93, -187500.02, -187500.02, -187500.02, -187500.02, -187500.02, -187500.02, 0.000, 0.000, 0.000, 14:40:20.231
177, 50210.87, 47429.35, -187500.02, -187500.02, -187500.02, -187500.02, -187500.02, -187500.02, 0.184, -0.086, 1.008, 14:40:20.231
178, 50614.20, 47923.10, -187500.02, -187500.02, -187500.02, -187500.02, -187500.02, -187500.02, 0.000, 0.000, 0.000, 14:40:20.232
179, 49878.70, 47343.74, -187500.02, -187500.02, -187500.02, -187500.02, -187500.02, -187500.02, 0.000, 0.000, 0.000, 14:40:20.232
180, 48187.43, 45840.16, -187500.02, -187500.02, -187500.02, -187500.02, -187500.02, -187500.02, 0.000, 0.000, 0.000, 14:40:20.232
181, 48411.11, 45816.29, -187500.02, -187500.02, -187500.02, -187500.02, -187500.02, -187500.02, 0.000, 0.000, 0.000, 14:40:20.232
182, 50192.09, 47408.59, -187500.02, -187500.02, -187500.02, -187500.02, -187500.02, -187500.02, 0.000, 0.000, 0.000, 14:40:20.232
183, 50601.51, 47902.40, -187500.02, -187500.02, -187500.02, -187500.02, -187500.02, -187500.02, 0.000, 0.000, 0.000, 14:40:20.232
184, 49875.43, 47322.84, -187500.02, -187500.02, -187500.02, -187500.02, -187500.02, -187500.02, 0.000, 0.000, 0.000, 14:40:20.232
185, 48179.21, 45820.02, -187500.02, -187500.02, -187500.02, -187500.02, -187500.02, -187500.02, 0.000, 0.000, 0.000, 14:40:20.232
186, 48397.43, 45798.03, -187500.02, -187500.02, -187500.02, -187500.02, -187500.02, -187500.02, 0.000, 0.000, 0.000, 14:40:20.233
187, 50190.71, 47398.62, -187500.02, -187500.02, -187500.02, -187500.02, -187500.02, -187500.02, 0.184, -0.084, 1.004, 14:40:20.233
188, 50607.36, 47903.03, -187500.02, -187500.02, -187500.02, -187500.02, -187500.02, -187500.02, 0.000, 0.000, 0.000, 14:40:20.233
189, 49892.07, 47338.49, -187500.02, -187500.02, -187500.02, -187500.02, -187500.02, -187500.02, 0.000, 0.000, 0.000, 14:40:20.233
190, 48221.36, 45857.69, -187500.02, -187500.02, -187500.02, -187500.02, -187500.02, -187500.02, 0.000, 0.000, 0.000, 14:40:20.233
191, 48411.51, 45811.87, -187500.02, -187500.02, -187500.02, -187500.02, -187500.02, -187500.02, 0.000, 0.000, 0.000, 14:40:20.233
192, 50198.42, 47408.52, -187500.02, -187500.02, -187500.02, -187500.02, -187500.02, -187500.02, 0.000, 0.000, 0.000, 14:40:20.233
193, 50644.69, 47942.21, -187500.02, -187500.02, -187500.02, -187500.02, -187500.02, -187500.02, 0.000, 0.000, 0.000, 14:40:20.235
194, 49920.23, 47372.87, -187500.02, -187500.02, -187500.02, -187500.02, -187500.02, -187500.02, 0.000, 0.000, 0.000, 14:40:20.235
195, 48200.55, 45848.03, -187500.02, -187500.02, -187500.02, -187500.02, -187500.02, -187500.02, 0.000, 0.000, 0.000, 14:40:20.235
196, 48387.03, 45796.55, -187500.02, -187500.02, -187500.02, -187500.02, -187500.02, -187500.02, 0.000, 0.000, 0.000, 14:40:20.235
197, 50188.34, 47410.53, -187500.02, -187500.02, -187500.02, -187500.02, -187500.02, -187500.02, 0.184, -0.080, 1.008, 14:40:20.235
198, 50629.74, 47926.14, -187500.02, -187500.02, -187500.02, -187500.02, -187500.02, -187500.02, 0.000, 0.000, 0.000, 14:40:20.235
199, 49921.75, 47360.13, -187500.02, -187500.02, -187500.02, -187500.02, -187500.02, -187500.02, 0.000, 0.000, 0.000, 14:40:20.235
200, 48209.67, 45841.55, -187500.02, -187500.02, -187500.02, -187500.02, -187500.02, -187500.02, 0.000, 0.000, 0.000, 14:40:20.236
201, 48411.38, 45806.43, -187500.02, -187500.02, -187500.02, -187500.02, -187500.02, -187500.02, 0.000, 0.000, 0.000, 14:40:20.236
202, 50210.49, 47415.85, -187500.02, -187500.02, -187500.02, -187500.02, -187500.02, -187500.02, 0.000, 0.000, 0.000, 14:40:20.236
203, 50632.60, 47921.63, -187500.02, -187500.02, -187500.02, -187500.02, -187500.02, -187500.02, 0.000, 0.000, 0.000, 14:40:20.236
204, 49899.02, 47336.70, -187500.02, -187500.02, -187500.02, -187500.02, -187500.02, -187500.02, 0.000, 0.000, 0.000, 14:40:20.236
205, 48203.52, 45834.55, -187500.02, -187500.02, -187500.02, -187500.02, -187500.02, -187500.02, 0.000, 0.000, 0.000, 14:40:20.236
206, 48403.10, 45798.01, -187500.02, -187500.02, -187500.02, -187500.02, -187500.02, -187500.02, 0.000, 0.000, 0.000, 14:40:20.236
207, 50191.89, 47397.68, -187500.02, -187500.02, -187500.02, -187500.02, -187500.02, -187500.02, 0.180, -0.082, 1.006, 14:40:20.237
208, 50640.80, 47934.43, -187500.02, -187500.02, -187500.02, -187500.02, -187500.02, -187500.02, 0.000, 0.000, 0.000, 14:40:20.237
209, 49906.84, 47346.45, -187500.02, -187500.02, -187500.02, -187500.02, -187500.02, -187500.02, 0.000, 0.000, 0.000, 14:40:20.237
210, 48208.46, 45842.06, -187500.02, -187500.02, -187500.02, -187500.02, -187500.02, -187500.02, 0.000, 0.000, 0.000, 14:40:20.237
211, 48398.41, 45794.45, -187500.02, -187500.02, -187500.02, -187500.02, -187500.02, -187500.02, 0.000, 0.000, 0.000, 14:40:20.237
213, 50656.81, 47932.62, -187500.02, -187500.02, -187500.02, -187500.02, -187500.02, -187500.02, 0.000, 0.000, 0.000, 14:40:20.237
214, 49937.59, 47362.09, -187500.02, -187500.02, -187500.02, -187500.02, -187500.02, -187500.02, 0.000, 0.000, 0.000, 14:40:20.237
215, 48230.73, 45848.43, -187500.02, -187500.02, -187500.02, -187500.02, -187500.02, -187500.02, 0.000, 0.000, 0.000, 14:40:20.238
216, 48366.89, 45756.43, -187500.02, -187500.02, -187500.02, -187500.02, -187500.02, -187500.02, 0.000, 0.000, 0.000, 14:40:20.238
217, 50178.19, 47375.15, -187500.02, -187500.02, -187500.02, -187500.02, -187500.02, -187500.02, 0.178, -0.074, 1.008, 14:40:20.238
218, 50641.03, 47916.17, -187500.02, -187500.02, -187500.02, -187500.02, -187500.02, -187500.02, 0.000, 0.000, 0.000, 14:40:20.238
219, 49934.02, 47356.21, -187500.02, -187500.02, -187500.02, -187500.02, -187500.02, -187500.02, 0.000, 0.000, 0.000, 14:40:20.238
220, 48229.99, 45851.68, -187500.02, -187500.02, -187500.02, -187500.02, -187500.02, -187500.02, 0.000, 0.000, 0.000, 14:40:20.238
221, 48375.54, 45767.00, -187500.02, -187500.02, -187500.02, -187500.02, -187500.02, -187500.02, 0.000, 0.000, 0.000, 14:40:20.238
222, 50197.97, 47392.04, -187500.02, -187500.02, -187500.02, -187500.02, -187500.02, -187500.02, 0.000, 0.000, 0.000, 14:40:20.238
223, 50665.50, 47937.07, -187500.02, -187500.02, -187500.02, -187500.02, -187500.02, -187500.02, 0.000, 0.000, 0.000, 14:40:20.238
224, 49947.16, 47366.50, -187500.02, -187500.02, -187500.02, -187500.02, -187500.02, -187500.02, 0.000, 0.000, 0.000, 14:40:20.239
225, 48251.67, 45865.58, -187500.02, -187500.02, -187500.02, -187500.02, -187500.02, -187500.02, 0.000, 0.000, 0.000, 14:40:20.703
226, 48386.90, 45772.08, -187500.02, -187500.02, -187500.02, -187500.02, -187500.02, -187500.02, 0.000, 0.000, 0.000, 14:40:20.704
227, 50190.48, 47377.29, -187500.02, -187500.02, -187500.02, -187500.02, -187500.02, -187500.02, 0.184, -0.070, 1.000, 14:40:20.704
228, 50658.57, 47927.59, -187500.02, -187500.02, -187500.02, -187500.02, -187500.02, -187500.02, 0.000, 0.000, 0.000, 14:40:20.704
229, 49963.57, 47377.83, -187500.02, -187500.02, -187500.02, -187500.02, -187500.02, -187500.02, 0.000, 0.000, 0.000, 14:40:20.704
230, 48257.71, 45874.70, -187500.02, -187500.02, -187500.02, -187500.02, -187500.02, -187500.02, 0.000, 0.000, 0.000, 14:40:20.704
231, 48397.02, 45781.24, -187500.02, -187500.02, -187500.02, -187500.02, -187500.02, -187500.02, 0.000, 0.000, 0.000, 14:40:20.704
232, 50217.21, 47403.11, -187500.02, -187500.02, -187500.02, -187500.02, -187500.02, -187500.02, 0.000, 0.000, 0.000, 14:40:20.704
233, 50679.32, 47949.34, -187500.02, -187500.02, -187500.02, -187500.02, -187500.02, -187500.02, 0.000, 0.000, 0.000, 14:40:20.704
234, 49984.49, 47408.18, -187500.02, -187500.02, -187500.02, -187500.02, -187500.02, -187500.02, 0.000, 0.000, 0.000, 14:40:20.705
235, 48280.86, 45896.91, -187500.02, -187500.02, -187500.02, -187500.02, -187500.02, -187500.02, 0.000, 0.000, 0.000, 14:40:20.705
236, 48401.14, 45782.92, -187500.02, -187500.02, -187500.02, -187500.02, -187500.02, -187500.02, 0.178, -0.072, 1.002, 14:40:20.705
237, 50210.75, 47391.24, -187500.02, -187500.02, -187500.02, -187500.02, -187500.02, -187500.02, 0.000, 0.000, 0.000, 14:40:20.705
238, 50694.27, 47947.15, -187500.02, -187500.02, -187500.02, -187500.02, -187500.02, -187500.02, 0.000, 0.000, 0.000, 14:40:20.705
239, 49989.77, 47394.30, -187500.02, -187500.02, -187500.02, -187500.02, -187500.02, -187500.02, 0.000, 0.000, 0.000, 14:40:20.705
240, 48279.32, 45887.08, -187500.02, -187500.02, -187500.02, -187500.02, -187500.02, -187500.02, 0.000, 0.000, 0.000, 14:40:20.705
241, 48390.52, 45764.88, -187500.02, -187500.02, -187500.02, -187500.02, -187500.02, -187500.02, 0.000, 0.000, 0.000, 14:40:20.705
242, 50221.82, 47389.47, -187500.02, -187500.02, -187500.02, -187500.02, -187500.02, -187500.02, 0.000, 0.000, 0.000, 14:40:20.705
243, 50691.25, 47941.52, -187500.02, -187500.02, -187500.02, -187500.02, -187500.02, -187500.02, 0.000, 0.000, 0.000, 14:40:20.706
244, 50038.82, 47426.15, -187500.02, -187500.02, -187500.02, -187500.02, -187500.02, -187500.02, 0.000, 0.000, 0.000, 14:40:20.706
245, 48328.63, 45920.94, -187500.02, -187500.02, -187500.02, -187500.02, -187500.02, -187500.02, 0.000, 0.000, 0.000, 14:40:20.706
246, 48409.81, 45777.18, -187500.02, -187500.02, -187500.02, -187500.02, -187500.02, -187500.02, 0.182, -0.076, 1.010, 14:40:20.706
247, 50209.41, 47370.23, -187500.02, -187500.02, -187500.02, -187500.02, -187500.02, -187500.02, 0.000, 0.000, 0.000, 14:40:20.706
248, 50695.50, 47936.09, -187500.02, -187500.02, -187500.02, -187500.02, -187500.02, -187500.02, 0.000, 0.000, 0.000, 14:40:20.706
249, 50034.29, 47418.29, -187500.02, -187500.02, -187500.02, -187500.02, -187500.02, -187500.02, 0.000, 0.000, 0.000, 14:40:20.706
250, 48337.34, 45919.13, -187500.02, -187500.02, -187500.02, -187500.02, -187500.02, -187500.02, 0.000, 0.000, 0.000, 14:40:20.707
251, 48413.54, 45766.38, -187500.02, -187500.02, -187500.02, -187500.02, -187500.02, -187500.02, 0.000, 0.000, 0.000, 14:40:20.707
252, 50232.32, 47380.20, -187500.02, -187500.02, -187500.02, -187500.02, -187500.02, -187500.02, 0.000, 0.000, 0.000, 14:40:20.707
253, 50700.71, 47929.78, -187500.02, -187500.02, -187500.02, -187500.02, -187500.02, -187500.02, 0.000, 0.000, 0.000, 14:40:20.707
254, 50010.39, 47390.66, -187500.02, -187500.02, -187500.02, -187500.02, -187500.02, -187500.02, 0.000, 0.000, 0.000, 14:40:20.707
255, 48336.47, 45914.37, -187500.02, -187500.02, -187500.02, -187500.02, -187500.02, -187500.02, 0.000, 0.000, 0.000, 14:40:20.707
0, 48425.39, 45771.97, -187500.02, -187500.02, -187500.02, -187500.02, -187500.02, -187500.02, 0.184, -0.072, 1.006, 14:40:20.707
1, 50233.89, 47374.95, -187500.02, -187500.02, -187500.02, -187500.02, -187500.02, -187500.02, 0.000, 0.000, 0.000, 14:40:20.707
2, 50742.06, 47956.58, -187500.02, -187500.02, -187500.02, -187500.02, -187500.02, -187500.02, 0.000, 0.000, 0.000, 14:40:20.707
3, 50075.77, 47428.30, -187500.02, -187500.02, -187500.02, -187500.02, -187500.02, -187500.02, 0.000, 0.000, 0.000, 14:40:20.708
4, 48364.52, 45924.32, -187500.02, -187500.02, -187500.02, -187500.02, -187500.02, -187500.02, 0.000, 0.000, 0.000, 14:40:20.708
5, 48430.17, 45771.66, -187500.02, -187500.02, -187500.02, -187500.02, -187500.02, -187500.02, 0.000, 0.000, 0.000, 14:40:20.708
6, 50245.58, 47386.01, -187500.02, -187500.02, -187500.02, -187500.02, -187500.02, -187500.02, 0.000, 0.000, 0.000, 14:40:20.708
7, 50734.52, 47953.63, -187500.02, -187500.02, -187500.02, -187500.02, -187500.02, -187500.02, 0.000, 0.000, 0.000, 14:40:20.708
8, 50076.76, 47438.02, -187500.02, -187500.02, -187500.02, -187500.02, -187500.02, -187500.02, 0.000, 0.000, 0.000, 14:40:20.708
9, 48373.18, 45938.38, -187500.02, -187500.02, -187500.02, -187500.02, -187500.02, -187500.02, 0.000, 0.000, 0.000, 14:40:20.708
10, 48431.04, 45769.44, -187500.02, -187500.02, -187500.02, -187500.02, -187500.02, -187500.02, 0.184, -0.082, 1.002, 14:40:20.708
11, 50248.57, 47379.86, -187500.02, -187500.02, -187500.02, -187500.02, -187500.02, -187500.02, 0.000, 0.000, 0.000, 14:40:20.709
12, 50758.06, 47967.49, -187500.02, -187500.02, -187500.02, -187500.02, -187500.02, -187500.02, 0.000, 0.000, 0.000, 14:40:20.709
13, 50102.13, 47448.59, -187500.02, -187500.02, -187500.02, -187500.02, -187500.02, -187500.02, 0.000, 0.000, 0.000, 14:40:20.709
14, 48409.88, 45957.73, -187500.02, -187500.02, -187500.02, -187500.02, -187500.02, -187500.02, 0.000, 0.000, 0.000, 14:40:20.709
15, 48459.18, 45781.00, -187500.02, -187500.02, -187500.02, -187500.02, -187500.02, -187500.02, 0.000, 0.000, 0.000, 14:40:20.709
16, 50269.14, 47383.82, -187500.02, -187500.02, -187500.02, -187500.02, -187500.02, -187500.02, 0.000, 0.000, 0.000, 14:40:20.709
17, 50782.63, 47978.15, -187500.02, -187500.02, -187500.02, -187500.02, -187500.02, -187500.02, 0.000, 0.000, 0.000, 14:40:20.709
18, 50127.03, 47461.34, -187500.02, -187500.02, -187500.02, -187500.02, -187500.02, -187500.02, 0.000, 0.000, 0.000, 14:40:20.709
19, 48463.34, 45996.31, -187500.02, -187500.02, -187500.02, -187500.02, -187500.02, -187500.02, 0.000, 0.000, 0.000, 14:40:20.709
20, 48490.12, 45801.58, -187500.02, -187500.02, -187500.02, -187500.02, -187500.02, -187500.02, 0.188, -0.074, 1.004, 14:40:20.710
21, 50295.65, 47393.21, -187500.02, -187500.02, -187500.02, -187500.02, -187500.02, -187500.02, 0.000, 0.000, 0.000, 14:40:20.710
22, 50798.99, 47980.79, -187500.02, -187500.02, -187500.02, -187500.02, -187500.02, -187500.02, 0.000, 0.000, 0.000, 14:40:20.710
23, 50149.98, 47480.11, -187500.02, -187500.02, -187500.02, -187500.02, -187500.02, -187500.02, 0.000, 0.000, 0.000, 14:40:20.710
24, 48467.92, 45998.35, -187500.02, -187500.02, -187500.02, -187500.02, -187500.02, -187500.02, 0.000, 0.000, 0.000, 14:40:20.710
25, 48482.21, 45790.77, -187500.02, -187500.02, -187500.02, -187500.02, -187500.02, -187500.02, 0.000, 0.000, 0.000, 14:40:20.710
26, 50305.08, 47403.62, -187500.02, -187500.02, -187500.02, -187500.02, -187500.02, -187500.02, 0.000, 0.000, 0.000, 14:40:20.710
27, 50816.82, 47992.90, -187500.02, -187500.02, -187500.02, -187500.02, -187500.02, -187500.02, 0.000, 0.000, 0.000, 14:40:20.710
28, 50168.67, 47483.22, -187500.02, -187500.02, -187500.02, -187500.02, -187500.02, -187500.02, 0.000, 0.000, 0.000, 14:40:20.711
29, 48467.66, 45993.16, -187500.02, -187500.02, -187500.02, -187500.02, -187500.02, -187500.02, 0.000, 0.000, 0.000, 14:40:20.711
30, 48483.97, 45791.75, -187500.02, -187500.02, -187500.02, -187500.02, -187500.02, -187500.02, 0.186, -0.074, 1.008, 14:40:20.711
31, 50299.87, 47387.69, -187500.02, -187500.02, -187500.02, -187500.02, -187500.02, -187500.02, 0.000, 0.000, 0.000, 14:40:20.711
32, 50826.37, 47996.14, -187500.02, -187500.02, -187500.02, -187500.02, -187500.02, -187500.02, 0.000, 0.000, 0.000, 14:40:20.711
33, 50195.29, 47507.83, -187500.02, -187500.02, -187500.02, -187500.02, -187500.02, -187500.02, 0.000, 0.000, 0.000, 14:40:20.711
34, 48507.29, 46025.66, -187500.02, -187500.02, -187500.02, -187500.02, -187500.02, -187500.02, 0.000, 0.000, 0.000, 14:40:20.711
35, 48500.54, 45802.88, -187500.02, -187500.02, -187500.02, -187500.02, -187500.02, -187500.02, 0.000, 0.000, 0.000, 14:40:20.711
36, 50321.06, 47401.01, -187500.02, -187500.02, -187500.02, -187500.02, -187500.02, -187500.02, 0.000, 0.000, 0.000, 14:40:20.711
37, 50845.93, 48008.04, -187500.02, -187500.02, -187500.02, -187500.02, -187500.02, -187500.02, 0.000, 0.000, 0.000, 14:40:20.712
38, 50186.39, 47491.75, -187500.02, -187500.02, -187500.02, -187500.02, -187500.02, -187500.02, 0.000, 0.000, 0.000, 14:40:20.712
39, 48515.27, 46028.39, -187500.02, -187500.02, -187500.02, -187500.02, -187500.02, -187500.02, 0.000, 0.000, 0.000, 14:40:20.712
40, 48525.19, 45820.65, -187500.02, -187500.02, -187500.02, -187500.02, -187500.02, -187500.02, 0.186, -0.078, 1.008, 14:40:20.712
41, 50373.32, 47449.36, -187500.02, -187500.02, -187500.02, -187500.02, -187500.02, -187500.02, 0.000, 0.000, 0.000, 14:40:20.712
42, 50911.35, 48065.77, -187500.02, -187500.02, -187500.02, -187500.02, -187500.02, -187500.02, 0.000, 0.000, 0.000, 14:40:20.712
43, 50276.45, 47570.68, -187500.02, -187500.02, -187500.02, -187500.02, -187500.02, -187500.02, 0.000, 0.000, 0.000, 14:40:20.712
44, 48565.33, 46066.07, -187500.02, -187500.02, -187500.02, -187500.02, -187500.02, -187500.02, 0.000, 0.000, 0.000, 14:40:20.712
45, 48525.88, 45804.85, -187500.02, -187500.02, -187500.02, -187500.02, -187500.02, -187500.02, 0.000, 0.000, 0.000, 14:40:20.713
46, 50340.22, 47399.87, -187500.02, -187500.02, -187500.02, -187500.02, -187500.02, -187500.02, 0.000, 0.000, 0.000, 14:40:20.713
47, 50870.40, 48002.89, -187500.02, -187500.02, -187500.02, -187500.02, -187500.02, -187500.02, 0.000, 0.000, 0.000, 14:40:20.713
48, 50239.23, 47508.70, -187500.02, -187500.02, -187500.02, -187500.02, -187500.02, -187500.02, 0.000, 0.000, 0.000, 14:40:20.713
49, 48566.67, 46055.05, -187500.02, -187500.02, -187500.02, -187500.02, -187500.02, -187500.02, 0.000, 0.000, 0.000, 14:40:20.713
50, 48527.71, 45801.00, -187500.02, -187500.02, -187500.02, -187500.02, -187500.02, -187500.02, 0.188, -0.074, 1.006, 14:40:20.713
51, 50344.93, 47394.55, -187500.02, -187500.02, -187500.02, -187500.02, -187500.02, -187500.02, 0.000, 0.000, 0.000, 14:40:20.713
52, 50898.59, 48025.31, -187500.02, -187500.02, -187500.02, -187500.02, -187500.02, -187500.02, 0.000, 0.000, 0.000, 14:40:20.713
53, 50268.91, 47535.43, -187500.02, -187500.02, -187500.02, -187500.02, -187500.02, -187500.02, 0.000, 0.000, 0.000, 14:40:20.713
54, 48573.96, 46046.27, -187500.02, -187500.02, -187500.02, -187500.02, -187500.02, -187500.02, 0.000, 0.000, 0.000, 14:40:20.714
55, 48512.58, 45764.93, -187500.02, -187500.02, -187500.02, -187500.02, -187500.02, -187500.02, 0.000, 0.000, 0.000, 14:40:20.714
56, 50340.80, 47371.46, -187500.02, -187500.02, -187500.02, -187500.02, -187500.02, -187500.02, 0.000, 0.000, 0.000, 14:40:20.714
57, 50919.57, 48025.27, -187500.02, -187500.02, -187500.02, -187500.02, -187500.02, -187500.02, 0.000, 0.000, 0.000, 14:40:20.714
58, 50314.98, 47556.04, -187500.02, -187500.02, -187500.02, -187500.02, -187500.02, -187500.02, 0.000, 0.000, 0.000, 14:40:20.714
59, 48603.66, 46063.05, -187500.02, -187500.02, -187500.02, -187500.02, -187500.02, -187500.02, 0.000, 0.000, 0.000, 14:40:20.714
60, 48534.26, 45789.74, -187500.02, -187500.02, -187500.02, -187500.02, -187500.02, -187500.02, 0.182, -0.078, 1.012, 14:40:20.714
61, 50350.75, 47382.86, -187500.02, -187500.02, -187500.02, -187500.02, -187500.02, -187500.02, 0.000, 0.000, 0.000, 14:40:20.714
62, 50905.96, 48013.09, -187500.02, -187500.02, -187500.02, -187500.02, -187500.02, -187500.02, 0.000, 0.000, 0.000, 14:40:20.715
63, 50293.90, 47538.89, -187500.02, -187500.02, -187500.02, -187500.02, -187500.02, -187500.02, 0.000, 0.000, 0.000, 14:40:20.715
64, 48597.16, 46054.34, -187500.02, -187500.02, -187500.02, -187500.02, -187500.02, -187500.02, 0.000, 0.000, 0.000, 14:40:20.715
65, 48506.82, 45754.00, -187500.02, -187500.02, -187500.02, -187500.02, -187500.02, -187500.02, 0.000, 0.000, 0.000, 14:40:20.715
66, 50332.48, 47350.18, -187500.02, -187500.02, -187500.02, -187500.02, -187500.02, -187500.02, 0.000, 0.000, 0.000, 14:40:20.715
67, 50921.03, 48011.43, -187500.02, -187500.02, -187500.02, -187500.02, -187500.02, -187500.02, 0.000, 0.000, 0.000, 14:40:20.715
68, 50295.36, 47519.83, -187500.02, -187500.02, -187500.02, -187500.02, -187500.02, -187500.02, 0.000, 0.000, 0.000, 14:40:20.715
69, 48620.65, 46058.07, -187500.02, -187500.02, -187500.02, -187500.02, -187500.02, -187500.02, 0.000, 0.000, 0.000, 14:40:20.716
70, 48525.32, 45757.77, -187500.02, -187500.02, -187500.02, -187500.02, -187500.02, -187500.02, 0.182, -0.080, 1.014, 14:40:20.716
71, 50357.18, 47365.54, -187500.02, -187500.02, -187500.02, -187500.02, -187500.02, -187500.02, 0.000, 0.000, 0.000, 14:40:20.716
72, 50948.14, 48033.03, -187500.02, -187500.02, -187500.02, -187500.02, -187500.02, -187500.02, 0.000, 0.000, 0.000, 14:40:20.716
73, 50341.13, 47565.88, -187500.02, -187500.02, -187500.02, -187500.02, -187500.02, -187500.02, 0.000, 0.000, 0.000, 14:40:20.716
74, 48648.82, 46085.14, -187500.02, -187500.02, -187500.02, -187500.02, -187500.02, -187500.02, 0.000, 0.000, 0.000, 14:40:20.716
75, 48529.64, 45756.90, -187500.02, -187500.02, -187500.02, -187500.02, -187500.02, -187500.02, 0.000, 0.000, 0.000, 14:40:20.716
76, 50361.56, 47356.89, -187500.02, -187500.02, -187500.02, -187500.02, -187500.02, -187500.02, 0.000, 0.000, 0.000, 14:40:20.716
77, 50936.79, 48002.11, -187500.02, -187500.02, -187500.02, -187500.02, -187500.02, -187500.02, 0.000, 0.000, 0.000, 14:40:20.716
78, 50326.52, 47533.53, -187500.02, -187500.02, -187500.02, -187500.02, -187500.02, -187500.02, 0.000, 0.000, 0.000, 14:40:20.717
79, 48638.29, 46060.48, -187500.02, -187500.02, -187500.02, -187500.02, -187500.02, -187500.02, 0.000, 0.000, 0.000, 14:40:20.717
80, 48518.57, 45733.01, -187500.02, -187500.02, -187500.02, -187500.02, -187500.02, -187500.02, 0.188, -0.080, 1.014, 14:40:20.717
81, 50355.80, 47335.90, -187500.02, -187500.02, -187500.02, -187500.02, -187500.02, -187500.02, 0.000, 0.000, 0.000, 14:40:20.717
82, 50953.50, 48004.46, -187500.02, -187500.02, -187500.02, -187500.02, -187500.02, -187500.02, 0.000, 0.000, 0.000, 14:40:20.717
83, 50337.87, 47523.72, -187500.02, -187500.02, -187500.02, -187500.02, -187500.02, -187500.02, 0.000, 0.000, 0.000, 14:40:20.717
84, 48639.09, 46046.13, -187500.02, -187500.02, -187500.02, -187500.02, -187500.02, -187500.02, 0.000, 0.000, 0.000, 14:40:20.717
85, 48502.14, 45707.71, -187500.02, -187500.02, -187500.02, -187500.02, -187500.02, -187500.02, 0.000, 0.000, 0.000, 14:40:20.717
86, 50319.52, 47294.52, -187500.02, -187500.02, -187500.02, -187500.02, -187500.02, -187500.02, 0.000, 0.000, 0.000, 14:40:20.717
87, 50916.00, 47966.48, -187500.02, -187500.02, -187500.02, -187500.02, -187500.02, -187500.02, 0.000, 0.000, 0.000, 14:40:20.718
88, 50304.54, 47499.94, -187500.02, -187500.02, -187500.02, -187500.02, -187500.02, -187500.02, 0.000, 0.000, 0.000, 14:40:20.718
89, 48614.68, 46026.96, -187500.02, -187500.02, -187500.02, -187500.02, -187500.02, -187500.02, 0.000, 0.000, 0.000, 14:40:20.718
90, 48479.50, 45689.22, -187500.02, -187500.02, -187500.02, -187500.02, -187500.02, -187500.02, 0.186, -0.080, 1.016, 14:40:21.184
91, 50306.58, 47284.76, -187500.02, -187500.02, -187500.02, -187500.02, -187500.02, -187500.02, 0.000, 0.000, 0.000, 14:40:21.184
92, 50901.34, 47949.59, -187500.02, -187500.02, -187500.02, -187500.02, -187500.02, -187500.02, 0.000, 0.000, 0.000, 14:40:21.184
93, 50315.59, 47494.28, -187500.02, -187500.02, -187500.02, -187500.02, -187500.02, -187500.02, 0.000, 0.000, 0.000, 14:40:21.184
94, 48624.56, 46025.59, -187500.02, -187500.02, -187500.02, -187500.02, -187500.02, -187500.02, 0.000, 0.000, 0.000, 14:40:21.184
95, 48470.88, 45662.11, -187500.02, -187500.02, -187500.02, -187500.02, -187500.02, -187500.02, 0.000, 0.000, 0.000, 14:40:21.184
96, 50272.51, 47233.88, -187500.02, -187500.02, -187500.02, -187500.02, -187500.02, -187500.02, 0.000, 0.000, 0.000, 14:40:21.185
97, 50879.18, 47920.42, -187500.02, -187500.02, -187500.02, -187500.02, -187500.02, -187500.02, 0.000, 0.000, 0.000, 14:40:21.185
98, 50308.72, 47485.88, -187500.02, -187500.02, -187500.02, -187500.02, -187500.02, -187500.02, 0.000, 0.000, 0.000, 14:40:21.185
99, 48636.63, 46032.21, -187500.02, -187500.02, -187500.02, -187500.02, -187500.02, -187500.02, 0.000, 0.000, 0.000, 14:40:21.185
100, 48460.21, 45655.87, -187500.02, -187500.02, -187500.02, -187500.02, -187500.02, -187500.02, 0.184, -0.078, 1.014, 14:40:21.185
101, 50265.81, 47226.69, -187500.02, -187500.02, -187500.02, -187500.02, -187500.02, -187500.02, 0.000, 0.000, 0.000, 14:40:21.185
102, 50876.73, 47910.58, -187500.02, -187500.02, -187500.02, -187500.02, -187500.02, -187500.02, 0.000, 0.000, 0.000, 14:40:21.185
103, 50300.39, 47468.11, -187500.02, -187500.02, -187500.02, -187500.02, -187500.02, -187500.02, 0.000, 0.000, 0.000, 14:40:21.185
104, 48611.40, 45994.77, -187500.02, -187500.02, -187500.02, -187500.02, -187500.02, -187500.02, 0.000, 0.000, 0.000, 14:40:21.185
105, 48419.44, 45600.75, -187500.02, -187500.02, -187500.02, -187500.02, -187500.02, -187500.02, 0.000, 0.000, 0.000, 14:40:21.186
106, 50247.75, 47190.77, -187500.02, -187500.02, -187500.02, -187500.02, -187500.02, -187500.02, 0.000, 0.000, 0.000, 14:40:21.186
107, 50881.31, 47894.80, -187500.02, -187500.02, -187500.02, -187500.02, -187500.02, -187500.02, 0.000, 0.000, 0.000, 14:40:21.186
108, 50292.63, 47434.89, -187500.02, -187500.02, -187500.02, -187500.02, -187500.02, -187500.02, 0.000, 0.000, 0.000, 14:40:21.186
109, 48617.37, 45980.71, -187500.02, -187500.02, -187500.02, -187500.02, -187500.02, -187500.02, 0.184, -0.080, 1.008, 14:40:21.186
110, 48429.52, 45596.57, -187500.02, -187500.02, -187500.02, -187500.02, -187500.02, -187500.02, 0.000, 0.000, 0.000, 14:40:21.186
111, 50234.61, 47160.37, -187500.02, -187500.02, -187500.02, -187500.02, -187500.02, -187500.02, 0.000, 0.000, 0.000, 14:40:21.186
112, 50866.04, 47860.71, -187500.02, -187500.02, -187500.02, -187500.02, -187500.02, -187500.02, 0.000, 0.000, 0.000, 14:40:21.186
113, 50289.34, 47421.08, -187500.02, -187500.02, -187500.02, -187500.02, -187500.02, -187500.02, 0.000, 0.000, 0.000, 14:40:21.187
114, 48583.21, 45940.07, -187500.02, -187500.02, -187500.02, -187500.02, -187500.02, -187500.02, 0.000, 0.000, 0.000, 14:40:21.187
115, 48390.88, 45543.53, -187500.02, -187500.02, -187500.02, -187500.02, -187500.02, -187500.02, 0.000, 0.000, 0.000, 14:40:21.187
116, 50222.67, 47128.61, -187500.02, -187500.02, -187500.02, -187500.02, -187500.02, -187500.02, 0.000, 0.000, 0.000, 14:40:21.187
117, 50869.20, 47846.32, -187500.02, -187500.02, -187500.02, -187500.02, -187500.02, -187500.02, 0.000, 0.000, 0.000, 14:40:21.187
118, 50293.30, 47410.71, -187500.02, -187500.02, -187500.02, -187500.02, -187500.02, -187500.02, 0.000, 0.000, 0.000, 14:40:21.187
119, 48607.04, 45946.89, -187500.02, -187500.02, -187500.02, -187500.02, -187500.02, -187500.02, 0.182, -0.080, 1.014, 14:40:21.187
120, 48398.68, 45537.52, -187500.02, -187500.02, -187500.02, -187500.02, -187500.02, -187500.02, 0.000, 0.000, 0.000, 14:40:21.188
121, 50202.57, 47098.41, -187500.02, -187500.02, -187500.02, -187500.02, -187500.02, -187500.02, 0.000, 0.000, 0.000, 14:40:21.188
122, 50827.86, 47797.93, -187500.02, -187500.02, -187500.02, -187500.02, -187500.02, -187500.02, 0.000, 0.000, 0.000, 14:40:21.188
123, 50233.51, 47341.51, -187500.02, -187500.02, -187500.02, -187500.02, -187500.02, -187500.02, 0.000, 0.000, 0.000, 14:40:21.188
124, 48548.52, 45879.37, -187500.02, -187500.02, -187500.02, -187500.02, -187500.02, -187500.02, 0.000, 0.000, 0.000, 14:40:21.188
125, 48346.55, 45482.18, -187500.02, -187500.02, -187500.02, -187500.02, -187500.02, -187500.02, 0.000, 0.000, 0.000, 14:40:21.188
126, 50163.06, 47048.25, -187500.02, -187500.02, -187500.02, -187500.02, -187500.02, -187500.02, 0.000, 0.000, 0.000, 14:40:21.188
127, 50797.98, 47753.96, -187500.02, -187500.02, -187500.02, -187500.02, -187500.02, -187500.02, 0.000, 0.000, 0.000, 14:40:21.188
128, 50233.15, 47331.98, -187500.02, -187500.02, -187500.02, -187500.02, -187500.02, -187500.02, 0.000, 0.000, 0.000, 14:40:21.188
129, 48572.44, 45890.99, -187500.02, -187500.02, -187500.02, -187500.02, -187500.02, -187500.02, 0.190, -0.080, 1.012, 14:40:21.189
130, 48338.51, 45458.66, -187500.02, -187500.02, -187500.02, -187500.02, -187500.02, -187500.02, 0.000, 0.000, 0.000, 14:40:21.189
131, 50147.50, 47030.37, -187500.02, -187500.02, -187500.02, -187500.02, -187500.02, -187500.02, 0.000, 0.000, 0.000, 14:40:21.189
132, 50782.16, 47729.64, -187500.02, -187500.02, -187500.02, -187500.02, -187500.02, -187500.02, 0.000, 0.000, 0.000, 14:40:21.189
133, 50222.04, 47298.97, -187500.02, -187500.02, -187500.02, -187500.02, -187500.02, -187500.02, 0.000, 0.000, 0.000, 14:40:21.189
134, 48551.18, 45849.77, -187500.02, -187500.02, -187500.02, -187500.02, -187500.02, -187500.02, 0.000, 0.000, 0.000, 14:40:21.189
135, 48285.27, 45400.55, -187500.02, -187500.02, -187500.02, -187500.02, -187500.02, -187500.02, 0.000, 0.000, 0.000, 14:40:21.189
136, 50109.86, 46977.84, -187500.02, -187500.02, -187500.02, -187500.02, -187500.02, -187500.02, 0.000, 0.000, 0.000, 14:40:21.189
137, 50762.69, 47704.12, -187500.02, -187500.02, -187500.02, -187500.02, -187500.02, -187500.02, 0.000, 0.000, 0.000, 14:40:21.189
138, 50211.11, 47286.75, -187500.02, -187500.02, -187500.02, -187500.02, -187500.02, -187500.02, 0.000, 0.000, 0.000, 14:40:21.190
139, 48542.69, 45835.80, -187500.02, -187500.02, -187500.02, -187500.02, -187500.02, -187500.02, 0.182, -0.080, 1.006, 14:40:21.190
140, 48278.43, 45388.77, -187500.02, -187500.02, -187500.02, -187500.02, -187500.02, -187500.02, 0.000, 0.000, 0.000, 14:40:21.190
141, 50092.71, 46958.42, -187500.02, -187500.02, -187500.02, -187500.02, -187500.02, -187500.02, 0.000, 0.000, 0.000, 14:40:21.190
142, 50752.67, 47689.19, -187500.02, -187500.02, -187500.02, -187500.02, -187500.02, -187500.02, 0.000, 0.000, 0.000, 14:40:21.190
143, 50185.18, 47254.00, -187500.02, -187500.02, -187500.02, -187500.02, -187500.02, -187500.02, 0.000, 0.000, 0.000, 14:40:21.190
144, 48512.00, 45799.17, -187500.02, -187500.02, -187500.02, -187500.02, -187500.02, -187500.02, 0.000, 0.000, 0.000, 14:40:21.190
145, 48242.59, 45346.39, -187500.02, -187500.02, -187500.02, -187500.02, -187500.02, -187500.02, 0.000, 0.000, 0.000, 14:40:21.190
146, 50064.44, 46918.50, -187500.02, -187500.02, -187500.02, -187500.02, -187500.02, -187500.02, 0.000, 0.000, 0.000, 14:40:21.191
147, 50721.67, 47652.42, -187500.02, -187500.02, -187500.02, -187500.02, -187500.02, -187500.02, 0.000, 0.000, 0.000, 14:40:21.191
148, 50182.97, 47246.63, -187500.02, -187500.02, -187500.02, -187500.02, -187500.02, -187500.02, 0.000, 0.000, 0.000, 14:40:21.191
149, 48525.48, 45807.84, -187500.02, -187500.02, -187500.02, -187500.02, -187500.02, -187500.02, 0.184, -0.076, 1.008, 14:40:21.191
150, 48243.07, 45343.48, -187500.02, -187500.02, -187500.02, -187500.02, -187500.02, -187500.02, 0.000, 0.000, 0.000, 14:40:21.191
151, 50046.00, 46900.80, -187500.02, -187500.02, -187500.02, -187500.02, -187500.02, -187500.02, 0.000, 0.000, 0.000, 14:40:21.191
152, 50717.96, 47634.07, -187500.02, -187500.02, -187500.02, -187500.02, -187500.02, -187500.02, 0.000, 0.000, 0.000, 14:40:21.191
153, 50178.52, 47217.63, -187500.02, -187500.02, -187500.02, -187500.02, -187500.02, -187500.02, 0.000, 0.000, 0.000, 14:40:21.191
154, 48501.70, 45759.41, -187500.02, -187500.02, -187500.02, -187500.02, -187500.02, -187500.02, 0.000, 0.000, 0.000, 14:40:21.191
155, 48205.22, 45283.70, -187500.02, -187500.02, -187500.02, -187500.02, -187500.02, -187500.02, 0.000, 0.000, 0.000, 14:40:21.192
156, 50020.59, 46852.77, -187500.02, -187500.02, -187500.02, -187500.02, -187500.02, -187500.02, 0.000, 0.000, 0.000, 14:40:21.192
157, 50721.45, 47619.68, -187500.02, -187500.02, -187500.02, -187500.02, -187500.02, -187500.02, 0.000, 0.000, 0.000, 14:40:21.192
158, 50173.27, 47210.53, -187500.02, -187500.02, -187500.02, -187500.02, -187500.02, -187500.02, 0.000, 0.000, 0.000, 14:40:21.192
159, 48478.09, 45745.10, -187500.02, -187500.02, -187500.02, -187500.02, -187500.02, -187500.02, 0.184, -0.082, 1.008, 14:40:21.192
160, 48176.05, 45254.52, -187500.02, -187500.02, -187500.02, -187500.02, -187500.02, -187500.02, 0.000, 0.000, 0.000, 14:40:21.192
161, 50006.62, 46832.04, -187500.02, -187500.02, -187500.02, -187500.02, -187500.02, -187500.02, 0.000, 0.000, 0.000, 14:40:21.192
162, 50691.59, 47583.91, -187500.02, -187500.02, -187500.02, -187500.02, -187500.02, -187500.02, 0.000, 0.000, 0.000, 14:40:21.192
163, 50142.80, 47167.34, -187500.02, -187500.02, -187500.02, -187500.02, -187500.02, -187500.02, 0.000, 0.000, 0.000, 14:40:21.193
164, 48472.13, 45727.33, -187500.02, -187500.02, -187500.02, -187500.02, -187500.02, -187500.02, 0.000, 0.000, 0.000, 14:40:21.193
165, 48157.01, 45232.84, -187500.02, -187500.02, -187500.02, -187500.02, -187500.02, -187500.02, 0.000, 0.000, 0.000, 14:40:21.193
166, 49978.75, 46795.75, -187500.02, -187500.02, -187500.02, -187500.02, -187500.02, -187500.02, 0.000, 0.000, 0.000, 14:40:21.193
167, 50679.00, 47560.13, -187500.02, -187500.02, -187500.02, -187500.02, -187500.02, -187500.02, 0.000, 0.000, 0.000, 14:40:21.193
168, 50146.29, 47161.64, -187500.02, -187500.02, -187500.02, -187500.02, -187500.02, -187500.02, 0.000, 0.000, 0.000, 14:40:21.193
169, 48467.99, 45701.22, -187500.02, -187500.02, -187500.02, -187500.02, -187500.02, -187500.02, 0.182, -0.076, 1.010, 14:40:21.193
170, 48138.64, 45195.47, -187500.02, -187500.02, -187500.02, -187500.02, -187500.02, -187500.02, 0.000, 0.000, 0.000, 14:40:21.193
171, 49941.77, 46754.66, -187500.02, -187500.02, -187500.02, -187500.02, -187500.02, -187500.02, 0.000, 0.000, 0.000, 14:40:21.193
172, 50645.88, 47521.46, -187500.02, -187500.02, -187500.02, -187500.02, -187500.02, -187500.02, 0.000, 0.000, 0.000, 14:40:21.194
173, 50113.14, 47117.99, -187500.02, -187500.02, -187500.02, -187500.02, -187500.02, -187500.02, 0.000, 0.000, 0.000, 14:40:21.194
174, 48457.98, 45679.72, -187500.02, -187500.02, -187500.02, -187500.02, -187500.02, -187500.02, 0.000, 0.000, 0.000, 14:40:21.194
175, 48136.60, 45178.89, -187500.02, -187500.02, -187500.02, -187500.02, -187500.02, -187500.02, 0.000, 0.000, 0.000, 14:40:21.194
176, 49940.75, 46731.91, -187500.02, -187500.02, -187500.02, -187500.02, -187500.02, -187500.02, 0.000, 0.000, 0.000, 14:40:21.194
177, 50640.18, 47498.75, -187500.02, -187500.02, -187500.02, -187500.02, -187500.02, -187500.02, 0.000, 0.000, 0.000, 14:40:21.194
178, 50120.59, 47112.47, -187500.02, -187500.02, -187500.02, -187500.02, -187500.02, -187500.02, 0.000, 0.000, 0.000, 14:40:21.194
179, 48449.82, 45665.24, -187500.02, -187500.02, -187500.02, -187500.02, -187500.02, -187500.02, 0.186, -0.076, 1.006, 14:40:21.194
180, 48107.28, 45151.10, -187500.02, -187500.02, -187500.02, -187500.02, -187500.02, -187500.02, 0.000, 0.000, 0.000, 14:40:21.195
181, 49924.77, 46709.82, -187500.02, -187500.02, -187500.02, -187500.02, -187500.02, -187500.02, 0.000, 0.000, 0.000, 14:40:21.195
182, 50620.24, 47463.93, -187500.02, -187500.02, -187500.02, -187500.02, -187500.02, -187500.02, 0.000, 0.000, 0.000, 14:40:21.195
183, 50081.94, 47062.47, -187500.02, -187500.02, -187500.02, -187500.02, -187500.02, -187500.02, 0.000, 0.000, 0.000, 14:40:21.195
184, 48429.01, 45637.99, -187500.02, -187500.02, -187500.02, -187500.02, -187500.02, -187500.02, 0.000, 0.000, 0.000, 14:40:21.195
185, 48075.52, 45113.60, -187500.02, -187500.02, -187500.02, -187500.02, -187500.02, -187500.02, 0.000, 0.000, 0.000, 14:40:21.195
186, 49864.24, 46639.93, -187500.02, -187500.02, -187500.02, -187500.02, -187500.02, -187500.02, 0.000, 0.000, 0.000, 14:40:21.195
187, 50569.93, 47406.13, -187500.02, -187500.02, -187500.02, -187500.02, -187500.02, -187500.02, 0.000, 0.000, 0.000, 14:40:21.195
188, 50059.88, 47032.09, -187500.02, -187500.02, -187500.02, -187500.02, -187500.02, -187500.02, 0.000, 0.000, 0.000, 14:40:21.196
189, 48398.48, 45596.42, -187500.02, -187500.02, -187500.02, -187500.02, -187500.02, -187500.02, 0.186, -0.078, 1.004, 14:40:21.196
190, 48024.64, 45046.09, -187500.02, -187500.02, -187500.02, -187500.02, -187500.02, -187500.02, 0.000, 0.000, 0.000, 14:40:21.196
191, 49833.64, 46594.24, -187500.02, -187500.02, -187500.02, -187500.02, -187500.02, -187500.02, 0.000, 0.000, 0.000, 14:40:21.196
192, 50573.93, 47396.05, -187500.02, -187500.02, -187500.02, -187500.02, -187500.02, -187500.02, 0.000, 0.000, 0.000, 14:40:21.196
193, 50067.26, 47016.07, -187500.02, -187500.02, -187500.02, -187500.02, -187500.02, -187500.02, 0.000, 0.000, 0.000, 14:40:21.196
194, 48407.24, 45585.18, -187500.02, -187500.02, -187500.02, -187500.02, -187500.02, -187500.02, 0.000, 0.000, 0.000, 14:40:21.196
195, 48035.37, 45044.53, -187500.02, -187500.02, -187500.02, -187500.02, -187500.02, -187500.02, 0.000, 0.000, 0.000, 14:40:21.196
196, 49839.09, 46595.63, -187500.02, -187500.02, -187500.02, -187500.02, -187500.02, -187500.02, 0.000, 0.000, 0.000, 14:40:21.196
197, 50548.51, 47371.73, -187500.02, -187500.02, -187500.02, -187500.02, -187500.02, -187500.02, 0.000, 0.000, 0.000, 14:40:21.197
198, 50018.71, 46971.21, -187500.02, -187500.02, -187500.02, -187500.02, -187500.02, -187500.02, 0.000, 0.000, 0.000, 14:40:21.197
199, 48375.41, 45559.27, -187500.02, -187500.02, -187500.02, -187500.02, -187500.02, -187500.02, 0.180, -0.076, 1.006, 14:40:21.197
200, 48005.69, 45030.72, -187500.02, -187500.02, -187500.02, -187500.02, -187500.02, -187500.02, 0.000, 0.000, 0.000, 14:40:21.197
201, 49788.20, 46549.27, -187500.02, -187500.02, -187500.02, -187500.02, -187500.02, -187500.02, 0.000, 0.000, 0.000, 14:40:21.197
202, 50517.69, 47335.98, -187500.02, -187500.02, -187500.02, -187500.02, -187500.02, -187500.02, 0.000, 0.000, 0.000, 14:40:21.197
203, 50004.63, 46943.20, -187500.02, -187500.02, -187500.02, -187500.02, -187500.02, -187500.02, 0.000, 0.000, 0.000, 14:40:21.197
204, 48355.41, 45518.50, -187500.02, -187500.02, -187500.02, -187500.02, -187500.02, -187500.02, 0.000, 0.000, 0.000, 14:40:21.197
205, 47951.33, 44955.39, -187500.02, -187500.02, -187500.02, -187500.02, -187500.02, -187500.02, 0.000, 0.000, 0.000, 14:40:21.197
206, 49765.29, 46499.23, -187500.02, -187500.02, -187500.02, -187500.02, -187500.02, -187500.02, 0.000, 0.000, 0.000, 14:40:21.198
207, 50504.17, 47297.50, -187500.02, -187500.02, -187500.02, -187500.02, -187500.02, -187500.02, 0.000, 0.000, 0.000, 14:40:21.198
208, 49993.79, 46912.78, -187500.02, -187500.02, -187500.02, -187500.02, -187500.02, -187500.02, 0.000, 0.000, 0.000, 14:40:21.198
209, 48366.94, 45508.35, -187500.02, -187500.02, -187500.02, -187500.02, -187500.02, -187500.02, 0.186, -0.074, 1.006, 14:40:21.198
210, 47954.41, 44940.71, -187500.02, -187500.02, -187500.02, -187500.02, -187500.02, -187500.02, 0.000, 0.000, 0.000, 14:40:21.667
211, 49737.12, 46464.31, -187500.02, -187500.02, -187500.02, -187500.02, -187500.02, -187500.02, 0.000, 0.000, 0.000, 14:40:21.667
212, 50469.48, 47257.69, -187500.02, -187500.02, -187500.02, -187500.02, -187500.02, -187500.02, 0.000, 0.000, 0.000, 14:40:21.668
213, 49957.24, 46870.11, -187500.02, -187500.02, -187500.02, -187500.02, -187500.02, -187500.02, 0.000, 0.000, 0.000, 14:40:21.668
214, 48321.32, 45460.43, -187500.02, -187500.02, -187500.02, -187500.02, -187500.02, -187500.02, 0.000, 0.000, 0.000, 14:40:21.668
215, 47910.94, 44888.92, -187500.02, -187500.02, -187500.02, -187500.02, -187500.02, -187500.02, 0.000, 0.000, 0.000, 14:40:21.668
216, 49704.27, 46423.66, -187500.02, -187500.02, -187500.02, -187500.02, -187500.02, -187500.02, 0.000, 0.000, 0.000, 14:40:21.668
217, 50450.21, 47228.36, -187500.02, -187500.02, -187500.02, -187500.02, -187500.02, -187500.02, 0.000, 0.000, 0.000, 14:40:21.668
218, 49955.79, 46857.82, -187500.02, -187500.02, -187500.02, -187500.02, -187500.02, -187500.02, 0.000, 0.000, 0.000, 14:40:21.668
219, 48305.71, 45436.22, -187500.02, -187500.02, -187500.02, -187500.02, -187500.02, -187500.02, 0.184, -0.070, 1.008, 14:40:21.668
220, 47889.08, 44863.30, -187500.02, -187500.02, -187500.02, -187500.02, -187500.02, -187500.02, 0.000, 0.000, 0.000, 14:40:21.669
221, 49691.77, 46407.50, -187500.02, -187500.02, -187500.02, -187500.02, -187500.02, -187500.02, 0.000, 0.000, 0.000, 14:40:21.669
222, 50438.30, 47209.54, -187500.02, -187500.02, -187500.02, -187500.02, -187500.02, -187500.02, 0.000, 0.000, 0.000, 14:40:21.669
223, 49934.46, 46827.89, -187500.02, -187500.02, -187500.02, -187500.02, -187500.02, -187500.02, 0.000, 0.000, 0.000, 14:40:21.669
224, 48301.85, 45422.92, -187500.02, -187500.02, -187500.02, -187500.02, -187500.02, -187500.02, 0.000, 0.000, 0.000, 14:40:21.669
225, 47875.51, 44841.11, -187500.02, -187500.02, -187500.02, -187500.02, -187500.02, -187500.02, 0.000, 0.000, 0.000, 14:40:21.670
226, 49670.52, 46360.94, -187500.02, -187500.02, -187500.02, -187500.02, -187500.02, -187500.02, 0.000, 0.000, 0.000, 14:40:21.670
227, 50410.27, 47162.00, -187500.02, -187500.02, -187500.02, -187500.02, -187500.02, -187500.02, 0.000, 0.000, 0.000, 14:40:21.670
228, 49919.91, 46796.41, -187500.02, -187500.02, -187500.02, -187500.02, -187500.02, -187500.02, 0.000, 0.000, 0.000, 14:40:21.670
229, 48272.97, 45380.99, -187500.02, -187500.02, -187500.02, -187500.02, -187500.02, -187500.02, 0.182, -0.076, 1.008, 14:40:21.670
230, 47838.32, 44789.88, -187500.02, -187500.02, -187500.02, -187500.02, -187500.02, -187500.02, 0.000, 0.000, 0.000, 14:40:21.670
231, 49637.01, 46313.91, -187500.02, -187500.02, -187500.02, -187500.02, -187500.02, -187500.02, 0.000, 0.000, 0.000, 14:40:21.671
232, 50381.19, 47116.05, -187500.02, -187500.02, -187500.02, -187500.02, -187500.02, -187500.02, 0.000, 0.000, 0.000, 14:40:21.671
233, 49890.23, 46757.25, -187500.02, -187500.02, -187500.02, -187500.02, -187500.02, -187500.02, 0.000, 0.000, 0.000, 14:40:21.671
234, 48254.31, 45355.02, -187500.02, -187500.02, -187500.02, -187500.02, -187500.02, -187500.02, 0.000, 0.000, 0.000, 14:40:21.671
235, 47784.65, 44732.79, -187500.02, -187500.02, -187500.02, -187500.02, -187500.02, -187500.02, 0.000, 0.000, 0.000, 14:40:21.671
236, 49574.65, 46244.66, -187500.02, -187500.02, -187500.02, -187500.02, -187500.02, -187500.02, 0.000, 0.000, 0.000, 14:40:21.672
237, 50348.53, 47079.79, -187500.02, -187500.02, -187500.02, -187500.02, -187500.02, -187500.02, 0.000, 0.000, 0.000, 14:40:21.672
238, 49856.77, 46723.19, -187500.02, -187500.02, -187500.02, -187500.02, -187500.02, -187500.02, 0.186, -0.082, 1.006, 14:40:21.672
239, 48213.43, 45313.27, -187500.02, -187500.02, -187500.02, -187500.02, -187500.02, -187500.02, 0.000, 0.000, 0.000, 14:40:21.672
240, 47740.80, 44685.76, -187500.02, -187500.02, -187500.02, -187500.02, -187500.02, -187500.02, 0.000, 0.000, 0.000, 14:40:21.672
241, 49538.91, 46208.03, -187500.02, -187500.02, -187500.02, -187500.02, -187500.02, -187500.02, 0.000, 0.000, 0.000, 14:40:21.673
242, 50337.33, 47052.95, -187500.02, -187500.02, -187500.02, -187500.02, -187500.02, -187500.02, 0.000, 0.000, 0.000, 14:40:21.673
243, 49843.14, 46682.87, -187500.02, -187500.02, -187500.02, -187500.02, -187500.02, -187500.02, 0.000, 0.000, 0.000, 14:40:21.673
244, 48215.93, 45292.77, -187500.02, -187500.02, -187500.02, -187500.02, -187500.02, -187500.02, 0.000, 0.000, 0.000, 14:40:21.673
245, 47721.78, 44652.26, -187500.02, -187500.02, -187500.02, -187500.02, -187500.02, -187500.02, 0.000, 0.000, 0.000, 14:40:21.673
246, 49505.02, 46167.82, -187500.02, -187500.02, -187500.02, -187500.02, -187500.02, -187500.02, 0.000, 0.000, 0.000, 14:40:21.673
247, 50287.87, 47015.35, -187500.02, -187500.02, -187500.02, -187500.02, -187500.02, -187500.02, 0.000, 0.000, 0.000, 14:40:21.674
248, 49811.40, 46664.63, -187500.02, -187500.02, -187500.02, -187500.02, -187500.02, -187500.02, 0.178, -0.084, 1.012, 14:40:21.674
249, 48183.21, 45269.63, -187500.02, -187500.02, -187500.02, -187500.02, -187500.02, -187500.02, 0.000, 0.000, 0.000, 14:40:21.674
250, 47677.63, 44615.85, -187500.02, -187500.02, -187500.02, -187500.02, -187500.02, -187500.02, 0.000, 0.000, 0.000, 14:40:21.674
251, 49453.48, 46119.25, -187500.02, -187500.02, -187500.02, -187500.02, -187500.02, -187500.02, 0.000, 0.000, 0.000, 14:40:21.674
252, 50237.62, 46963.56, -187500.02, -187500.02, -187500.02, -187500.02, -187500.02, -187500.02, 0.000, 0.000, 0.000, 14:40:21.675
253, 49752.93, 46613.06, -187500.02, -187500.02, -187500.02, -187500.02, -187500.02, -187500.02, 0.000, 0.000, 0.000, 14:40:21.675
254, 48124.73, 45215.32, -187500.02, -187500.02, -187500.02, -187500.02, -187500.02, -187500.02, 0.000, 0.000, 0.000, 14:40:21.675
255, 47615.16, 44555.52, -187500.02, -187500.02, -187500.02, -187500.02, -187500.02, -187500.02, 0.000, 0.000, 0.000, 14:40:21.675
0, 49402.79, 46073.54, -187500.02, -187500.02, -187500.02, -187500.02, -187500.02, -187500.02, 0.000, 0.000, 0.000, 14:40:21.675
1, 50204.05, 46935.31, -187500.02, -187500.02, -187500.02, -187500.02, -187500.02, -187500.02, 0.000, 0.000, 0.000, 14:40:21.675
2, 49736.07, 46589.84, -187500.02, -187500.02, -187500.02, -187500.02, -187500.02, -187500.02, 0.184, -0.084, 1.004, 14:40:21.676
3, 48102.02, 45190.71, -187500.02, -187500.02, -187500.02, -187500.02, -187500.02, -187500.02, 0.000, 0.000, 0.000, 14:40:21.676
4, 47582.70, 44528.99, -187500.02, -187500.02, -187500.02, -187500.02, -187500.02, -187500.02, 0.000, 0.000, 0.000, 14:40:21.676
5, 49353.75, 46017.79, -187500.02, -187500.02, -187500.02, -187500.02, -187500.02, -187500.02, 0.000, 0.000, 0.000, 14:40:21.676
6, 50151.59, 46876.28, -187500.02, -187500.02, -187500.02, -187500.02, -187500.02, -187500.02, 0.000, 0.000, 0.000, 14:40:21.676
7, 49691.59, 46551.26, -187500.02, -187500.02, -187500.02, -187500.02, -187500.02, -187500.02, 0.000, 0.000, 0.000, 14:40:21.677
8, 48074.64, 45166.06, -187500.02, -187500.02, -187500.02, -187500.02, -187500.02, -187500.02, 0.000, 0.000, 0.000, 14:40:21.677
9, 47554.96, 44498.61, -187500.02, -187500.02, -187500.02, -187500.02, -187500.02, -187500.02, 0.000, 0.000, 0.000, 14:40:21.677
10, 49345.70, 46016.88, -187500.02, -187500.02, -187500.02, -187500.02, -187500.02, -187500.02, 0.000, 0.000, 0.000, 14:40:21.677
11, 50162.59, 46884.75, -187500.02, -187500.02, -187500.02, -187500.02, -187500.02, -187500.02, 0.000, 0.000, 0.000, 14:40:21.677
12, 49701.27, 46552.78, -187500.02, -187500.02, -187500.02, -187500.02, -187500.02, -187500.02, 0.186, -0.074, 1.000, 14:40:21.677
13, 48084.75, 45168.16, -187500.02, -187500.02, -187500.02, -187500.02, -187500.02, -187500.02, 0.000, 0.000, 0.000, 14:40:21.678
14, 47532.14, 44477.55, -187500.02, -187500.02, -187500.02, -187500.02, -187500.02, -187500.02, 0.000, 0.000, 0.000, 14:40:21.678
15, 49310.96, 45986.48, -187500.02, -187500.02, -187500.02, -187500.02, -187500.02, -187500.02, 0.000, 0.000, 0.000, 14:40:21.678
16, 50123.29, 46857.70, -187500.02, -187500.02, -187500.02, -187500.02, -187500.02, -187500.02, 0.000, 0.000, 0.000, 14:40:21.678
17, 49664.57, 46524.39, -187500.02, -187500.02, -187500.02, -187500.02, -187500.02, -187500.02, 0.000, 0.000, 0.000, 14:40:21.678
18, 48051.96, 45148.13, -187500.02, -187500.02, -187500.02, -187500.02, -187500.02, -187500.02, 0.000, 0.000, 0.000, 14:40:21.679
19, 47489.36, 44450.27, -187500.02, -187500.02, -187500.02, -187500.02, -187500.02, -187500.02, 0.000, 0.000, 0.000, 14:40:21.679
20, 49252.83, 45931.05, -187500.02, -187500.02, -187500.02, -187500.02, -187500.02, -187500.02, 0.000, 0.000, 0.000, 14:40:21.679
21, 50079.55, 46804.13, -187500.02, -187500.02, -187500.02, -187500.02, -187500.02, -187500.02, 0.000, 0.000, 0.000, 14:40:21.679
22, 49620.98, 46474.24, -187500.02, -187500.02, -187500.02, -187500.02, -187500.02, -187500.02, 0.190, -0.078, 0.998, 14:40:21.679
23, 48019.91, 45104.50, -187500.02, -187500.02, -187500.02, -187500.02, -187500.02, -187500.02, 0.000, 0.000, 0.000, 14:40:21.679
24, 47466.86, 44405.23, -187500.02, -187500.02, -187500.02, -187500.02, -187500.02, -187500.02, 0.000, 0.000, 0.000, 14:40:21.680
25, 49223.75, 45886.34, -187500.02, -187500.02, -187500.02, -187500.02, -187500.02, -187500.02, 0.000, 0.000, 0.000, 14:40:21.680
26, 50067.86, 46787.65, -187500.02, -187500.02, -187500.02, -187500.02, -187500.02, -187500.02, 0.000, 0.000, 0.000, 14:40:21.680
27, 49609.94, 46464.54, -187500.02, -187500.02, -187500.02, -187500.02, -187500.02, -187500.02, 0.000, 0.000, 0.000, 14:40:21.680
28, 47996.05, 45088.34, -187500.02, -187500.02, -187500.02, -187500.02, -187500.02, -187500.02, 0.000, 0.000, 0.000, 14:40:21.680
29, 47430.47, 44382.72, -187500.02, -187500.02, -187500.02, -187500.02, -187500.02, -187500.02, 0.000, 0.000, 0.000, 14:40:21.680
30, 49201.35, 45870.20, -187500.02, -187500.02, -187500.02, -187500.02, -187500.02, -187500.02, 0.000, 0.000, 0.000, 14:40:21.681
31, 50044.77, 46769.21, -187500.02, -187500.02, -187500.02, -187500.02, -187500.02, -187500.02, 0.000, 0.000, 0.000, 14:40:21.681
32, 49595.08, 46450.10, -187500.02, -187500.02, -187500.02, -187500.02, -187500.02, -187500.02, 0.184, -0.076, 1.004, 14:40:21.681
33, 47967.56, 45067.35, -187500.02, -187500.02, -187500.02, -187500.02, -187500.02, -187500.02, 0.000, 0.000, 0.000, 14:40:21.681
34, 47397.97, 44357.21, -187500.02, -187500.02, -187500.02, -187500.02, -187500.02, -187500.02, 0.000, 0.000, 0.000, 14:40:21.681
35, 49155.75, 45829.52, -187500.02, -187500.02, -187500.02, -187500.02, -187500.02, -187500.02, 0.000, 0.000, 0.000, 14:40:21.682
36, 49984.49, 46719.79, -187500.02, -187500.02, -187500.02, -187500.02, -187500.02, -187500.02, 0.000, 0.000, 0.000, 14:40:21.682
37, 49543.09, 46410.51, -187500.02, -187500.02, -187500.02, -187500.02, -187500.02, -187500.02, 0.000, 0.000, 0.000, 14:40:21.682
38, 47940.91, 45054.77, -187500.02, -187500.02, -187500.02, -187500.02, -187500.02, -187500.02, 0.000, 0.000, 0.000, 14:40:21.682
39, 47348.88, 44329.68, -187500.02, -187500.02, -187500.02, -187500.02, -187500.02, -187500.02, 0.000, 0.000, 0.000, 14:40:21.682
40, 49109.64, 45795.95, -187500.02, -187500.02, -187500.02, -187500.02, -187500.02, -187500.02, 0.000, 0.000, 0.000, 14:40:21.682
41, 49983.37, 46714.43, -187500.02, -187500.02, -187500.02, -187500.02, -187500.02, -187500.02, 0.000, 0.000, 0.000, 14:40:21.682
42, 49528.11, 46389.37, -187500.02, -187500.02, -187500.02, -187500.02, -187500.02, -187500.02, 0.188, -0.084, 1.008, 14:40:21.683
43, 47927.30, 45027.61, -187500.02, -187500.02, -187500.02, -187500.02, -187500.02, -187500.02, 0.000, 0.000, 0.000, 14:40:21.683
44, 47329.48, 44298.45, -187500.02, -187500.02, -187500.02, -187500.02, -187500.02, -187500.02, 0.000, 0.000, 0.000, 14:40:21.683
45, 49090.87, 45778.67, -187500.02, -187500.02, -187500.02, -187500.02, -187500.02, -187500.02, 0.000, 0.000, 0.000, 14:40:21.683
46, 49931.58, 46672.63, -187500.02, -187500.02, -187500.02, -187500.02, -187500.02, -187500.02, 0.000, 0.000, 0.000, 14:40:21.683
47, 49496.57, 46366.93, -187500.02, -187500.02, -187500.02, -187500.02, -187500.02, -187500.02, 0.000, 0.000, 0.000, 14:40:21.683
48, 47914.32, 45021.29, -187500.02, -187500.02, -187500.02, -187500.02, -187500.02, -187500.02, 0.000, 0.000, 0.000, 14:40:21.683
49, 47302.68, 44279.99, -187500.02, -187500.02, -187500.02, -187500.02, -187500.02, -187500.02, 0.000, 0.000, 0.000, 14:40:21.683
50, 49070.88, 45763.92, -187500.02, -187500.02, -187500.02, -187500.02, -187500.02, -187500.02, 0.000, 0.000, 0.000, 14:40:21.684
51, 49928.43, 46674.66, -187500.02, -187500.02, -187500.02, -187500.02, -187500.02, -187500.02, 0.000, 0.000, 0.000, 14:40:21.684
52, 49490.92, 46363.02, -187500.02, -187500.02, -187500.02, -187500.02, -187500.02, -187500.02, 0.188, -0.082, 1.012, 14:40:21.684
53, 47892.99, 45007.94, -187500.02, -187500.02, -187500.02, -187500.02, -187500.02, -187500.02, 0.000, 0.000, 0.000, 14:40:21.684
54, 47265.64, 44253.03, -187500.02, -187500.02, -187500.02, -187500.02, -187500.02, -187500.02, 0.000, 0.000, 0.000, 14:40:21.684
55, 49028.41, 45724.96, -187500.02, -187500.02, -187500.02, -187500.02, -187500.02, -187500.02, 0.000, 0.000, 0.000, 14:40:21.684
56, 49920.79, 46666.95, -187500.02, -187500.02, -187500.02, -187500.02, -187500.02, -187500.02, 0.000, 0.000, 0.000, 14:40:21.684
57, 49506.83, 46381.07, -187500.02, -187500.02, -187500.02, -187500.02, -187500.02, -187500.02, 0.000, 0.000, 0.000, 14:40:21.684
58, 47903.79, 45024.88, -187500.02, -187500.02, -187500.02, -187500.02, -187500.02, -187500.02, 0.000, 0.000, 0.000, 14:40:21.684
59, 47256.08, 44257.26, -187500.02, -187500.02, -187500.02, -187500.02, -187500.02, -187500.02, 0.000, 0.000, 0.000, 14:40:21.685
60, 49005.30, 45715.21, -187500.02, -187500.02, -187500.02, -187500.02, -187500.02, -187500.02, 0.000, 0.000, 0.000, 14:40:21.685
61, 49872.69, 46631.53, -187500.02, -187500.02, -187500.02, -187500.02, -187500.02, -187500.02, 0.000, 0.000, 0.000, 14:40:21.685
62, 49449.48, 46332.28, -187500.02, -187500.02, -187500.02, -187500.02, -187500.02, -187500.02, 0.186, -0.080, 1.008, 14:40:21.685
63, 47874.82, 44999.71, -187500.02, -187500.02, -187500.02, -187500.02, -187500.02, -187500.02, 0.000, 0.000, 0.000, 14:40:21.685
64, 47246.27, 44241.77, -187500.02, -187500.02, -187500.02, -187500.02, -187500.02, -187500.02, 0.000, 0.000, 0.000, 14:40:21.685
65, 48999.25, 45701.89, -187500.02, -187500.02, -187500.02, -187500.02, -187500.02, -187500.02, 0.000, 0.000, 0.000, 14:40:21.685
66, 49865.51, 46621.36, -187500.02, -187500.02, -187500.02, -187500.02, -187500.02, -187500.02, 0.000, 0.000, 0.000, 14:40:21.685
67, 49447.00, 46328.32, -187500.02, -187500.02, -187500.02, -187500.02, -187500.02, -187500.02, 0.000, 0.000, 0.000, 14:40:21.686
68, 47865.05, 44976.94, -187500.02, -187500.02, -187500.02, -187500.02, -187500.02, -187500.02, 0.000, 0.000, 0.000, 14:40:21.686
69, 47213.61, 44199.32, -187500.02, -187500.02, -187500.02, -187500.02, -187500.02, -187500.02, 0.000, 0.000, 0.000, 14:40:21.686
70, 48963.35, 45655.27, -187500.02, -187500.02, -187500.02, -187500.02, -187500.02, -187500.02, 0.000, 0.000, 0.000, 14:40:21.686
71, 49842.45, 46587.18, -187500.02, -187500.02, -187500.02, -187500.02, -187500.02, -187500.02, 0.000, 0.000, 0.000, 14:40:21.686
72, 49420.84, 46302.04, -187500.02, -187500.02, -187500.02, -187500.02, -187500.02, -187500.02, 0.184, -0.080, 1.008, 14:40:21.686
73, 47838.59, 44960.40, -187500.02, -187500.02, -187500.02, -187500.02, -187500.02, -187500.02, 0.000, 0.000, 0.000, 14:40:21.687
74, 47173.45, 44174.22, -187500.02, -187500.02, -187500.02, -187500.02, -187500.02, -187500.02, 0.000, 0.000, 0.000, 14:40:22.143
75, 48919.90, 45632.74, -187500.02, -187500.02, -187500.02, -187500.02, -187500.02, -187500.02, 0.000, 0.000, 0.000, 14:40:22.143
76, 49810.28, 46574.73, -187500.02, -187500.02, -187500.02, -187500.02, -187500.02, -187500.02, 0.000, 0.000, 0.000, 14:40:22.144
77, 49405.40, 46293.66, -187500.02, -187500.02, -187500.02, -187500.02, -187500.02, -187500.02, 0.000, 0.000, 0.000, 14:40:22.144
78, 47838.99, 44961.65, -187500.02, -187500.02, -187500.02, -187500.02, -187500.02, -187500.02, 0.000, 0.000, 0.000, 14:40:22.144
79, 47171.25, 44170.93, -187500.02, -187500.02, -187500.02, -187500.02, -187500.02, -187500.02, 0.000, 0.000, 0.000, 14:40:22.144
80, 48916.86, 45617.25, -187500.02, -187500.02, -187500.02, -187500.02, -187500.02, -187500.02, 0.000, 0.000, 0.000, 14:40:22.144
81, 49812.96, 46560.87, -187500.02, -187500.02, -187500.02, -187500.02, -187500.02, -187500.02, 0.000, 0.000, 0.000, 14:40:22.144
82, 49410.59, 46289.43, -187500.02, -187500.02, -187500.02, -187500.02, -187500.02, -187500.02, 0.184, -0.078, 1.002, 14:40:22.144
83, 47837.85, 44951.86, -187500.02, -187500.02, -187500.02, -187500.02, -187500.02, -187500.02, 0.000, 0.000, 0.000, 14:40:22.144
84, 47154.56, 44156.45, -187500.02, -187500.02, -187500.02, -187500.02, -187500.02, -187500.02, 0.000, 0.000, 0.000, 14:40:22.145
85, 48895.80, 45612.73, -187500.02, -187500.02, -187500.02, -187500.02, -187500.02, -187500.02, 0.000, 0.000, 0.000, 14:40:22.145
86, 49802.77, 46561.72, -187500.02, -187500.02, -187500.02, -187500.02, -187500.02, -187500.02, 0.000, 0.000, 0.000, 14:40:22.145
87, 49404.75, 46279.15, -187500.02, -187500.02, -187500.02, -187500.02, -187500.02, -187500.02, 0.000, 0.000, 0.000, 14:40:22.145
88, 47828.46, 44939.48, -187500.02, -187500.02, -187500.02, -187500.02, -187500.02, -187500.02, 0.000, 0.000, 0.000, 14:40:22.145
89, 47142.60, 44143.20, -187500.02, -187500.02, -187500.02, -187500.02, -187500.02, -187500.02, 0.000, 0.000, 0.000, 14:40:22.145
90, 48886.30, 45594.32, -187500.02, -187500.02, -187500.02, -187500.02, -187500.02, -187500.02, 0.000, 0.000, 0.000, 14:40:22.145
91, 49793.61, 46540.42, -187500.02, -187500.02, -187500.02, -187500.02, -187500.02, -187500.02, 0.000, 0.000, 0.000, 14:40:22.145
92, 49404.30, 46275.82, -187500.02, -187500.02, -187500.02, -187500.02, -187500.02, -187500.02, 0.188, -0.080, 1.008, 14:40:22.145
93, 47835.05, 44942.16, -187500.02, -187500.02, -187500.02, -187500.02, -187500.02, -187500.02, 0.000, 0.000, 0.000, 14:40:22.146
94, 47138.55, 44136.38, -187500.02, -187500.02, -187500.02, -187500.02, -187500.02, -187500.02, 0.000, 0.000, 0.000, 14:40:22.146
95, 48866.25, 45576.28, -187500.02, -187500.02, -187500.02, -187500.02, -187500.02, -187500.02, 0.000, 0.000, 0.000, 14:40:22.146
96, 49777.73, 46532.60, -187500.02, -187500.02, -187500.02, -187500.02, -187500.02, -187500.02, 0.000, 0.000, 0.000, 14:40:22.146
97, 49382.63, 46257.61, -187500.02, -187500.02, -187500.02, -187500.02, -187500.02, -187500.02, 0.000, 0.000, 0.000, 14:40:22.146
98, 47824.62, 44932.10, -187500.02, -187500.02, -187500.02, -187500.02, -187500.02, -187500.02, 0.000, 0.000, 0.000, 14:40:22.146
99, 47130.46, 44122.66, -187500.02, -187500.02, -187500.02, -187500.02, -187500.02, -187500.02, 0.000, 0.000, 0.000, 14:40:22.146
100, 48851.37, 45550.73, -187500.02, -187500.02, -187500.02, -187500.02, -187500.02, -187500.02, 0.000, 0.000, 0.000, 14:40:22.146
101, 49777.60, 46511.21, -187500.02, -187500.02, -187500.02, -187500.02, -187500.02, -187500.02, 0.000, 0.000, 0.000, 14:40:22.146
102, 49393.80, 46249.80, -187500.02, -187500.02, -187500.02, -187500.02, -187500.02, -187500.02, 0.186, -0.078, 1.012, 14:40:22.147
103, 47831.91, 44929.31, -187500.02, -187500.02, -187500.02, -187500.02, -187500.02, -187500.02, 0.000, 0.000, 0.000, 14:40:22.147
104, 47106.43, 44099.90, -187500.02, -187500.02, -187500.02, -187500.02, -187500.02, -187500.02, 0.000, 0.000, 0.000, 14:40:22.147
105, 48832.17, 45531.35, -187500.02, -187500.02, -187500.02, -187500.02, -187500.02, -187500.02, 0.000, 0.000, 0.000, 14:40:22.147
106, 49773.06, 46506.71, -187500.02, -187500.02, -187500.02, -187500.02, -187500.02, -187500.02, 0.000, 0.000, 0.000, 14:40:22.147
107, 49371.76, 46221.30, -187500.02, -187500.02, -187500.02, -187500.02, -187500.02, -187500.02, 0.000, 0.000, 0.000, 14:40:22.147
108, 47819.14, 44907.02, -187500.02, -187500.02, -187500.02, -187500.02, -187500.02, -187500.02, 0.000, 0.000, 0.000, 14:40:22.147
109, 47106.34, 44090.78, -187500.02, -187500.02, -187500.02, -187500.02, -187500.02, -187500.02, 0.000, 0.000, 0.000, 14:40:22.147
110, 48830.47, 45518.03, -187500.02, -187500.02, -187500.02, -187500.02, -187500.02, -187500.02, 0.000, 0.000, 0.000, 14:40:22.148
111, 49770.27, 46501.24, -187500.02, -187500.02, -187500.02, -187500.02, -187500.02, -187500.02, 0.184, -0.078, 1.012, 14:40:22.148
112, 49385.95, 46238.70, -187500.02, -187500.02, -187500.02, -187500.02, -187500.02, -187500.02, 0.000, 0.000, 0.000, 14:40:22.148
113, 47836.84, 44919.83, -187500.02, -187500.02, -187500.02, -187500.02, -187500.02, -187500.02, 0.000, 0.000, 0.000, 14:40:22.148
114, 47110.57, 44083.38, -187500.02, -187500.02, -187500.02, -187500.02, -187500.02, -187500.02, 0.000, 0.000, 0.000, 14:40:22.148
115, 48828.05, 45502.88, -187500.02, -187500.02, -187500.02, -187500.02, -187500.02, -187500.02, 0.000, 0.000, 0.000, 14:40:22.148
116, 49782.12, 46501.51, -187500.02, -187500.02, -187500.02, -187500.02, -187500.02, -187500.02, 0.000, 0.000, 0.000, 14:40:22.148
117, 49403.34, 46249.69, -187500.02, -187500.02, -187500.02, -187500.02, -187500.02, -187500.02, 0.000, 0.000, 0.000, 14:40:22.148
118, 47843.95, 44933.89, -187500.02, -187500.02, -187500.02, -187500.02, -187500.02, -187500.02, 0.000, 0.000, 0.000, 14:40:22.149
119, 47120.40, 44109.69, -187500.02, -187500.02, -187500.02, -187500.02, -187500.02, -187500.02, 0.000, 0.000, 0.000, 14:40:22.149
120, 48864.78, 45553.32, -187500.02, -187500.02, -187500.02, -187500.02, -187500.02, -187500.02, 0.000, 0.000, 0.000, 14:40:22.149
121, 49788.06, 46511.61, -187500.02, -187500.02, -187500.02, -187500.02, -187500.02, -187500.02, 0.192, -0.080, 1.010, 14:40:22.149
122, 49422.19, 46258.74, -187500.02, -187500.02, -187500.02, -187500.02, -187500.02, -187500.02, 0.000, 0.000, 0.000, 14:40:22.149
123, 47872.00, 44946.72, -187500.02, -187500.02, -187500.02, -187500.02, -187500.02, -187500.02, 0.000, 0.000, 0.000, 14:40:22.149
124, 47112.18, 44098.92, -187500.02, -187500.02, -187500.02, -187500.02, -187500.02, -187500.02, 0.000, 0.000, 0.000, 14:40:22.149
125, 48837.22, 45528.51, -187500.02, -187500.02, -187500.02, -187500.02, -187500.02, -187500.02, 0.000, 0.000, 0.000, 14:40:22.149
126, 49794.61, 46525.91, -187500.02, -187500.02, -187500.02, -187500.02, -187500.02, -187500.02, 0.000, 0.000, 0.000, 14:40:22.149
127, 49422.07, 46277.48, -187500.02, -187500.02, -187500.02, -187500.02, -187500.02, -187500.02, 0.000, 0.000, 0.000, 14:40:22.150
128, 47866.95, 44960.80, -187500.02, -187500.02, -187500.02, -187500.02, -187500.02, -187500.02, 0.000, 0.000, 0.000, 14:40:22.150
129, 47134.98, 44123.32, -187500.02, -187500.02, -187500.02, -187500.02, -187500.02, -187500.02, 0.000, 0.000, 0.000, 14:40:22.150
130, 48854.00, 45545.79, -187500.02, -187500.02, -187500.02, -187500.02, -187500.02, -187500.02, 0.000, 0.000, 0.000, 14:40:22.150
131, 49806.91, 46543.30, -187500.02, -187500.02, -187500.02, -187500.02, -187500.02, -187500.02, 0.190, -0.082, 1.014, 14:40:22.150
132, 49439.17, 46301.39, -187500.02, -187500.02, -187500.02, -187500.02, -187500.02, -187500.02, 0.000, 0.000, 0.000, 14:40:22.150
133, 47886.62, 44989.55, -187500.02, -187500.02, -187500.02, -187500.02, -187500.02, -187500.02, 0.000, 0.000, 0.000, 14:40:22.150
134, 47137.35, 44145.45, -187500.02, -187500.02, -187500.02, -187500.02, -187500.02, -187500.02, 0.000, 0.000, 0.000, 14:40:22.150
135, 48839.83, 45553.66, -187500.02, -187500.02, -187500.02, -187500.02, -187500.02, -187500.02, 0.000, 0.000, 0.000, 14:40:22.150
136, 49803.39, 46551.89, -187500.02, -187500.02, -187500.02, -187500.02, -187500.02, -187500.02, 0.000, 0.000, 0.000, 14:40:22.151
137, 49443.44, 46307.18, -187500.02, -187500.02, -187500.02, -187500.02, -187500.02, -187500.02, 0.000, 0.000, 0.000, 14:40:22.151
138, 47897.82, 44995.91, -187500.02, -187500.02, -187500.02, -187500.02, -187500.02, -187500.02, 0.000, 0.000, 0.000, 14:40:22.151
139, 47129.84, 44140.40, -187500.02, -187500.02, -187500.02, -187500.02, -187500.02, -187500.02, 0.000, 0.000, 0.000, 14:40:22.151
140, 48822.33, 45539.84, -187500.02, -187500.02, -187500.02, -187500.02, -187500.02, -187500.02, 0.000, 0.000, 0.000, 14:40:22.151
141, 49791.04, 46536.49, -187500.02, -187500.02, -187500.02, -187500.02, -187500.02, -187500.02, 0.190, -0.074, 1.016, 14:40:22.151
142, 49449.59, 46306.58, -187500.02, -187500.02, -187500.02, -187500.02, -187500.02, -187500.02, 0.000, 0.000, 0.000, 14:40:22.151
143, 47929.38, 45024.70, -187500.02, -187500.02, -187500.02, -187500.02, -187500.02, -187500.02, 0.000, 0.000, 0.000, 14:40:22.151
144, 47151.47, 44156.34, -187500.02, -187500.02, -187500.02, -187500.02, -187500.02, -187500.02, 0.000, 0.000, 0.000, 14:40:22.152
145, 48850.45, 45556.30, -187500.02, -187500.02, -187500.02, -187500.02, -187500.02, -187500.02, 0.000, 0.000, 0.000, 14:40:22.152
146, 49823.33, 46561.61, -187500.02, -187500.02, -187500.02, -187500.02, -187500.02, -187500.02, 0.000, 0.000, 0.000, 14:40:22.152
147, 49459.85, 46331.68, -187500.02, -187500.02, -187500.02, -187500.02, -187500.02, -187500.02, 0.000, 0.000, 0.000, 14:40:22.152
148, 47938.86, 45048.00, -187500.02, -187500.02, -187500.02, -187500.02, -187500.02, -187500.02, 0.000, 0.000, 0.000, 14:40:22.152
149, 47162.45, 44172.81, -187500.02, -187500.02, -187500.02, -187500.02, -187500.02, -187500.02, 0.000, 0.000, 0.000, 14:40:22.152
