%OpenBCI Raw EEG Data
%
%Sample Rate = 250.0 Hz
%First Column = SampleIndex
%Last Column = Timestamp 
%Other Columns = EEG data in microvolts followed by Accel Data (in G) interleaved with Aux Data
0, -43162.47, 41828.61, -187500.02, -187500.02, -187500.02, -187500.02, -187500.02, -187500.02, 0.012, -0.014, 1.028, 17:58:53.139
1, -42523.72, 42290.68, -187500.02, -187500.02, -187500.02, -187359.95, -187500.02, -187500.02, 0.000, 0.000, 0.000, 17:58:53.140
2, -36108.95, 48650.67, -187500.02, -187500.02, -187500.02, -186844.44, -187500.02, -187500.02, 0.000, 0.000, 0.000, 17:58:53.140
3, -35046.44, 49811.62, -187500.02, -187500.02, -187500.02, -186971.95, -187500.02, -187500.02, 0.000, 0.000, 0.000, 17:58:53.140
4, -37089.25, 47828.26, -187500.02, -187500.02, -187500.02, -187222.63, -187500.02, -187500.02, 0.000, 0.000, 0.000, 17:58:53.140
5, -43170.52, 41814.14, -187500.02, -187500.02, -187500.02, -187500.02, -187500.02, -187500.02, 0.000, 0.000, 0.000, 17:58:53.140
6, -42568.20, 42242.94, -187500.02, -187500.02, -187500.02, -187329.03, -187500.02, -187500.02, 0.000, 0.000, 0.000, 17:58:53.140
7, -36123.91, 48633.84, -187500.02, -187500.02, -187500.02, -186838.45, -187500.02, -187500.02, 0.004, -0.020, 0.976, 17:58:53.140
8, -35037.16, 49820.65, -187500.02, -187500.02, -187500.02, -186997.42, -187500.02, -187500.02, 0.000, 0.000, 0.000, 17:58:53.140
9, -37068.27, 47851.53, -187500.02, -187500.02, -187500.02, -187240.53, -187500.02, -187500.02, 0.000, 0.000, 0.000, 17:58:53.141
10, -43137.19, 41848.41, -187500.02, -187500.02, -187500.02, -187500.02, -187500.02, -187500.02, 0.000, 0.000, 0.000, 17:58:53.141
11, -42543.57, 42263.79, -187500.02, -187500.02, -187500.02, -187380.02, -187500.02, -187500.02, 0.000, 0.000, 0.000, 17:58:53.141
12, -36094.27, 48668.89, -187500.02, -187500.02, -187500.02, -186891.44, -187500.02, -187500.02, 0.000, 0.000, 0.000, 17:58:53.141
13, -35021.72, 49850.18, -187500.02, -187500.02, -187500.02, -187057.73, -187500.02, -187500.02, 0.000, 0.000, 0.000, 17:58:53.141
14, -37059.79, 47868.38, -187500.02, -187500.02, -187500.02, -187293.08, -187500.02, -187500.02, 0.000, 0.000, 0.000, 17:58:53.141
15, -43136.12, 41859.18, -187500.02, -187500.02, -187500.02, -187500.02, -187500.02, -187500.02, 0.000, 0.000, 0.000, 17:58:53.141
16, -42598.63, 42223.14, -187500.02, -187500.02, -187500.02, -187437.75, -187500.02, -187500.02, -0.002, -0.014, 1.010, 17:58:53.141
17, -36155.75, 48615.51, -187500.02, -187500.02, -187500.02, -186960.47, -187500.02, -187500.02, 0.000, 0.000, 0.000, 17:58:53.142
18, -35072.46, 49800.76, -187500.02, -187500.02, -187500.02, -187084.67, -187500.02, -187500.02, 0.000, 0.000, 0.000, 17:58:53.142
19, -37113.30, 47819.88, -187500.02, -187500.02, -187500.02, -187263.73, -187500.02, -187500.02, 0.000, 0.000, 0.000, 17:58:53.142
20, -43174.63, 41830.46, -187500.02, -187500.02, -187500.02, -187500.02, -187500.02, -187500.02, 0.000, 0.000, 0.000, 17:58:53.142
21, -42663.38, 42169.05, -187500.02, -187500.02, -187500.02, -187429.36, -187500.02, -187500.02, 0.000, 0.000, 0.000, 17:58:53.142
22, -36209.63, 48570.61, -187500.02, -187500.02, -187500.02, -186923.63, -187500.02, -187500.02, 0.000, 0.000, 0.000, 17:58:53.142
23, -35068.07, 49811.60, -187500.02, -187500.02, -187500.02, -187093.08, -187500.02, -187500.02, 0.000, 0.000, 0.000, 17:58:53.142
24, -37081.92, 47854.61, -187500.02, -187500.02, -187500.02, -187292.38, -187500.02, -187500.02, 0.000, 0.000, 0.000, 17:58:53.142
25, -43140.52, 41860.08, -187500.02, -187500.02, -187500.02, -187500.02, -187500.02, -187500.02, 0.000, 0.000, 0.000, 17:58:53.142
26, -42663.04, 42166.34, -187500.02, -187500.02, -187500.02, -187433.11, -187500.02, -187500.02, 0.010, -0.018, 1.022, 17:58:53.143
27, -36206.27, 48568.93, -187500.02, -187500.02, -187500.02, -186921.67, -187500.02, -187500.02, 0.000, 0.000, 0.000, 17:58:53.143
28, -35066.71, 49805.41, -187500.02, -187500.02, -187500.02, -187059.58, -187500.02, -187500.02, 0.000, 0.000, 0.000, 17:58:53.143
29, -37070.08, 47864.16, -187500.02, -187500.02, -187500.02, -187254.13, -187500.02, -187500.02, 0.000, 0.000, 0.000, 17:58:53.143
30, -43126.88, 41877.85, -187500.02, -187500.02, -187500.02, -187500.02, -187500.02, -187500.02, 0.000, 0.000, 0.000, 17:58:53.143
31, -42686.40, 42144.88, -187500.02, -187500.02, -187500.02, -187377.47, -187500.02, -187500.02, 0.000, 0.000, 0.000, 17:58:53.143
32, -36215.43, 48558.11, -187500.02, -187500.02, -187500.02, -186873.78, -187500.02, -187500.02, 0.000, 0.000, 0.000, 17:58:53.143
33, -35044.67, 49828.27, -187500.02, -187500.02, -187500.02, -187048.75, -187500.02, -187500.02, 0.000, 0.000, 0.000, 17:58:53.143
34, -37016.63, 47913.89, -187500.02, -187500.02, -187500.02, -187308.94, -187500.02, -187500.02, 0.000, 0.000, 0.000, 17:58:53.144
35, -43056.68, 41942.91, -187500.02, -187500.02, -187500.02, -187500.02, -187500.02, -187500.02, 0.000, 0.000, 0.000, 17:58:53.144
36, -42664.61, 42164.20, -187500.02, -187500.02, -187500.02, -187500.02, -187500.02, -187500.02, 0.010, -0.016, 1.030, 17:58:53.144
37, -36213.82, 48558.25, -187500.02, -187500.02, -187500.02, -187003.88, -187500.02, -187500.02, 0.000, 0.000, 0.000, 17:58:53.144
38, -35043.55, 49830.26, -187500.02, -187500.02, -187500.02, -187144.33, -187500.02, -187500.02, 0.000, 0.000, 0.000, 17:58:53.144
39, -37027.27, 47905.69, -187500.02, -187500.02, -187500.02, -187332.56, -187500.02, -187500.02, 0.000, 0.000, 0.000, 17:58:53.144
40, -43074.07, 41927.27, -187500.02, -187500.02, -187500.02, -187500.02, -187500.02, -187500.02, 0.000, 0.000, 0.000, 17:58:53.144
41, -42696.23, 42132.43, -187500.02, -187500.02, -187500.02, -187481.67, -187500.02, -187500.02, 0.000, 0.000, 0.000, 17:58:53.144
42, -36226.63, 48546.47, -187500.02, -187500.02, -187500.02, -186992.50, -187500.02, -187500.02, 0.000, 0.000, 0.000, 17:58:53.144
43, -35055.09, 49816.36, -187500.02, -187500.02, -187500.02, -187098.94, -187500.02, -187500.02, 0.000, 0.000, 0.000, 17:58:53.145
44, -37021.77, 47908.26, -187500.02, -187500.02, -187500.02, -187311.45, -187500.02, -187500.02, 0.000, 0.000, 0.000, 17:58:53.145
45, -43065.95, 41936.14, -187500.02, -187500.02, -187500.02, -187500.02, -187500.02, -187500.02, 0.000, 0.000, 0.000, 17:58:53.145
46, -42722.27, 42107.45, -187500.02, -187500.02, -187500.02, -187458.13, -187500.02, -187500.02, 0.006, -0.012, 1.034, 17:58:53.145
47, -36245.30, 48524.90, -187500.02, -187500.02, -187500.02, -186952.11, -187500.02, -187500.02, 0.000, 0.000, 0.000, 17:58:53.145
48, -35035.09, 49836.12, -187500.02, -187500.02, -187500.02, -187099.34, -187500.02, -187500.02, 0.000, 0.000, 0.000, 17:58:53.145
49, -36972.54, 47958.01, -187500.02, -187500.02, -187500.02, -187355.22, -187500.02, -187500.02, 0.000, 0.000, 0.000, 17:58:53.145
50, -43017.12, 41987.19, -187500.02, -187500.02, -187500.02, -187500.02, -187500.02, -187500.02, 0.000, 0.000, 0.000, 17:58:53.145
51, -42715.14, 42121.30, -187500.02, -187500.02, -187500.02, -187500.02, -187500.02, -187500.02, 0.000, 0.000, 0.000, 17:58:53.146
52, -36226.97, 48547.23, -187500.02, -187500.02, -187500.02, -187079.09, -187500.02, -187500.02, 0.000, 0.000, 0.000, 17:58:53.146
53, -35029.52, 49836.03, -187500.02, -187500.02, -187500.02, -187187.73, -187500.02, -187500.02, 0.000, 0.000, 0.000, 17:58:53.146
54, -36969.65, 47950.17, -187500.02, -187500.02, -187500.02, -187386.16, -187500.02, -187500.02, 0.000, 0.000, 0.000, 17:58:53.146
55, -43011.75, 41980.48, -187500.02, -187500.02, -187500.02, -187500.02, -187500.02, -187500.02, 0.000, 0.000, 0.000, 17:58:53.146
56, -42745.68, 42080.06, -187500.02, -187500.02, -187500.02, -187500.02, -187500.02, -187500.02, 0.008, -0.016, 1.028, 17:58:53.146
57, -36252.00, 48517.61, -187500.02, -187500.02, -187500.02, -187044.44, -187500.02, -187500.02, 0.000, 0.000, 0.000, 17:58:53.146
58, -35031.29, 49839.67, -187500.02, -187500.02, -187500.02, -187175.27, -187500.02, -187500.02, 0.000, 0.000, 0.000, 17:58:53.146
59, -36961.40, 47962.50, -187500.02, -187500.02, -187500.02, -187394.36, -187500.02, -187500.02, 0.000, 0.000, 0.000, 17:58:53.146
60, -42990.83, 42004.98, -187500.02, -187500.02, -187500.02, -187500.02, -187500.02, -187500.02, 0.000, 0.000, 0.000, 17:58:53.147
61, -42751.15, 42079.13, -187500.02, -187500.02, -187500.02, -187500.02, -187500.02, -187500.02, 0.000, 0.000, 0.000, 17:58:53.147
62, -36264.16, 48506.57, -187500.02, -187500.02, -187500.02, -187062.72, -187500.02, -187500.02, 0.000, 0.000, 0.000, 17:58:53.147
63, -35025.92, 49844.57, -187500.02, -187500.02, -187500.02, -187171.33, -187500.02, -187500.02, 0.000, 0.000, 0.000, 17:58:53.148
64, -36945.11, 47986.31, -187500.02, -187500.02, -187500.02, -187394.27, -187500.02, -187500.02, 0.000, 0.000, 0.000, 17:58:53.148
65, -42984.77, 42019.64, -187500.02, -187500.02, -187500.02, -187500.02, -187500.02, -187500.02, 0.000, 0.000, 0.000, 17:58:53.148
66, -42779.61, 42053.04, -187500.02, -187500.02, -187500.02, -187500.02, -187500.02, -187500.02, 0.004, -0.014, 1.026, 17:58:53.148
67, -36280.72, 48487.82, -187500.02, -187500.02, -187500.02, -187009.39, -187500.02, -187500.02, 0.000, 0.000, 0.000, 17:58:53.149
68, -35015.17, 49849.21, -187500.02, -187500.02, -187500.02, -187116.58, -187500.02, -187500.02, 0.000, 0.000, 0.000, 17:58:53.149
69, -36901.97, 48019.01, -187500.02, -187500.02, -187500.02, -187380.20, -187500.02, -187500.02, 0.000, 0.000, 0.000, 17:58:53.149
70, -42933.45, 42063.05, -187500.02, -187500.02, -187500.02, -187500.02, -187500.02, -187500.02, 0.000, 0.000, 0.000, 17:58:53.149
71, -42783.50, 42045.73, -187500.02, -187500.02, -187500.02, -187500.02, -187500.02, -187500.02, 0.000, 0.000, 0.000, 17:58:53.149
72, -36271.14, 48497.23, -187500.02, -187500.02, -187500.02, -187079.11, -187500.02, -187500.02, 0.000, 0.000, 0.000, 17:58:53.149
73, -35007.91, 49861.71, -187500.02, -187500.02, -187500.02, -187194.22, -187500.02, -187500.02, 0.000, 0.000, 0.000, 17:58:53.149
74, -36922.58, 48007.32, -187500.02, -187500.02, -187500.02, -187376.97, -187500.02, -187500.02, 0.000, 0.000, 0.000, 17:58:53.149
75, -42933.92, 42068.02, -187500.02, -187500.02, -187500.02, -187500.02, -187500.02, -187500.02, 0.000, 0.000, 0.000, 17:58:53.149
76, -42810.09, 42018.55, -187500.02, -187500.02, -187500.02, -187500.02, -187500.02, -187500.02, 0.000, -0.012, 1.018, 17:58:53.150
77, -36288.95, 48467.59, -187500.02, -187500.02, -187500.02, -187070.91, -187500.02, -187500.02, 0.000, 0.000, 0.000, 17:58:53.150
78, -34986.87, 49874.47, -187500.02, -187500.02, -187500.02, -187181.33, -187500.02, -187500.02, 0.000, 0.000, 0.000, 17:58:53.150
79, -36910.26, 48024.02, -187500.02, -187500.02, -187500.02, -187380.36, -187500.02, -187500.02, 0.000, 0.000, 0.000, 17:58:53.150
80, -42974.18, 42032.21, -187500.02, -187500.02, -187500.02, -187500.02, -187500.02, -187500.02, 0.000, 0.000, 0.000, 17:58:53.150
81, -42895.50, 41938.98, -187500.02, -187500.02, -187500.02, -187500.02, -187500.02, -187500.02, 0.000, 0.000, 0.000, 17:58:53.150
82, -36364.86, 48404.38, -187500.02, -187500.02, -187500.02, -187035.80, -187500.02, -187500.02, 0.000, 0.000, 0.000, 17:58:53.150
83, -35072.03, 49798.05, -187500.02, -187500.02, -187500.02, -187153.66, -187500.02, -187500.02, 0.000, 0.000, 0.000, 17:58:53.150
84, -36954.12, 47977.55, -187500.02, -187500.02, -187500.02, -187414.50, -187500.02, -187500.02, 0.000, 0.000, 0.000, 17:58:53.151
85, -42993.00, 42012.74, -187500.02, -187500.02, -187500.02, -187500.02, -187500.02, -187500.02, 0.000, 0.000, 0.000, 17:58:53.151
86, -42941.39, 41896.96, -187500.02, -187500.02, -187500.02, -187500.02, -187500.02, -187500.02, 0.000, -0.014, 1.030, 17:58:53.151
87, -36400.02, 48372.04, -187500.02, -187500.02, -187500.02, -187092.45, -187500.02, -187500.02, 0.000, 0.000, 0.000, 17:58:53.151
88, -35071.76, 49801.34, -187500.02, -187500.02, -187500.02, -187204.33, -187500.02, -187500.02, 0.000, 0.000, 0.000, 17:58:53.151
89, -36934.36, 47996.10, -187500.02, -187500.02, -187500.02, -187428.56, -187500.02, -187500.02, 0.000, 0.000, 0.000, 17:58:53.151
90, -42956.23, 42053.93, -187500.02, -187500.02, -187500.02, -187500.02, -187500.02, -187500.02, 0.000, 0.000, 0.000, 17:58:53.151
91, -42940.63, 41910.19, -187500.02, -187500.02, -187500.02, -187500.02, -187500.02, -187500.02, 0.000, 0.000, 0.000, 17:58:53.151
92, -36395.84, 48386.56, -187500.02, -187500.02, -187500.02, -187114.47, -187500.02, -187500.02, 0.000, 0.000, 0.000, 17:58:53.152
93, -35052.77, 49829.88, -187500.02, -187500.02, -187500.02, -187213.94, -187500.02, -187500.02, 0.000, 0.000, 0.000, 17:58:53.152
94, -36918.44, 48019.50, -187500.02, -187500.02, -187500.02, -187434.13, -187500.02, -187500.02, 0.000, 0.000, 0.000, 17:58:53.152
95, -42955.83, 42052.86, -187500.02, -187500.02, -187500.02, -187500.02, -187500.02, -187500.02, 0.000, 0.000, 0.000, 17:58:53.152
96, -42956.68, 41886.36, -187500.02, -187500.02, -187500.02, -187500.02, -187500.02, -187500.02, -0.002, -0.012, 1.030, 17:58:53.152
97, -36392.71, 48385.42, -187500.02, -187500.02, -187500.02, -187078.31, -187500.02, -187500.02, 0.000, 0.000, 0.000, 17:58:53.152
98, -35023.66, 49856.04, -187500.02, -187500.02, -187500.02, -187226.05, -187500.02, -187500.02, 0.000, 0.000, 0.000, 17:58:53.152
99, -36879.24, 48057.46, -187500.02, -187500.02, -187500.02, -187468.80, -187500.02, -187500.02, 0.000, 0.000, 0.000, 17:58:53.152
100, -42923.35, 42089.05, -187500.02, -187500.02, -187500.02, -187500.02, -187500.02, -187500.02, 0.000, 0.000, 0.000, 17:58:53.153
101, -42973.60, 41872.13, -187500.02, -187500.02, -187500.02, -187500.02, -187500.02, -187500.02, 0.000, 0.000, 0.000, 17:58:53.153
102, -36384.70, 48390.05, -187500.02, -187500.02, -187500.02, -187102.78, -187500.02, -187500.02, 0.000, 0.000, 0.000, 17:58:53.153
103, -35011.86, 49862.67, -187500.02, -187500.02, -187500.02, -187236.52, -187500.02, -187500.02, 0.000, 0.000, 0.000, 17:58:53.153
104, -36871.53, 48057.16, -187500.02, -187500.02, -187500.02, -187429.45, -187500.02, -187500.02, 0.000, 0.000, 0.000, 17:58:53.153
105, -42912.20, 42087.62, -187500.02, -187500.02, -187500.02, -187500.02, -187500.02, -187500.02, 0.000, 0.000, 0.000, 17:58:53.153
106, -42983.32, 41852.37, -187500.02, -187500.02, -187500.02, -187500.02, -187500.02, -187500.02, 0.006, -0.014, 1.032, 17:58:53.153
107, -36402.77, 48367.25, -187500.02, -187500.02, -187500.02, -187060.22, -187500.02, -187500.02, 0.000, 0.000, 0.000, 17:58:53.153
108, -35001.02, 49869.71, -187500.02, -187500.02, -187500.02, -187166.61, -187500.02, -187500.02, 0.000, 0.000, 0.000, 17:58:53.153
109, -36833.89, 48094.07, -187500.02, -187500.02, -187500.02, -187391.52, -187500.02, -187500.02, 0.000, 0.000, 0.000, 17:58:53.154
110, -42856.81, 42150.43, -187500.02, -187500.02, -187500.02, -187500.02, -187500.02, -187500.02, 0.000, 0.000, 0.000, 17:58:53.154
111, -42970.45, 41873.53, -187500.02, -187500.02, -187500.02, -187500.02, -187500.02, -187500.02, 0.000, 0.000, 0.000, 17:58:53.154
112, -36387.79, 48385.78, -187500.02, -187500.02, -187500.02, -187150.41, -187500.02, -187500.02, 0.000, 0.000, 0.000, 17:58:53.154
113, -34980.01, 49894.95, -187500.02, -187500.02, -187500.02, -187274.63, -187500.02, -187500.02, 0.000, 0.000, 0.000, 17:58:53.154
114, -36811.55, 48120.64, -187500.02, -187500.02, -187500.02, -187500.02, -187500.02, -187500.02, 0.000, 0.000, 0.000, 17:58:53.154
115, -42854.44, 42155.03, -187500.02, -187500.02, -187500.02, -187500.02, -187500.02, -187500.02, 0.000, 0.000, 0.000, 17:58:53.154
116, -43006.21, 41836.61, -187500.02, -187500.02, -187500.02, -187500.02, -187500.02, -187500.02, 0.008, -0.018, 1.040, 17:58:53.154
117, -36392.35, 48376.91, -187500.02, -187500.02, -187500.02, -187148.64, -187500.02, -187500.02, 0.000, 0.000, 0.000, 17:58:53.155
118, -34966.66, 49899.89, -187500.02, -187500.02, -187500.02, -187247.23, -187500.02, -187500.02, 0.000, 0.000, 0.000, 17:58:53.155
119, -36796.29, 48126.57, -187500.02, -187500.02, -187500.02, -187431.42, -187500.02, -187500.02, 0.000, 0.000, 0.000, 17:58:53.155
120, -42819.86, 42178.48, -187500.02, -187500.02, -187500.02, -187500.02, -187500.02, -187500.02, 0.000, 0.000, 0.000, 17:58:53.620
121, -42988.01, 41845.66, -187500.02, -187500.02, -187500.02, -187500.02, -187500.02, -187500.02, 0.000, 0.000, 0.000, 17:58:53.620
122, -36378.16, 48385.51, -187500.02, -187500.02, -187500.02, -187126.05, -187500.02, -187500.02, 0.000, 0.000, 0.000, 17:58:53.620
123, -34926.48, 49939.29, -187500.02, -187500.02, -187500.02, -187242.70, -187500.02, -187500.02, 0.000, 0.000, 0.000, 17:58:53.620
124, -36742.45, 48181.02, -187500.02, -187500.02, -187500.02, -187473.44, -187500.02, -187500.02, 0.000, 0.000, 0.000, 17:58:53.621
125, -42771.78, 42227.76, -187500.02, -187500.02, -187500.02, -187500.02, -187500.02, -187500.02, 0.000, 0.000, 0.000, 17:58:53.621
126, -42971.92, 41861.98, -187500.02, -187500.02, -187500.02, -187500.02, -187500.02, -187500.02, 0.010, -0.012, 1.034, 17:58:53.621
127, -36370.36, 48393.83, -187500.02, -187500.02, -187500.02, -187150.91, -187500.02, -187500.02, 0.000, 0.000, 0.000, 17:58:53.621
128, -34909.64, 49957.29, -187500.02, -187500.02, -187500.02, -187222.94, -187500.02, -187500.02, 0.000, 0.000, 0.000, 17:58:53.621
129, -36699.11, 48224.40, -187500.02, -187500.02, -187500.02, -187478.06, -187500.02, -187500.02, 0.000, 0.000, 0.000, 17:58:53.621
130, -42722.48, 42281.34, -187500.02, -187500.02, -187500.02, -187500.02, -187500.02, -187500.02, 0.000, 0.000, 0.000, 17:58:53.621
131, -42985.80, 41854.51, -187500.02, -187500.02, -187500.02, -187500.02, -187500.02, -187500.02, 0.000, 0.000, 0.000, 17:58:53.621
132, -36364.03, 48398.41, -187500.02, -187500.02, -187500.02, -187155.08, -187500.02, -187500.02, 0.000, 0.000, 0.000, 17:58:53.622
133, -34885.64, 49984.55, -187500.02, -187500.02, -187500.02, -187256.14, -187500.02, -187500.02, 0.000, 0.000, 0.000, 17:58:53.622
134, -36688.93, 48241.61, -187500.02, -187500.02, -187500.02, -187497.84, -187500.02, -187500.02, 0.000, 0.000, 0.000, 17:58:53.622
135, -42739.57, 42267.32, -187500.02, -187500.02, -187500.02, -187500.02, -187500.02, -187500.02, 0.000, 0.000, 0.000, 17:58:53.622
136, -43016.22, 41825.19, -187500.02, -187500.02, -187500.02, -187500.02, -187500.02, -187500.02, 0.008, -0.016, 1.034, 17:58:53.622
137, -36386.34, 48386.18, -187500.02, -187500.02, -187500.02, -187107.31, -187500.02, -187500.02, 0.000, 0.000, 0.000, 17:58:53.622
138, -34887.45, 49992.29, -187500.02, -187500.02, -187500.02, -187218.09, -187500.02, -187500.02, 0.000, 0.000, 0.000, 17:58:53.622
139, -36674.45, 48260.59, -187500.02, -187500.02, -187500.02, -187450.70, -187500.02, -187500.02, 0.000, 0.000, 0.000, 17:58:53.622
140, -42721.16, 42290.01, -187500.02, -187500.02, -187500.02, -187500.02, -187500.02, -187500.02, 0.000, 0.000, 0.000, 17:58:53.622
141, -43035.24, 41810.19, -187500.02, -187500.02, -187500.02, -187500.02, -187500.02, -187500.02, 0.000, 0.000, 0.000, 17:58:53.623
142, -36380.88, 48389.47, -187500.02, -187500.02, -187500.02, -187117.20, -187500.02, -187500.02, 0.000, 0.000, 0.000, 17:58:53.623
143, -34868.72, 50002.88, -187500.02, -187500.02, -187500.02, -187205.38, -187500.02, -187500.02, 0.000, 0.000, 0.000, 17:58:53.623
144, -36655.86, 48273.08, -187500.02, -187500.02, -187500.02, -187407.33, -187500.02, -187500.02, 0.000, 0.000, 0.000, 17:58:53.623
145, -42685.32, 42320.14, -187500.02, -187500.02, -187500.02, -187500.02, -187500.02, -187500.02, 0.002, -0.014, 1.032, 17:58:53.623
146, -43023.95, 41819.09, -187500.02, -187500.02, -187500.02, -187500.02, -187500.02, -187500.02, 0.000, 0.000, 0.000, 17:58:53.623
147, -36369.02, 48399.95, -187500.02, -187500.02, -187500.02, -187138.28, -187500.02, -187500.02, 0.000, 0.000, 0.000, 17:58:53.623
148, -34822.77, 50045.91, -187500.02, -187500.02, -187500.02, -187234.86, -187500.02, -187500.02, 0.000, 0.000, 0.000, 17:58:53.623
149, -36595.19, 48328.25, -187500.02, -187500.02, -187500.02, -187453.97, -187500.02, -187500.02, 0.000, 0.000, 0.000, 17:58:53.624
150, -42642.07, 42361.05, -187500.02, -187500.02, -187500.02, -187500.02, -187500.02, -187500.02, 0.000, 0.000, 0.000, 17:58:53.624
151, -43030.04, 41812.80, -187500.02, -187500.02, -187500.02, -187500.02, -187500.02, -187500.02, 0.000, 0.000, 0.000, 17:58:53.624
152, -36347.87, 48419.71, -187500.02, -187500.02, -187500.02, -187144.83, -187500.02, -187500.02, 0.000, 0.000, 0.000, 17:58:53.624
153, -34777.17, 50092.09, -187500.02, -187500.02, -187500.02, -187269.55, -187500.02, -187500.02, 0.000, 0.000, 0.000, 17:58:53.624
154, -36546.31, 48379.86, -187500.02, -187500.02, -187500.02, -187500.02, -187500.02, -187500.02, 0.000, 0.000, 0.000, 17:58:53.624
155, -42595.83, 42411.61, -187500.02, -187500.02, -187500.02, -187500.02, -187500.02, -187500.02, 0.000, -0.014, 1.030, 17:58:53.624
156, -43004.44, 41841.35, -187500.02, -187500.02, -187500.02, -187500.02, -187500.02, -187500.02, 0.000, 0.000, 0.000, 17:58:53.624
157, -36316.35, 48452.03, -187500.02, -187500.02, -187500.02, -187173.64, -187500.02, -187500.02, 0.000, 0.000, 0.000, 17:58:53.624
158, -34728.75, 50140.01, -187500.02, -187500.02, -187500.02, -187286.83, -187500.02, -187500.02, 0.000, 0.000, 0.000, 17:58:53.625
159, -36493.16, 48431.29, -187500.02, -187500.02, -187500.02, -187500.02, -187500.02, -187500.02, 0.000, 0.000, 0.000, 17:58:53.625
160, -42554.52, 42454.50, -187500.02, -187500.02, -187500.02, -187500.02, -187500.02, -187500.02, 0.000, 0.000, 0.000, 17:58:53.625
161, -43003.77, 41846.24, -187500.02, -187500.02, -187500.02, -187500.02, -187500.02, -187500.02, 0.000, 0.000, 0.000, 17:58:53.625
162, -36291.12, 48477.89, -187500.02, -187500.02, -187500.02, -187190.41, -187500.02, -187500.02, 0.000, 0.000, 0.000, 17:58:53.625
163, -34686.35, 50181.96, -187500.02, -187500.02, -187500.02, -187293.13, -187500.02, -187500.02, 0.000, 0.000, 0.000, 17:58:53.625
164, -36446.73, 48479.90, -187500.02, -187500.02, -187500.02, -187500.02, -187500.02, -187500.02, 0.000, 0.000, 0.000, 17:58:53.625
165, -42511.18, 42494.42, -187500.02, -187500.02, -187500.02, -187500.02, -187500.02, -187500.02, 0.004, -0.010, 1.030, 17:58:53.625
166, -43013.34, 41830.37, -187500.02, -187500.02, -187500.02, -187500.02, -187500.02, -187500.02, 0.000, 0.000, 0.000, 17:58:53.626
167, -36292.01, 48471.54, -187500.02, -187500.02, -187500.02, -187165.77, -187500.02, -187500.02, 0.000, 0.000, 0.000, 17:58:53.626
168, -34663.57, 50203.38, -187500.02, -187500.02, -187500.02, -187281.03, -187500.02, -187500.02, 0.000, 0.000, 0.000, 17:58:53.626
169, -36404.82, 48522.86, -187500.02, -187500.02, -187500.02, -187500.02, -187500.02, -187500.02, 0.000, 0.000, 0.000, 17:58:53.626
170, -42474.93, 42534.27, -187500.02, -187500.02, -187500.02, -187500.02, -187500.02, -187500.02, 0.000, 0.000, 0.000, 17:58:53.626
171, -43023.66, 41820.54, -187500.02, -187500.02, -187500.02, -187500.02, -187500.02, -187500.02, 0.000, 0.000, 0.000, 17:58:53.626
172, -36303.34, 48455.56, -187500.02, -187500.02, -187500.02, -187274.75, -187500.02, -187500.02, 0.000, 0.000, 0.000, 17:58:53.626
173, -34668.98, 50191.04, -187500.02, -187500.02, -187500.02, -187372.19, -187500.02, -187500.02, 0.000, 0.000, 0.000, 17:58:53.626
174, -36430.57, 48491.57, -187500.02, -187500.02, -187500.02, -187500.02, -187500.02, -187500.02, 0.000, 0.000, 0.000, 17:58:53.626
175, -42515.18, 42484.81, -187500.02, -187500.02, -187500.02, -187500.02, -187500.02, -187500.02, 0.006, -0.010, 1.028, 17:58:53.627
176, -43074.70, 41764.48, -187500.02, -187500.02, -187500.02, -187500.02, -187500.02, -187500.02, 0.000, 0.000, 0.000, 17:58:53.627
177, -36331.51, 48427.06, -187500.02, -187500.02, -187500.02, -187279.42, -187500.02, -187500.02, 0.000, 0.000, 0.000, 17:58:53.627
178, -34686.62, 50175.75, -187500.02, -187500.02, -187500.02, -187357.44, -187500.02, -187500.02, 0.000, 0.000, 0.000, 17:58:53.627
179, -36444.43, 48477.31, -187500.02, -187500.02, -187500.02, -187500.02, -187500.02, -187500.02, 0.000, 0.000, 0.000, 17:58:53.627
180, -42539.61, 42462.88, -187500.02, -187500.02, -187500.02, -187500.02, -187500.02, -187500.02, 0.000, 0.000, 0.000, 17:58:53.627
181, -43144.01, 41697.16, -187500.02, -187500.02, -187500.02, -187500.02, -187500.02, -187500.02, 0.000, 0.000, 0.000, 17:58:53.627
182, -36382.43, 48377.20, -187500.02, -187500.02, -187500.02, -187237.47, -187500.02, -187500.02, 0.000, 0.000, 0.000, 17:58:53.627
183, -34708.26, 50153.27, -187500.02, -187500.02, -187500.02, -187349.09, -187500.02, -187500.02, 0.000, 0.000, 0.000, 17:58:53.628
184, -36453.32, 48459.54, -187500.02, -187500.02, -187500.02, -187500.02, -187500.02, -187500.02, 0.000, 0.000, 0.000, 17:58:53.628
185, -42570.95, 42427.95, -187500.02, -187500.02, -187500.02, -187500.02, -187500.02, -187500.02, 0.004, -0.014, 1.030, 17:58:53.628
186, -43206.46, 41636.14, -187500.02, -187500.02, -187500.02, -187500.02, -187500.02, -187500.02, 0.000, 0.000, 0.000, 17:58:53.628
187, -36426.28, 48329.36, -187500.02, -187500.02, -187500.02, -187243.64, -187500.02, -187500.02, 0.000, 0.000, 0.000, 17:58:53.628
188, -34740.87, 50120.75, -187500.02, -187500.02, -187500.02, -187350.73, -187500.02, -187500.02, 0.000, 0.000, 0.000, 17:58:53.628
189, -36482.98, 48437.03, -187500.02, -187500.02, -187500.02, -187500.02, -187500.02, -187500.02, 0.000, 0.000, 0.000, 17:58:53.628
190, -42573.39, 42427.77, -187500.02, -187500.02, -187500.02, -187500.02, -187500.02, -187500.02, 0.000, 0.000, 0.000, 17:58:53.629
191, -43250.45, 41589.51, -187500.02, -187500.02, -187500.02, -187500.02, -187500.02, -187500.02, 0.000, 0.000, 0.000, 17:58:53.629
192, -36475.05, 48279.16, -187500.02, -187500.02, -187500.02, -187319.84, -187500.02, -187500.02, 0.000, 0.000, 0.000, 17:58:53.629
193, -34775.60, 50080.94, -187500.02, -187500.02, -187500.02, -187404.42, -187500.02, -187500.02, 0.000, 0.000, 0.000, 17:58:53.629
194, -36503.77, 48414.50, -187500.02, -187500.02, -187500.02, -187500.02, -187500.02, -187500.02, 0.000, 0.000, 0.000, 17:58:53.629
195, -42626.14, 42376.83, -187500.02, -187500.02, -187500.02, -187500.02, -187500.02, -187500.02, 0.006, -0.022, 1.028, 17:58:53.629
196, -43355.05, 41485.75, -187500.02, -187500.02, -187500.02, -187500.02, -187500.02, -187500.02, 0.000, 0.000, 0.000, 17:58:53.629
197, -36545.79, 48206.68, -187500.02, -187500.02, -187500.02, -187280.72, -187500.02, -187500.02, 0.000, 0.000, 0.000, 17:58:53.629
198, -34823.61, 50034.89, -187500.02, -187500.02, -187500.02, -187378.53, -187500.02, -187500.02, 0.000, 0.000, 0.000, 17:58:53.630
199, -36557.46, 48359.92, -187500.02, -187500.02, -187500.02, -187500.02, -187500.02, -187500.02, 0.000, 0.000, 0.000, 17:58:53.630
200, -42671.58, 42330.94, -187500.02, -187500.02, -187500.02, -187500.02, -187500.02, -187500.02, 0.000, 0.000, 0.000, 17:58:53.630
201, -43432.86, 41409.80, -187500.02, -187500.02, -187500.02, -187500.02, -187500.02, -187500.02, 0.000, 0.000, 0.000, 17:58:53.630
202, -36617.21, 48139.82, -187500.02, -187500.02, -187500.02, -187256.58, -187500.02, -187500.02, 0.000, 0.000, 0.000, 17:58:53.630
203, -34886.36, 49980.87, -187500.02, -187500.02, -187500.02, -187356.70, -187500.02, -187500.02, 0.000, 0.000, 0.000, 17:58:53.630
204, -36620.34, 48306.14, -187500.02, -187500.02, -187500.02, -187500.02, -187500.02, -187500.02, 0.000, 0.000, 0.000, 17:58:53.630
205, -42746.08, 42263.64, -187500.02, -187500.02, -187500.02, -187500.02, -187500.02, -187500.02, 0.006, -0.018, 1.032, 17:58:53.630
206, -43539.09, 41309.58, -187500.02, -187500.02, -187500.02, -187500.02, -187500.02, -187500.02, 0.000, 0.000, 0.000, 17:58:53.631
207, -36713.23, 48040.40, -187500.02, -187500.02, -187500.02, -187218.08, -187500.02, -187500.02, 0.000, 0.000, 0.000, 17:58:53.631
208, -34949.36, 49911.91, -187500.02, -187500.02, -187500.02, -187292.91, -187500.02, -187500.02, 0.000, 0.000, 0.000, 17:58:53.631
209, -36667.05, 48256.14, -187500.02, -187500.02, -187500.02, -187500.02, -187500.02, -187500.02, 0.000, 0.000, 0.000, 17:58:53.631
210, -42789.46, 42215.58, -187500.02, -187500.02, -187500.02, -187500.02, -187500.02, -187500.02, 0.000, 0.000, 0.000, 17:58:53.631
211, -43612.32, 41235.52, -187500.02, -187500.02, -187500.02, -187500.02, -187500.02, -187500.02, 0.000, 0.000, 0.000, 17:58:53.631
212, -36769.63, 47989.57, -187500.02, -187500.02, -187500.02, -187247.31, -187500.02, -187500.02, 0.000, 0.000, 0.000, 17:58:53.631
213, -34984.82, 49872.91, -187500.02, -187500.02, -187500.02, -187348.27, -187500.02, -187500.02, 0.000, 0.000, 0.000, 17:58:53.632
214, -36703.89, 48208.26, -187500.02, -187500.02, -187500.02, -187500.02, -187500.02, -187500.02, 0.000, 0.000, 0.000, 17:58:53.632
215, -42829.99, 42168.89, -187500.02, -187500.02, -187500.02, -187500.02, -187500.02, -187500.02, 0.010, -0.012, 1.032, 17:58:53.632
216, -43686.28, 41153.56, -187500.02, -187500.02, -187500.02, -187500.02, -187500.02, -187500.02, 0.000, 0.000, 0.000, 17:58:53.632
217, -36826.55, 47922.90, -187500.02, -187500.02, -187500.02, -187244.69, -187500.02, -187500.02, 0.000, 0.000, 0.000, 17:58:53.632
218, -35021.81, 49835.63, -187500.02, -187500.02, -187500.02, -187314.56, -187500.02, -187500.02, 0.000, 0.000, 0.000, 17:58:53.632
219, -36720.88, 48197.27, -187500.02, -187500.02, -187500.02, -187500.02, -187500.02, -187500.02, 0.000, 0.000, 0.000, 17:58:53.632
220, -42857.59, 42144.05, -187500.02, -187500.02, -187500.02, -187500.02, -187500.02, -187500.02, 0.000, 0.000, 0.000, 17:58:53.632
221, -43742.32, 41099.96, -187500.02, -187500.02, -187500.02, -187500.02, -187500.02, -187500.02, 0.000, 0.000, 0.000, 17:58:53.632
222, -36843.88, 47910.92, -187500.02, -187500.02, -187500.02, -187242.48, -187500.02, -187500.02, 0.000, 0.000, 0.000, 17:58:53.633
223, -35017.27, 49842.36, -187500.02, -187500.02, -187500.02, -187338.61, -187500.02, -187500.02, 0.000, 0.000, 0.000, 17:58:53.633
224, -36721.86, 48191.21, -187500.02, -187500.02, -187500.02, -187500.02, -187500.02, -187500.02, 0.000, 0.000, 0.000, 17:58:53.633
225, -42865.44, 42131.20, -187500.02, -187500.02, -187500.02, -187500.02, -187500.02, -187500.02, 0.018, -0.018, 1.030, 17:58:53.633
226, -43777.77, 41060.24, -187500.02, -187500.02, -187500.02, -187500.02, -187500.02, -187500.02, 0.000, 0.000, 0.000, 17:58:53.633
227, -36883.30, 47862.04, -187500.02, -187500.02, -187500.02, -187243.53, -187500.02, -187500.02, 0.000, 0.000, 0.000, 17:58:53.633
228, -35029.99, 49822.89, -187500.02, -187500.02, -187500.02, -187325.61, -187500.02, -187500.02, 0.000, 0.000, 0.000, 17:58:53.633
229, -36714.39, 48195.52, -187500.02, -187500.02, -187500.02, -187500.02, -187500.02, -187500.02, 0.000, 0.000, 0.000, 17:58:53.633
230, -42844.07, 42150.58, -187500.02, -187500.02, -187500.02, -187500.02, -187500.02, -187500.02, 0.000, 0.000, 0.000, 17:58:53.634
231, -43811.54, 41028.59, -187500.02, -187500.02, -187500.02, -187500.02, -187500.02, -187500.02, 0.000, 0.000, 0.000, 17:58:53.634
232, -36907.91, 47839.64, -187500.02, -187500.02, -187500.02, -187275.45, -187500.02, -187500.02, 0.000, 0.000, 0.000, 17:58:53.634
233, -35033.16, 49817.54, -187500.02, -187500.02, -187500.02, -187371.67, -187500.02, -187500.02, 0.000, 0.000, 0.000, 17:58:53.634
234, -36724.07, 48184.95, -187500.02, -187500.02, -187500.02, -187500.02, -187500.02, -187500.02, 0.000, 0.000, 0.000, 17:58:53.634
235, -42878.76, 42119.80, -187500.02, -187500.02, -187500.02, -187500.02, -187500.02, -187500.02, 0.010, -0.018, 1.024, 17:58:53.634
236, -43875.24, 40966.05, -187500.02, -187500.02, -187500.02, -187500.02, -187500.02, -187500.02, 0.000, 0.000, 0.000, 17:58:53.634
237, -36949.76, 47793.75, -187500.02, -187500.02, -187500.02, -187243.47, -187500.02, -187500.02, 0.000, 0.000, 0.000, 17:58:53.634
238, -35067.47, 49783.99, -187500.02, -187500.02, -187500.02, -187310.94, -187500.02, -187500.02, 0.000, 0.000, 0.000, 17:58:53.635
239, -36760.26, 48152.38, -187500.02, -187500.02, -187500.02, -187500.02, -187500.02, -187500.02, 0.000, 0.000, 0.000, 17:58:53.635
240, -42890.96, 42106.04, -187500.02, -187500.02, -187500.02, -187500.02, -187500.02, -187500.02, 0.000, 0.000, 0.000, 17:58:54.101
241, -43925.47, 40916.83, -187500.02, -187500.02, -187500.02, -187500.02, -187500.02, -187500.02, 0.000, 0.000, 0.000, 17:58:54.101
242, -36999.49, 47744.46, -187500.02, -187500.02, -187500.02, -187208.22, -187500.02, -187500.02, 0.000, 0.000, 0.000, 17:58:54.101
243, -35082.92, 49760.75, -187500.02, -187500.02, -187500.02, -187287.52, -187500.02, -187500.02, 0.000, 0.000, 0.000, 17:58:54.101
244, -36761.93, 48145.05, -187500.02, -187500.02, -187500.02, -187500.02, -187500.02, -187500.02, 0.000, 0.000, 0.000, 17:58:54.101
245, -42912.24, 42083.48, -187500.02, -187500.02, -187500.02, -187500.02, -187500.02, -187500.02, 0.004, -0.014, 1.028, 17:58:54.101
246, -43974.39, 40861.76, -187500.02, -187500.02, -187500.02, -187500.02, -187500.02, -187500.02, 0.000, 0.000, 0.000, 17:58:54.101
247, -37035.25, 47707.43, -187500.02, -187500.02, -187500.02, -187215.83, -187500.02, -187500.02, 0.000, 0.000, 0.000, 17:58:54.101
248, -35093.33, 49749.33, -187500.02, -187500.02, -187500.02, -187286.41, -187500.02, -187500.02, 0.000, 0.000, 0.000, 17:58:54.102
249, -36752.95, 48145.07, -187500.02, -187500.02, -187500.02, -187500.02, -187500.02, -187500.02, 0.000, 0.000, 0.000, 17:58:54.102
250, -42884.37, 42105.77, -187500.02, -187500.02, -187500.02, -187500.02, -187500.02, -187500.02, 0.000, 0.000, 0.000, 17:58:54.102
251, -43994.58, 40845.75, -187500.02, -187500.02, -187500.02, -187500.02, -187500.02, -187500.02, 0.000, 0.000, 0.000, 17:58:54.102
252, -37045.31, 47694.60, -187500.02, -187500.02, -187500.02, -187253.16, -187500.02, -187500.02, 0.000, 0.000, 0.000, 17:58:54.102
253, -35107.13, 49739.40, -187500.02, -187500.02, -187500.02, -187302.09, -187500.02, -187500.02, 0.000, 0.000, 0.000, 17:58:54.102
254, -36776.24, 48135.62, -187500.02, -187500.02, -187500.02, -187500.02, -187500.02, -187500.02, 0.000, 0.000, 0.000, 17:58:54.102
255, -42925.72, 42074.27, -187500.02, -187500.02, -187500.02, -187500.02, -187500.02, -187500.02, 0.008, -0.012, 1.036, 17:58:54.102
0, -44046.37, 40795.38, -187500.02, -187500.02, -187500.02, -187500.02, -187500.02, -187500.02, 0.000, 0.000, 0.000, 17:58:54.103
1, -37070.23, 47674.10, -187500.02, -187500.02, -187500.02, -187239.06, -187500.02, -187500.02, 0.000, 0.000, 0.000, 17:58:54.103
2, -35104.08, 49744.34, -187500.02, -187500.02, -187500.02, -187301.94, -187500.02, -187500.02, 0.000, 0.000, 0.000, 17:58:54.103
3, -36760.55, 48145.16, -187500.02, -187500.02, -187500.02, -187500.02, -187500.02, -187500.02, 0.000, 0.000, 0.000, 17:58:54.103
4, -42907.86, 42086.16, -187500.02, -187500.02, -187500.02, -187500.02, -187500.02, -187500.02, 0.000, 0.000, 0.000, 17:58:54.103
5, -44086.40, 40753.02, -187500.02, -187500.02, -187500.02, -187500.02, -187500.02, -187500.02, 0.000, 0.000, 0.000, 17:58:54.103
6, -37098.30, 47646.86, -187500.02, -187500.02, -187500.02, -187201.36, -187500.02, -187500.02, 0.000, 0.000, 0.000, 17:58:54.103
7, -35107.19, 49745.21, -187500.02, -187500.02, -187500.02, -187270.67, -187500.02, -187500.02, 0.000, 0.000, 0.000, 17:58:54.103
8, -36756.28, 48152.20, -187500.02, -187500.02, -187500.02, -187491.45, -187500.02, -187500.02, 0.000, 0.000, 0.000, 17:58:54.104
9, -42889.64, 42106.59, -187500.02, -187500.02, -187500.02, -187500.02, -187500.02, -187500.02, 0.006, -0.014, 1.034, 17:58:54.104
10, -44089.80, 40753.75, -187500.02, -187500.02, -187500.02, -187500.02, -187500.02, -187500.02, 0.000, 0.000, 0.000, 17:58:54.104
11, -37114.54, 47630.54, -187500.02, -187500.02, -187500.02, -187191.00, -187500.02, -187500.02, 0.000, 0.000, 0.000, 17:58:54.104
12, -35103.61, 49743.89, -187500.02, -187500.02, -187500.02, -187233.16, -187500.02, -187500.02, 0.000, 0.000, 0.000, 17:58:54.104
13, -36742.22, 48158.42, -187500.02, -187500.02, -187500.02, -187445.48, -187500.02, -187500.02, 0.000, 0.000, 0.000, 17:58:54.104
14, -42863.25, 42126.31, -187500.02, -187500.02, -187500.02, -187500.02, -187500.02, -187500.02, 0.000, 0.000, 0.000, 17:58:54.104
15, -44104.48, 40733.59, -187500.02, -187500.02, -187500.02, -187500.02, -187500.02, -187500.02, 0.000, 0.000, 0.000, 17:58:54.104
16, -37126.61, 47615.94, -187500.02, -187500.02, -187500.02, -187224.16, -187500.02, -187500.02, 0.000, 0.000, 0.000, 17:58:54.104
17, -35089.67, 49762.04, -187500.02, -187500.02, -187500.02, -187323.53, -187500.02, -187500.02, 0.000, 0.000, 0.000, 17:58:54.105
18, -36729.93, 48177.24, -187500.02, -187500.02, -187500.02, -187500.02, -187500.02, -187500.02, 0.008, -0.014, 1.034, 17:58:54.105
19, -42873.59, 42122.57, -187500.02, -187500.02, -187500.02, -187500.02, -187500.02, -187500.02, 0.000, 0.000, 0.000, 17:58:54.105
20, -44155.07, 40692.31, -187500.02, -187500.02, -187500.02, -187500.02, -187500.02, -187500.02, 0.000, 0.000, 0.000, 17:58:54.105
21, -37172.38, 47576.09, -187500.02, -187500.02, -187500.02, -187229.05, -187500.02, -187500.02, 0.000, 0.000, 0.000, 17:58:54.105
22, -35123.57, 49727.11, -187500.02, -187500.02, -187500.02, -187271.38, -187500.02, -187500.02, 0.000, 0.000, 0.000, 17:58:54.105
23, -36746.71, 48157.48, -187500.02, -187500.02, -187500.02, -187497.42, -187500.02, -187500.02, 0.000, 0.000, 0.000, 17:58:54.105
24, -42867.98, 42120.72, -187500.02, -187500.02, -187500.02, -187500.02, -187500.02, -187500.02, 0.000, 0.000, 0.000, 17:58:54.105
25, -44158.98, 40684.64, -187500.02, -187500.02, -187500.02, -187500.02, -187500.02, -187500.02, 0.000, 0.000, 0.000, 17:58:54.106
26, -37163.17, 47584.79, -187500.02, -187500.02, -187500.02, -187272.05, -187500.02, -187500.02, 0.000, 0.000, 0.000, 17:58:54.106
27, -35115.26, 49741.70, -187500.02, -187500.02, -187500.02, -187278.06, -187500.02, -187500.02, 0.000, 0.000, 0.000, 17:58:54.106
28, -36741.39, 48172.77, -187500.02, -187500.02, -187500.02, -187463.09, -187500.02, -187500.02, 0.010, -0.012, 1.024, 17:58:54.106
29, -42857.48, 42138.71, -187500.02, -187500.02, -187500.02, -187500.02, -187500.02, -187500.02, 0.000, 0.000, 0.000, 17:58:54.106
30, -44187.14, 40658.58, -187500.02, -187500.02, -187500.02, -187500.02, -187500.02, -187500.02, 0.000, 0.000, 0.000, 17:58:54.106
31, -37189.64, 47560.40, -187500.02, -187500.02, -187500.02, -187167.48, -187500.02, -187500.02, 0.000, 0.000, 0.000, 17:58:54.106
32, -35086.85, 49762.34, -187500.02, -187500.02, -187500.02, -187221.94, -187500.02, -187500.02, 0.000, 0.000, 0.000, 17:58:54.106
33, -36678.79, 48222.01, -187500.02, -187500.02, -187500.02, -187484.50, -187500.02, -187500.02, 0.000, 0.000, 0.000, 17:58:54.106
34, -42791.27, 42195.33, -187500.02, -187500.02, -187500.02, -187500.02, -187500.02, -187500.02, 0.000, 0.000, 0.000, 17:58:54.107
35, -44164.74, 40681.70, -187500.02, -187500.02, -187500.02, -187500.02, -187500.02, -187500.02, 0.000, 0.000, 0.000, 17:58:54.107
36, -37173.88, 47583.38, -187500.02, -187500.02, -187500.02, -187269.09, -187500.02, -187500.02, 0.000, 0.000, 0.000, 17:58:54.107
37, -35083.34, 49775.43, -187500.02, -187500.02, -187500.02, -187314.19, -187500.02, -187500.02, 0.000, 0.000, 0.000, 17:58:54.107
38, -36694.30, 48212.84, -187500.02, -187500.02, -187500.02, -187500.02, -187500.02, -187500.02, 0.010, -0.016, 1.024, 17:58:54.107
39, -42816.38, 42171.44, -187500.02, -187500.02, -187500.02, -187500.02, -187500.02, -187500.02, 0.000, 0.000, 0.000, 17:58:54.107
40, -44243.11, 40596.15, -187500.02, -187500.02, -187500.02, -187500.02, -187500.02, -187500.02, 0.000, 0.000, 0.000, 17:58:54.107
41, -37234.52, 47505.84, -187500.02, -187500.02, -187500.02, -187227.86, -187500.02, -187500.02, 0.000, 0.000, 0.000, 17:58:54.107
42, -35118.07, 49726.28, -187500.02, -187500.02, -187500.02, -187278.64, -187500.02, -187500.02, 0.000, 0.000, 0.000, 17:58:54.108
43, -36728.88, 48168.93, -187500.02, -187500.02, -187500.02, -187487.36, -187500.02, -187500.02, 0.000, 0.000, 0.000, 17:58:54.108
44, -42845.43, 42139.83, -187500.02, -187500.02, -187500.02, -187500.02, -187500.02, -187500.02, 0.000, 0.000, 0.000, 17:58:54.108
45, -44300.30, 40547.83, -187500.02, -187500.02, -187500.02, -187500.02, -187500.02, -187500.02, 0.000, 0.000, 0.000, 17:58:54.108
46, -37308.30, 47447.14, -187500.02, -187500.02, -187500.02, -187213.33, -187500.02, -187500.02, 0.000, 0.000, 0.000, 17:58:54.108
47, -35165.73, 49689.29, -187500.02, -187500.02, -187500.02, -187266.81, -187500.02, -187500.02, 0.000, 0.000, 0.000, 17:58:54.108
48, -36770.56, 48133.72, -187500.02, -187500.02, -187500.02, -187483.94, -187500.02, -187500.02, 0.012, -0.012, 1.026, 17:58:54.108
49, -42871.11, 42114.48, -187500.02, -187500.02, -187500.02, -187500.02, -187500.02, -187500.02, 0.000, 0.000, 0.000, 17:58:54.108
50, -44347.18, 40492.98, -187500.02, -187500.02, -187500.02, -187500.02, -187500.02, -187500.02, 0.000, 0.000, 0.000, 17:58:54.109
51, -37353.72, 47398.17, -187500.02, -187500.02, -187500.02, -187218.63, -187500.02, -187500.02, 0.000, 0.000, 0.000, 17:58:54.109
52, -35171.41, 49685.18, -187500.02, -187500.02, -187500.02, -187279.03, -187500.02, -187500.02, 0.000, 0.000, 0.000, 17:58:54.109
53, -36733.75, 48169.50, -187500.02, -187500.02, -187500.02, -187500.02, -187500.02, -187500.02, 0.000, 0.000, 0.000, 17:58:54.109
54, -42827.44, 42159.41, -187500.02, -187500.02, -187500.02, -187500.02, -187500.02, -187500.02, 0.000, 0.000, 0.000, 17:58:54.109
55, -44352.39, 40491.77, -187500.02, -187500.02, -187500.02, -187500.02, -187500.02, -187500.02, 0.000, 0.000, 0.000, 17:58:54.109
56, -37350.21, 47396.89, -187500.02, -187500.02, -187500.02, -187240.58, -187500.02, -187500.02, 0.000, 0.000, 0.000, 17:58:54.109
57, -35154.46, 49697.34, -187500.02, -187500.02, -187500.02, -187304.53, -187500.02, -187500.02, 0.000, 0.000, 0.000, 17:58:54.109
58, -36720.61, 48184.21, -187500.02, -187500.02, -187500.02, -187500.02, -187500.02, -187500.02, 0.010, -0.016, 1.030, 17:58:54.109
59, -42787.23, 42199.22, -187500.02, -187500.02, -187500.02, -187500.02, -187500.02, -187500.02, 0.000, 0.000, 0.000, 17:58:54.110
60, -44331.42, 40507.75, -187500.02, -187500.02, -187500.02, -187500.02, -187500.02, -187500.02, 0.000, 0.000, 0.000, 17:58:54.110
61, -37320.73, 47418.73, -187500.02, -187500.02, -187500.02, -187247.83, -187500.02, -187500.02, 0.000, 0.000, 0.000, 17:58:54.110
62, -35085.71, 49758.60, -187500.02, -187500.02, -187500.02, -187301.83, -187500.02, -187500.02, 0.000, 0.000, 0.000, 17:58:54.110
63, -36638.09, 48259.05, -187500.02, -187500.02, -187500.02, -187500.02, -187500.02, -187500.02, 0.000, 0.000, 0.000, 17:58:54.110
64, -42684.03, 42299.69, -187500.02, -187500.02, -187500.02, -187500.02, -187500.02, -187500.02, 0.000, 0.000, 0.000, 17:58:54.110
65, -44258.40, 40586.81, -187500.02, -187500.02, -187500.02, -187500.02, -187500.02, -187500.02, 0.000, 0.000, 0.000, 17:58:54.111
66, -37236.44, 47506.48, -187500.02, -187500.02, -187500.02, -187203.50, -187500.02, -187500.02, 0.000, 0.000, 0.000, 17:58:54.111
67, -34972.48, 49876.20, -187500.02, -187500.02, -187500.02, -187248.52, -187500.02, -187500.02, 0.000, 0.000, 0.000, 17:58:54.111
68, -36478.63, 48423.71, -187500.02, -187500.02, -187500.02, -187500.02, -187500.02, -187500.02, 0.006, -0.018, 1.034, 17:58:54.111
69, -42516.55, 42473.45, -187500.02, -187500.02, -187500.02, -187500.02, -187500.02, -187500.02, 0.000, 0.000, 0.000, 17:58:54.111
70, -44136.36, 40708.85, -187500.02, -187500.02, -187500.02, -187500.02, -187500.02, -187500.02, 0.000, 0.000, 0.000, 17:58:54.112
71, -37123.43, 47615.27, -187500.02, -187500.02, -187500.02, -187281.55, -187500.02, -187500.02, 0.000, 0.000, 0.000, 17:58:54.112
72, -34856.25, 49989.21, -187500.02, -187500.02, -187500.02, -187299.28, -187500.02, -187500.02, 0.000, 0.000, 0.000, 17:58:54.112
73, -36376.61, 48530.06, -187500.02, -187500.02, -187500.02, -187500.02, -187500.02, -187500.02, 0.000, 0.000, 0.000, 17:58:54.112
74, -42406.44, 42587.25, -187500.02, -187500.02, -187500.02, -187500.02, -187500.02, -187500.02, 0.000, 0.000, 0.000, 17:58:54.112
75, -44045.32, 40800.92, -187500.02, -187500.02, -187500.02, -187500.02, -187500.02, -187500.02, 0.000, 0.000, 0.000, 17:58:54.112
76, -37041.29, 47698.20, -187500.02, -187500.02, -187500.02, -187279.83, -187500.02, -187500.02, 0.000, 0.000, 0.000, 17:58:54.113
77, -34755.78, 50089.34, -187500.02, -187500.02, -187500.02, -187313.41, -187500.02, -187500.02, 0.000, 0.000, 0.000, 17:58:54.113
78, -36263.25, 48636.03, -187500.02, -187500.02, -187500.02, -187500.02, -187500.02, -187500.02, 0.004, -0.016, 1.032, 17:58:54.113
79, -42283.71, 42703.30, -187500.02, -187500.02, -187500.02, -187500.02, -187500.02, -187500.02, 0.000, 0.000, 0.000, 17:58:54.113
80, -43963.11, 40878.05, -187500.02, -187500.02, -187500.02, -187500.02, -187500.02, -187500.02, 0.000, 0.000, 0.000, 17:58:54.113
81, -36949.06, 47785.35, -187500.02, -187500.02, -187500.02, -187289.19, -187500.02, -187500.02, 0.000, 0.000, 0.000, 17:58:54.113
82, -34637.91, 50208.39, -187500.02, -187500.02, -187500.02, -187316.27, -187500.02, -187500.02, 0.000, 0.000, 0.000, 17:58:54.114
83, -36118.70, 48784.13, -187500.02, -187500.02, -187500.02, -187500.02, -187500.02, -187500.02, 0.000, 0.000, 0.000, 17:58:54.114
84, -42116.81, 42870.55, -187500.02, -187500.02, -187500.02, -187500.02, -187500.02, -187500.02, 0.000, 0.000, 0.000, 17:58:54.114
85, -43814.16, 41027.86, -187500.02, -187500.02, -187500.02, -187500.02, -187500.02, -187500.02, 0.000, 0.000, 0.000, 17:58:54.114
86, -36789.43, 47939.66, -187500.02, -187500.02, -187500.02, -187290.83, -187500.02, -187500.02, 0.000, 0.000, 0.000, 17:58:54.114
87, -34429.15, 50401.30, -187500.02, -187500.02, -187500.02, -187325.31, -187500.02, -187500.02, 0.000, 0.000, 0.000, 17:58:54.114
88, -35872.47, 49011.29, -187500.02, -187500.02, -187500.02, -187500.02, -187500.02, -187500.02, 0.004, -0.012, 1.028, 17:58:54.115
89, -41829.97, 43144.57, -187500.02, -187500.02, -187500.02, -187500.02, -187500.02, -187500.02, 0.000, 0.000, 0.000, 17:58:54.115
90, -43550.32, 41285.14, -187500.02, -187500.02, -187500.02, -187500.02, -187500.02, -187500.02, 0.000, 0.000, 0.000, 17:58:54.115
91, -36526.93, 48200.57, -187500.02, -187500.02, -187500.02, -187367.45, -187500.02, -187500.02, 0.000, 0.000, 0.000, 17:58:54.115
92, -34145.95, 50687.25, -187500.02, -187500.02, -187500.02, -187407.72, -187500.02, -187500.02, 0.000, 0.000, 0.000, 17:58:54.115
93, -35595.71, 49289.77, -187500.02, -187500.02, -187500.02, -187500.02, -187500.02, -187500.02, 0.000, 0.000, 0.000, 17:58:54.115
94, -41557.03, 43418.35, -187500.02, -187500.02, -187500.02, -187500.02, -187500.02, -187500.02, 0.000, 0.000, 0.000, 17:58:54.115
95, -43320.14, 41516.69, -187500.02, -187500.02, -187500.02, -187500.02, -187500.02, -187500.02, 0.000, 0.000, 0.000, 17:58:54.115
96, -36314.30, 48405.09, -187500.02, -187500.02, -187500.02, -187427.78, -187500.02, -187500.02, 0.000, 0.000, 0.000, 17:58:54.116
97, -33932.56, 50888.06, -187500.02, -187500.02, -187500.02, -187467.78, -187500.02, -187500.02, 0.000, 0.000, 0.000, 17:58:54.116
98, -35403.64, 49481.30, -187500.02, -187500.02, -187500.02, -187500.02, -187500.02, -187500.02, 0.006, -0.014, 1.030, 17:58:54.116
99, -41373.08, 43613.55, -187500.02, -187500.02, -187500.02, -187500.02, -187500.02, -187500.02, 0.000, 0.000, 0.000, 17:58:54.116
100, -43193.87, 41646.28, -187500.02, -187500.02, -187500.02, -187500.02, -187500.02, -187500.02, 0.000, 0.000, 0.000, 17:58:54.116
101, -36215.55, 48500.76, -187500.02, -187500.02, -187500.02, -187442.22, -187500.02, -187500.02, 0.000, 0.000, 0.000, 17:58:54.116
102, -33826.93, 50992.95, -187500.02, -187500.02, -187500.02, -187472.23, -187500.02, -187500.02, 0.000, 0.000, 0.000, 17:58:54.116
103, -35300.06, 49581.78, -187500.02, -187500.02, -187500.02, -187500.02, -187500.02, -187500.02, 0.000, 0.000, 0.000, 17:58:54.116
104, -41260.47, 43714.82, -187500.02, -187500.02, -187500.02, -187500.02, -187500.02, -187500.02, 0.000, 0.000, 0.000, 17:58:54.580
105, -43116.22, 41717.94, -187500.02, -187500.02, -187500.02, -187500.02, -187500.02, -187500.02, 0.000, 0.000, 0.000, 17:58:54.580
106, -36152.31, 48563.77, -187500.02, -187500.02, -187500.02, -187500.02, -187500.02, -187500.02, 0.000, 0.000, 0.000, 17:58:54.580
107, -33760.75, 51062.71, -187500.02, -187500.02, -187500.02, -187500.02, -187500.02, -187500.02, 0.000, 0.000, 0.000, 17:58:54.580
108, -35227.06, 49652.23, -187500.02, -187500.02, -187500.02, -187500.02, -187500.02, -187500.02, 0.010, -0.014, 1.022, 17:58:54.580
109, -41186.84, 43786.69, -187500.02, -187500.02, -187500.02, -187500.02, -187500.02, -187500.02, 0.000, 0.000, 0.000, 17:58:54.580
110, -43082.18, 41753.37, -187500.02, -187500.02, -187500.02, -187500.02, -187500.02, -187500.02, 0.000, 0.000, 0.000, 17:58:54.581
111, -36125.98, 48593.74, -187500.02, -187500.02, -187500.02, -187500.02, -187500.02, -187500.02, 0.000, 0.000, 0.000, 17:58:54.581
112, -33711.59, 51114.50, -187500.02, -187500.02, -187500.02, -187500.02, -187500.02, -187500.02, 0.000, 0.000, 0.000, 17:58:54.581
113, -35171.30, 49710.39, -187500.02, -187500.02, -187500.02, -187500.02, -187500.02, -187500.02, 0.000, 0.000, 0.000, 17:58:54.581
114, -41091.54, 43880.09, -187500.02, -187500.02, -187500.02, -187500.02, -187500.02, -187500.02, 0.000, 0.000, 0.000, 17:58:54.581
115, -43022.17, 41803.48, -187500.02, -187500.02, -187500.02, -187500.02, -187500.02, -187500.02, 0.000, 0.000, 0.000, 17:58:54.581
116, -36088.41, 48622.26, -187500.02, -187500.02, -187500.02, -187500.02, -187500.02, -187500.02, 0.000, 0.000, 0.000, 17:58:54.581
117, -33681.44, 51143.45, -187500.02, -187500.02, -187500.02, -187500.02, -187500.02, -187500.02, 0.000, 0.000, 0.000, 17:58:54.581
118, -35132.07, 49755.85, -187500.02, -187500.02, -187500.02, -187500.02, -187500.02, -187500.02, 0.006, -0.018, 1.030, 17:58:54.582
119, -41067.24, 43913.60, -187500.02, -187500.02, -187500.02, -187500.02, -187500.02, -187500.02, 0.000, 0.000, 0.000, 17:58:54.582
120, -43047.09, 41790.63, -187500.02, -187500.02, -187500.02, -187500.02, -187500.02, -187500.02, 0.000, 0.000, 0.000, 17:58:54.582
121, -36110.49, 48609.52, -187500.02, -187500.02, -187500.02, -187500.02, -187500.02, -187500.02, 0.000, 0.000, 0.000, 17:58:54.582
122, -33661.21, 51168.35, -187500.02, -187500.02, -187500.02, -187500.02, -187500.02, -187500.02, 0.000, 0.000, 0.000, 17:58:54.582
123, -35098.65, 49786.90, -187500.02, -187500.02, -187500.02, -187500.02, -187500.02, -187500.02, 0.000, 0.000, 0.000, 17:58:54.582
124, -41022.63, 43950.59, -187500.02, -187500.02, -187500.02, -187500.02, -187500.02, -187500.02, 0.000, 0.000, 0.000, 17:58:54.582
125, -43052.52, 41781.09, -187500.02, -187500.02, -187500.02, -187500.02, -187500.02, -187500.02, 0.000, 0.000, 0.000, 17:58:54.582
126, -36110.23, 48605.27, -187500.02, -187500.02, -187500.02, -187500.02, -187500.02, -187500.02, 0.000, 0.000, 0.000, 17:58:54.583
127, -33637.88, 51182.21, -187500.02, -187500.02, -187500.02, -187500.02, -187500.02, -187500.02, 0.000, 0.000, 0.000, 17:58:54.583
128, -35075.38, 49803.30, -187500.02, -187500.02, -187500.02, -187500.02, -187500.02, -187500.02, 0.002, -0.012, 1.032, 17:58:54.583
129, -40981.92, 43990.67, -187500.02, -187500.02, -187500.02, -187500.02, -187500.02, -187500.02, 0.000, 0.000, 0.000, 17:58:54.583
130, -43025.48, 41804.02, -187500.02, -187500.02, -187500.02, -187500.02, -187500.02, -187500.02, 0.000, 0.000, 0.000, 17:58:54.583
131, -36095.41, 48612.32, -187500.02, -187500.02, -187500.02, -187500.02, -187500.02, -187500.02, 0.000, 0.000, 0.000, 17:58:54.583
132, -33597.93, 51214.62, -187500.02, -187500.02, -187500.02, -187500.02, -187500.02, -187500.02, 0.000, 0.000, 0.000, 17:58:54.583
133, -35001.63, 49868.62, -187500.02, -187500.02, -187500.02, -187500.02, -187500.02, -187500.02, 0.000, 0.000, 0.000, 17:58:54.583
134, -40885.45, 44078.55, -187500.02, -187500.02, -187500.02, -187500.02, -187500.02, -187500.02, 0.000, 0.000, 0.000, 17:58:54.584
135, -42966.55, 41862.65, -187500.02, -187500.02, -187500.02, -187500.02, -187500.02, -187500.02, 0.000, 0.000, 0.000, 17:58:54.584
136, -36060.67, 48648.64, -187500.02, -187500.02, -187500.02, -187500.02, -187500.02, -187500.02, 0.000, 0.000, 0.000, 17:58:54.584
137, -33561.75, 51249.66, -187500.02, -187500.02, -187500.02, -187500.02, -187500.02, -187500.02, 0.000, 0.000, 0.000, 17:58:54.584
138, -34978.07, 49885.85, -187500.02, -187500.02, -187500.02, -187500.02, -187500.02, -187500.02, 0.004, -0.014, 1.030, 17:58:54.584
139, -40850.25, 44102.65, -187500.02, -187500.02, -187500.02, -187500.02, -187500.02, -187500.02, 0.000, 0.000, 0.000, 17:58:54.584
140, -42971.43, 41851.92, -187500.02, -187500.02, -187500.02, -187500.02, -187500.02, -187500.02, 0.000, 0.000, 0.000, 17:58:54.584
141, -36048.71, 48656.15, -187500.02, -187500.02, -187500.02, -187500.02, -187500.02, -187500.02, 0.000, 0.000, 0.000, 17:58:54.584
142, -33532.33, 51271.30, -187500.02, -187500.02, -187500.02, -187500.02, -187500.02, -187500.02, 0.000, 0.000, 0.000, 17:58:54.585
143, -34937.45, 49921.23, -187500.02, -187500.02, -187500.02, -187500.02, -187500.02, -187500.02, 0.000, 0.000, 0.000, 17:58:54.585
144, -40792.02, 44163.49, -187500.02, -187500.02, -187500.02, -187500.02, -187500.02, -187500.02, 0.000, 0.000, 0.000, 17:58:54.585
145, -42947.29, 41876.66, -187500.02, -187500.02, -187500.02, -187500.02, -187500.02, -187500.02, 0.000, 0.000, 0.000, 17:58:54.585
146, -36022.65, 48680.51, -187500.02, -187500.02, -187500.02, -187500.02, -187500.02, -187500.02, 0.000, 0.000, 0.000, 17:58:54.585
147, -33477.19, 51330.24, -187500.02, -187500.02, -187500.02, -187500.02, -187500.02, -187500.02, 0.002, -0.016, 1.034, 17:58:54.585
148, -34873.32, 49992.56, -187500.02, -187500.02, -187500.02, -187500.02, -187500.02, -187500.02, 0.000, 0.000, 0.000, 17:58:54.585
149, -40721.10, 44237.88, -187500.02, -187500.02, -187500.02, -187500.02, -187500.02, -187500.02, 0.000, 0.000, 0.000, 17:58:54.585
150, -42908.64, 41916.18, -187500.02, -187500.02, -187500.02, -187500.02, -187500.02, -187500.02, 0.000, 0.000, 0.000, 17:58:54.585
151, -36004.55, 48702.17, -187500.02, -187500.02, -187500.02, -187500.02, -187500.02, -187500.02, 0.000, 0.000, 0.000, 17:58:54.586
152, -33423.48, 51389.56, -187500.02, -187500.02, -187500.02, -187500.02, -187500.02, -187500.02, 0.000, 0.000, 0.000, 17:58:54.586
153, -34797.95, 50069.80, -187500.02, -187500.02, -187500.02, -187500.02, -187500.02, -187500.02, 0.000, 0.000, 0.000, 17:58:54.586
154, -40627.63, 44333.54, -187500.02, -187500.02, -187500.02, -187500.02, -187500.02, -187500.02, 0.000, 0.000, 0.000, 17:58:54.586
155, -42850.35, 41979.55, -187500.02, -187500.02, -187500.02, -187500.02, -187500.02, -187500.02, 0.000, 0.000, 0.000, 17:58:54.586
156, -35951.30, 48755.59, -187500.02, -187500.02, -187500.02, -187500.02, -187500.02, -187500.02, 0.000, 0.000, 0.000, 17:58:54.586
157, -33389.91, 51421.73, -187500.02, -187500.02, -187500.02, -187500.02, -187500.02, -187500.02, 0.004, -0.012, 1.028, 17:58:54.586
158, -34769.30, 50101.84, -187500.02, -187500.02, -187500.02, -187500.02, -187500.02, -187500.02, 0.000, 0.000, 0.000, 17:58:54.586
159, -40574.02, 44387.68, -187500.02, -187500.02, -187500.02, -187500.02, -187500.02, -187500.02, 0.000, 0.000, 0.000, 17:58:54.587
160, -42822.03, 42004.71, -187500.02, -187500.02, -187500.02, -187500.02, -187500.02, -187500.02, 0.000, 0.000, 0.000, 17:58:54.587
161, -35948.46, 48756.64, -187500.02, -187500.02, -187500.02, -187500.02, -187500.02, -187500.02, 0.000, 0.000, 0.000, 17:58:54.587
162, -33366.48, 51443.59, -187500.02, -187500.02, -187500.02, -187500.02, -187500.02, -187500.02, 0.000, 0.000, 0.000, 17:58:54.587
163, -34731.91, 50129.57, -187500.02, -187500.02, -187500.02, -187500.02, -187500.02, -187500.02, 0.000, 0.000, 0.000, 17:58:54.587
164, -40543.98, 44411.53, -187500.02, -187500.02, -187500.02, -187500.02, -187500.02, -187500.02, 0.000, 0.000, 0.000, 17:58:54.587
165, -42846.64, 41978.43, -187500.02, -187500.02, -187500.02, -187500.02, -187500.02, -187500.02, 0.000, 0.000, 0.000, 17:58:54.587
166, -35981.25, 48717.97, -187500.02, -187500.02, -187500.02, -187500.02, -187500.02, -187500.02, 0.000, 0.000, 0.000, 17:58:54.587
167, -33368.52, 51437.17, -187500.02, -187500.02, -187500.02, -187500.02, -187500.02, -187500.02, 0.006, -0.018, 1.026, 17:58:54.588
168, -34731.39, 50135.83, -187500.02, -187500.02, -187500.02, -187500.02, -187500.02, -187500.02, 0.000, 0.000, 0.000, 17:58:54.588
169, -40536.83, 44420.38, -187500.02, -187500.02, -187500.02, -187500.02, -187500.02, -187500.02, 0.000, 0.000, 0.000, 17:58:54.588
170, -42876.59, 41949.62, -187500.02, -187500.02, -187500.02, -187500.02, -187500.02, -187500.02, 0.000, 0.000, 0.000, 17:58:54.588
171, -36024.15, 48681.83, -187500.02, -187500.02, -187500.02, -187500.02, -187500.02, -187500.02, 0.000, 0.000, 0.000, 17:58:54.588
172, -33390.80, 51417.82, -187500.02, -187500.02, -187500.02, -187500.02, -187500.02, -187500.02, 0.000, 0.000, 0.000, 17:58:54.588
173, -34765.10, 50100.96, -187500.02, -187500.02, -187500.02, -187500.02, -187500.02, -187500.02, 0.000, 0.000, 0.000, 17:58:54.588
174, -40556.70, 44401.76, -187500.02, -187500.02, -187500.02, -187500.02, -187500.02, -187500.02, 0.000, 0.000, 0.000, 17:58:54.588
175, -42912.82, 41915.24, -187500.02, -187500.02, -187500.02, -187500.02, -187500.02, -187500.02, 0.000, 0.000, 0.000, 17:58:54.588
176, -36061.12, 48642.22, -187500.02, -187500.02, -187500.02, -187500.02, -187500.02, -187500.02, 0.000, 0.000, 0.000, 17:58:54.589
177, -33406.94, 51395.51, -187500.02, -187500.02, -187500.02, -187500.02, -187500.02, -187500.02, 0.008, -0.016, 1.022, 17:58:54.589
178, -34747.73, 50108.95, -187500.02, -187500.02, -187500.02, -187500.02, -187500.02, -187500.02, 0.000, 0.000, 0.000, 17:58:54.589
179, -40524.29, 44426.26, -187500.02, -187500.02, -187500.02, -187500.02, -187500.02, -187500.02, 0.000, 0.000, 0.000, 17:58:54.589
180, -42933.03, 41889.87, -187500.02, -187500.02, -187500.02, -187500.02, -187500.02, -187500.02, 0.000, 0.000, 0.000, 17:58:54.589
181, -36088.59, 48605.14, -187500.02, -187500.02, -187500.02, -187500.02, -187500.02, -187500.02, 0.000, 0.000, 0.000, 17:58:54.589
182, -33427.28, 51368.15, -187500.02, -187500.02, -187500.02, -187500.02, -187500.02, -187500.02, 0.000, 0.000, 0.000, 17:58:54.589
183, -34766.48, 50093.57, -187500.02, -187500.02, -187500.02, -187500.02, -187500.02, -187500.02, 0.000, 0.000, 0.000, 17:58:54.589
184, -40531.96, 44419.42, -187500.02, -187500.02, -187500.02, -187500.02, -187500.02, -187500.02, 0.000, 0.000, 0.000, 17:58:54.590
185, -42963.11, 41854.02, -187500.02, -187500.02, -187500.02, -187500.02, -187500.02, -187500.02, 0.000, 0.000, 0.000, 17:58:54.590
186, -36131.26, 48558.80, -187500.02, -187500.02, -187500.02, -187500.02, -187500.02, -187500.02, 0.000, 0.000, 0.000, 17:58:54.590
187, -33456.56, 51339.43, -187500.02, -187500.02, -187500.02, -187500.02, -187500.02, -187500.02, 0.004, -0.016, 1.026, 17:58:54.590
188, -34793.39, 50064.91, -187500.02, -187500.02, -187500.02, -187500.02, -187500.02, -187500.02, 0.000, 0.000, 0.000, 17:58:54.590
189, -40547.67, 44397.83, -187500.02, -187500.02, -187500.02, -187500.02, -187500.02, -187500.02, 0.000, 0.000, 0.000, 17:58:54.590
190, -43006.36, 41804.64, -187500.02, -187500.02, -187500.02, -187500.02, -187500.02, -187500.02, 0.000, 0.000, 0.000, 17:58:54.591
191, -36167.67, 48513.92, -187500.02, -187500.02, -187500.02, -187500.02, -187500.02, -187500.02, 0.000, 0.000, 0.000, 17:58:54.591
192, -33461.59, 51326.04, -187500.02, -187500.02, -187500.02, -187500.02, -187500.02, -187500.02, 0.000, 0.000, 0.000, 17:58:54.591
193, -34787.25, 50059.93, -187500.02, -187500.02, -187500.02, -187500.02, -187500.02, -187500.02, 0.000, 0.000, 0.000, 17:58:54.591
194, -40536.38, 44403.19, -187500.02, -187500.02, -187500.02, -187500.02, -187500.02, -187500.02, 0.000, 0.000, 0.000, 17:58:54.591
195, -43048.99, 41766.58, -187500.02, -187500.02, -187500.02, -187500.02, -187500.02, -187500.02, 0.000, 0.000, 0.000, 17:58:54.591
196, -36241.14, 48446.33, -187500.02, -187500.02, -187500.02, -187500.02, -187500.02, -187500.02, 0.000, 0.000, 0.000, 17:58:54.592
197, -33498.98, 51290.79, -187500.02, -187500.02, -187500.02, -187500.02, -187500.02, -187500.02, 0.002, -0.012, 1.020, 17:58:54.592
198, -34802.27, 50043.01, -187500.02, -187500.02, -187500.02, -187500.02, -187500.02, -187500.02, 0.000, 0.000, 0.000, 17:58:54.592
199, -40543.74, 44387.19, -187500.02, -187500.02, -187500.02, -187500.02, -187500.02, -187500.02, 0.000, 0.000, 0.000, 17:58:54.592
200, -43091.64, 41717.61, -187500.02, -187500.02, -187500.02, -187500.02, -187500.02, -187500.02, 0.000, 0.000, 0.000, 17:58:54.592
201, -36291.23, 48398.34, -187500.02, -187500.02, -187500.02, -187500.02, -187500.02, -187500.02, 0.000, 0.000, 0.000, 17:58:54.592
202, -33553.99, 51239.74, -187500.02, -187500.02, -187500.02, -187500.02, -187500.02, -187500.02, 0.000, 0.000, 0.000, 17:58:54.593
203, -34872.09, 49979.26, -187500.02, -187500.02, -187500.02, -187500.02, -187500.02, -187500.02, 0.000, 0.000, 0.000, 17:58:54.593
204, -40604.96, 44338.39, -187500.02, -187500.02, -187500.02, -187500.02, -187500.02, -187500.02, 0.000, 0.000, 0.000, 17:58:54.593
205, -43178.81, 41639.73, -187500.02, -187500.02, -187500.02, -187500.02, -187500.02, -187500.02, 0.000, 0.000, 0.000, 17:58:54.593
206, -36388.73, 48296.04, -187500.02, -187500.02, -187500.02, -187500.02, -187500.02, -187500.02, 0.000, 0.000, 0.000, 17:58:54.593
207, -33620.42, 51162.61, -187500.02, -187500.02, -187500.02, -187500.02, -187500.02, -187500.02, 0.004, -0.018, 1.024, 17:58:54.593
208, -34938.26, 49902.93, -187500.02, -187500.02, -187500.02, -187500.02, -187500.02, -187500.02, 0.000, 0.000, 0.000, 17:58:54.594
209, -40632.54, 44300.04, -187500.02, -187500.02, -187500.02, -187500.02, -187500.02, -187500.02, 0.000, 0.000, 0.000, 17:58:54.594
210, -43252.32, 41561.35, -187500.02, -187500.02, -187500.02, -187500.02, -187500.02, -187500.02, 0.000, 0.000, 0.000, 17:58:54.594
211, -36471.21, 48217.32, -187500.02, -187500.02, -187500.02, -187500.02, -187500.02, -187500.02, 0.000, 0.000, 0.000, 17:58:54.594
212, -33689.13, 51102.84, -187500.02, -187500.02, -187500.02, -187500.02, -187500.02, -187500.02, 0.000, 0.000, 0.000, 17:58:54.594
213, -34992.62, 49854.74, -187500.02, -187500.02, -187500.02, -187500.02, -187500.02, -187500.02, 0.000, 0.000, 0.000, 17:58:54.594
214, -40693.52, 44243.36, -187500.02, -187500.02, -187500.02, -187500.02, -187500.02, -187500.02, 0.000, 0.000, 0.000, 17:58:54.595
215, -43320.12, 41496.77, -187500.02, -187500.02, -187500.02, -187500.02, -187500.02, -187500.02, 0.000, 0.000, 0.000, 17:58:54.595
216, -36539.27, 48150.11, -187500.02, -187500.02, -187500.02, -187500.02, -187500.02, -187500.02, 0.000, 0.000, 0.000, 17:58:54.595
217, -33734.10, 51051.00, -187500.02, -187500.02, -187500.02, -187500.02, -187500.02, -187500.02, 0.006, -0.014, 1.030, 17:58:54.595
218, -35016.64, 49819.38, -187500.02, -187500.02, -187500.02, -187500.02, -187500.02, -187500.02, 0.000, 0.000, 0.000, 17:58:54.595
219, -40690.95, 44242.21, -187500.02, -187500.02, -187500.02, -187500.02, -187500.02, -187500.02, 0.000, 0.000, 0.000, 17:58:54.595
220, -43370.88, 41451.49, -187500.02, -187500.02, -187500.02, -187500.02, -187500.02, -187500.02, 0.000, 0.000, 0.000, 17:58:54.596
221, -36619.02, 48082.71, -187500.02, -187500.02, -187500.02, -187500.02, -187500.02, -187500.02, 0.000, 0.000, 0.000, 17:58:54.596
222, -33811.19, 50989.22, -187500.02, -187500.02, -187500.02, -187500.02, -187500.02, -187500.02, 0.000, 0.000, 0.000, 17:58:54.596
223, -35092.15, 49758.91, -187500.02, -187500.02, -187500.02, -187500.02, -187500.02, -187500.02, 0.000, 0.000, 0.000, 17:58:54.596
224, -40748.12, 44186.69, -187500.02, -187500.02, -187500.02, -187500.02, -187500.02, -187500.02, 0.000, 0.000, 0.000, 17:58:55.062
225, -43447.36, 41371.09, -187500.02, -187500.02, -187500.02, -187500.02, -187500.02, -187500.02, 0.000, 0.000, 0.000, 17:58:55.062
226, -36690.90, 48003.70, -187500.02, -187500.02, -187500.02, -187500.02, -187500.02, -187500.02, 0.000, 0.000, 0.000, 17:58:55.062
227, -33855.45, 50937.03, -187500.02, -187500.02, -187500.02, -187500.02, -187500.02, -187500.02, 0.008, -0.014, 1.028, 17:58:55.062
228, -35125.50, 49724.70, -187500.02, -187500.02, -187500.02, -187500.02, -187500.02, -187500.02, 0.000, 0.000, 0.000, 17:58:55.063
229, -40771.30, 44170.71, -187500.02, -187500.02, -187500.02, -187500.02, -187500.02, -187500.02, 0.000, 0.000, 0.000, 17:58:55.063
230, -43502.80, 41315.28, -187500.02, -187500.02, -187500.02, -187500.02, -187500.02, -187500.02, 0.000, 0.000, 0.000, 17:58:55.063
231, -36739.49, 47950.61, -187500.02, -187500.02, -187500.02, -187500.02, -187500.02, -187500.02, 0.000, 0.000, 0.000, 17:58:55.063
232, -33871.07, 50921.21, -187500.02, -187500.02, -187500.02, -187500.02, -187500.02, -187500.02, 0.000, 0.000, 0.000, 17:58:55.063
233, -35122.66, 49727.11, -187500.02, -187500.02, -187500.02, -187500.02, -187500.02, -187500.02, 0.000, 0.000, 0.000, 17:58:55.063
234, -40746.83, 44193.33, -187500.02, -187500.02, -187500.02, -187500.02, -187500.02, -187500.02, 0.000, 0.000, 0.000, 17:58:55.063
235, -43501.86, 41319.41, -187500.02, -187500.02, -187500.02, -187500.02, -187500.02, -187500.02, 0.000, 0.000, 0.000, 17:58:55.063
236, -36763.63, 47925.11, -187500.02, -187500.02, -187500.02, -187500.02, -187500.02, -187500.02, 0.000, 0.000, 0.000, 17:58:55.064
237, -33861.82, 50933.68, -187500.02, -187500.02, -187500.02, -187500.02, -187500.02, -187500.02, 0.006, -0.012, 1.026, 17:58:55.064
238, -35089.49, 49768.28, -187500.02, -187500.02, -187500.02, -187500.02, -187500.02, -187500.02, 0.000, 0.000, 0.000, 17:58:55.064
239, -40718.57, 44230.41, -187500.02, -187500.02, -187500.02, -187500.02, -187500.02, -187500.02, 0.000, 0.000, 0.000, 17:58:55.064
240, -43523.11, 41306.02, -187500.02, -187500.02, -187500.02, -187500.02, -187500.02, -187500.02, 0.000, 0.000, 0.000, 17:58:55.064
241, -36785.45, 47910.38, -187500.02, -187500.02, -187500.02, -187500.02, -187500.02, -187500.02, 0.000, 0.000, 0.000, 17:58:55.064
242, -33887.30, 50910.48, -187500.02, -187500.02, -187500.02, -187500.02, -187500.02, -187500.02, 0.000, 0.000, 0.000, 17:58:55.064
243, -35136.70, 49723.60, -187500.02, -187500.02, -187500.02, -187500.02, -187500.02, -187500.02, 0.000, 0.000, 0.000, 17:58:55.065
244, -40755.61, 44199.10, -187500.02, -187500.02, -187500.02, -187500.02, -187500.02, -187500.02, 0.000, 0.000, 0.000, 17:58:55.065
245, -43578.37, 41255.11, -187500.02, -187500.02, -187500.02, -187500.02, -187500.02, -187500.02, 0.000, 0.000, 0.000, 17:58:55.065
246, -36850.18, 47849.72, -187500.02, -187500.02, -187500.02, -187500.02, -187500.02, -187500.02, 0.000, 0.000, 0.000, 17:58:55.065
247, -33923.93, 50878.67, -187500.02, -187500.02, -187500.02, -187500.02, -187500.02, -187500.02, 0.006, -0.014, 1.030, 17:58:55.065
248, -35169.78, 49692.33, -187500.02, -187500.02, -187500.02, -187500.02, -187500.02, -187500.02, 0.000, 0.000, 0.000, 17:58:55.065
249, -40767.61, 44180.37, -187500.02, -187500.02, -187500.02, -187500.02, -187500.02, -187500.02, 0.000, 0.000, 0.000, 17:58:55.065
250, -43625.86, 41205.46, -187500.02, -187500.02, -187500.02, -187500.02, -187500.02, -187500.02, 0.000, 0.000, 0.000, 17:58:55.065
251, -36914.33, 47786.44, -187500.02, -187500.02, -187500.02, -187500.02, -187500.02, -187500.02, 0.000, 0.000, 0.000, 17:58:55.066
252, -33969.60, 50827.02, -187500.02, -187500.02, -187500.02, -187500.02, -187500.02, -187500.02, 0.000, 0.000, 0.000, 17:58:55.066
253, -35190.23, 49661.98, -187500.02, -187500.02, -187500.02, -187500.02, -187500.02, -187500.02, 0.000, 0.000, 0.000, 17:58:55.066
254, -40760.46, 44187.92, -187500.02, -187500.02, -187500.02, -187500.02, -187500.02, -187500.02, 0.000, 0.000, 0.000, 17:58:55.066
255, -43639.59, 41193.79, -187500.02, -187500.02, -187500.02, -187500.02, -187500.02, -187500.02, 0.000, 0.000, 0.000, 17:58:55.066
0, -36925.04, 47767.78, -187500.02, -187500.02, -187500.02, -187500.02, -187500.02, -187500.02, 0.000, 0.000, 0.000, 17:58:55.066
1, -33967.59, 50820.67, -187500.02, -187500.02, -187500.02, -187500.02, -187500.02, -187500.02, 0.010, -0.012, 1.030, 17:58:55.066
2, -35194.47, 49652.34, -187500.02, -187500.02, -187500.02, -187500.02, -187500.02, -187500.02, 0.000, 0.000, 0.000, 17:58:55.066
3, -40762.50, 44179.79, -187500.02, -187500.02, -187500.02, -187500.02, -187500.02, -187500.02, 0.000, 0.000, 0.000, 17:58:55.067
4, -43680.09, 41151.06, -187500.02, -187500.02, -187500.02, -187500.02, -187500.02, -187500.02, 0.000, 0.000, 0.000, 17:58:55.067
5, -36976.24, 47724.75, -187500.02, -187500.02, -187500.02, -187500.02, -187500.02, -187500.02, 0.000, 0.000, 0.000, 17:58:55.067
6, -34010.35, 50789.40, -187500.02, -187500.02, -187500.02, -187500.02, -187500.02, -187500.02, 0.000, 0.000, 0.000, 17:58:55.067
7, -35222.30, 49633.45, -187500.02, -187500.02, -187500.02, -187500.02, -187500.02, -187500.02, 0.000, 0.000, 0.000, 17:58:55.067
8, -40767.21, 44181.06, -187500.02, -187500.02, -187500.02, -187500.02, -187500.02, -187500.02, 0.000, 0.000, 0.000, 17:58:55.067
9, -43716.90, 41114.65, -187500.02, -187500.02, -187500.02, -187500.02, -187500.02, -187500.02, 0.000, 0.000, 0.000, 17:58:55.067
10, -37025.13, 47668.91, -187500.02, -187500.02, -187500.02, -187500.02, -187500.02, -187500.02, 0.012, -0.014, 1.032, 17:58:55.067
11, -34026.71, 50774.73, -187500.02, -187500.02, -187500.02, -187500.02, -187500.02, -187500.02, 0.000, 0.000, 0.000, 17:58:55.067
12, -35241.03, 49620.18, -187500.02, -187500.02, -187500.02, -187500.02, -187500.02, -187500.02, 0.000, 0.000, 0.000, 17:58:55.068
13, -40779.46, 44173.93, -187500.02, -187500.02, -187500.02, -187500.02, -187500.02, -187500.02, 0.000, 0.000, 0.000, 17:58:55.068
14, -43745.63, 41091.73, -187500.02, -187500.02, -187500.02, -187500.02, -187500.02, -187500.02, 0.000, 0.000, 0.000, 17:58:55.068
15, -37062.90, 47632.13, -187500.02, -187500.02, -187500.02, -187500.02, -187500.02, -187500.02, 0.000, 0.000, 0.000, 17:58:55.068
16, -34028.34, 50759.43, -187500.02, -187500.02, -187500.02, -187500.02, -187500.02, -187500.02, 0.000, 0.000, 0.000, 17:58:55.068
17, -35208.78, 49631.33, -187500.02, -187500.02, -187500.02, -187500.02, -187500.02, -187500.02, 0.000, 0.000, 0.000, 17:58:55.068
18, -40740.12, 44196.91, -187500.02, -187500.02, -187500.02, -187500.02, -187500.02, -187500.02, 0.000, 0.000, 0.000, 17:58:55.068
19, -43753.34, 41073.30, -187500.02, -187500.02, -187500.02, -187500.02, -187500.02, -187500.02, 0.000, 0.000, 0.000, 17:58:55.068
20, -37095.20, 47591.85, -187500.02, -187500.02, -187500.02, -187500.02, -187500.02, -187500.02, 0.008, -0.014, 1.034, 17:58:55.069
21, -34051.25, 50731.51, -187500.02, -187500.02, -187500.02, -187500.02, -187500.02, -187500.02, 0.000, 0.000, 0.000, 17:58:55.069
22, -35224.54, 49614.14, -187500.02, -187500.02, -187500.02, -187500.02, -187500.02, -187500.02, 0.000, 0.000, 0.000, 17:58:55.069
23, -40737.19, 44199.23, -187500.02, -187500.02, -187500.02, -187500.02, -187500.02, -187500.02, 0.000, 0.000, 0.000, 17:58:55.069
24, -43779.69, 41043.14, -187500.02, -187500.02, -187500.02, -187500.02, -187500.02, -187500.02, 0.000, 0.000, 0.000, 17:58:55.069
25, -37115.00, 47564.53, -187500.02, -187500.02, -187500.02, -187500.02, -187500.02, -187500.02, 0.000, 0.000, 0.000, 17:58:55.069
26, -34058.25, 50724.02, -187500.02, -187500.02, -187500.02, -187500.02, -187500.02, -187500.02, 0.000, 0.000, 0.000, 17:58:55.069
27, -35246.42, 49595.86, -187500.02, -187500.02, -187500.02, -187500.02, -187500.02, -187500.02, 0.000, 0.000, 0.000, 17:58:55.069
28, -40744.19, 44191.30, -187500.02, -187500.02, -187500.02, -187500.02, -187500.02, -187500.02, 0.000, 0.000, 0.000, 17:58:55.070
29, -43813.11, 41009.64, -187500.02, -187500.02, -187500.02, -187500.02, -187500.02, -187500.02, 0.000, 0.000, 0.000, 17:58:55.070
30, -37170.14, 47507.85, -187500.02, -187500.02, -187500.02, -187500.02, -187500.02, -187500.02, 0.014, -0.014, 1.036, 17:58:55.070
31, -34061.06, 50710.07, -187500.02, -187500.02, -187500.02, -187500.02, -187500.02, -187500.02, 0.000, 0.000, 0.000, 17:58:55.070
32, -35217.68, 49613.70, -187500.02, -187500.02, -187500.02, -187500.02, -187500.02, -187500.02, 0.000, 0.000, 0.000, 17:58:55.070
33, -40712.72, 44218.34, -187500.02, -187500.02, -187500.02, -187500.02, -187500.02, -187500.02, 0.000, 0.000, 0.000, 17:58:55.070
34, -43814.13, 41008.79, -187500.02, -187500.02, -187500.02, -187500.02, -187500.02, -187500.02, 0.000, 0.000, 0.000, 17:58:55.070
35, -37176.07, 47502.35, -187500.02, -187500.02, -187500.02, -187500.02, -187500.02, -187500.02, 0.000, 0.000, 0.000, 17:58:55.070
36, -34064.15, 50711.68, -187500.02, -187500.02, -187500.02, -187500.02, -187500.02, -187500.02, 0.000, 0.000, 0.000, 17:58:55.070
37, -35240.63, 49600.42, -187500.02, -187500.02, -187500.02, -187500.02, -187500.02, -187500.02, 0.000, 0.000, 0.000, 17:58:55.071
38, -40712.29, 44224.42, -187500.02, -187500.02, -187500.02, -187500.02, -187500.02, -187500.02, 0.000, 0.000, 0.000, 17:58:55.071
39, -43849.47, 40976.07, -187500.02, -187500.02, -187500.02, -187500.02, -187500.02, -187500.02, 0.000, 0.000, 0.000, 17:58:55.071
40, -37226.07, 47454.18, -187500.02, -187500.02, -187500.02, -187500.02, -187500.02, -187500.02, 0.010, -0.012, 1.028, 17:58:55.071
41, -34083.21, 50694.29, -187500.02, -187500.02, -187500.02, -187500.02, -187500.02, -187500.02, 0.000, 0.000, 0.000, 17:58:55.071
42, -35245.19, 49591.79, -187500.02, -187500.02, -187500.02, -187500.02, -187500.02, -187500.02, 0.000, 0.000, 0.000, 17:58:55.071
43, -40707.71, 44222.66, -187500.02, -187500.02, -187500.02, -187500.02, -187500.02, -187500.02, 0.000, 0.000, 0.000, 17:58:55.071
44, -43865.23, 40955.32, -187500.02, -187500.02, -187500.02, -187500.02, -187500.02, -187500.02, 0.000, 0.000, 0.000, 17:58:55.071
45, -37249.47, 47427.85, -187500.02, -187500.02, -187500.02, -187500.02, -187500.02, -187500.02, 0.000, 0.000, 0.000, 17:58:55.072
46, -34116.92, 50656.50, -187500.02, -187500.02, -187500.02, -187500.02, -187500.02, -187500.02, 0.000, 0.000, 0.000, 17:58:55.072
47, -35239.47, 49592.46, -187500.02, -187500.02, -187500.02, -187500.02, -187500.02, -187500.02, 0.000, 0.000, 0.000, 17:58:55.072
48, -40673.51, 44250.89, -187500.02, -187500.02, -187500.02, -187500.02, -187500.02, -187500.02, 0.000, 0.000, 0.000, 17:58:55.072
49, -43865.45, 40950.90, -187500.02, -187500.02, -187500.02, -187500.02, -187500.02, -187500.02, 0.000, 0.000, 0.000, 17:58:55.072
50, -37273.16, 47403.09, -187500.02, -187500.02, -187500.02, -187500.02, -187500.02, -187500.02, 0.010, -0.016, 1.024, 17:58:55.072
51, -34115.38, 50656.50, -187500.02, -187500.02, -187500.02, -187500.02, -187500.02, -187500.02, 0.000, 0.000, 0.000, 17:58:55.072
52, -35252.41, 49573.62, -187500.02, -187500.02, -187500.02, -187500.02, -187500.02, -187500.02, 0.000, 0.000, 0.000, 17:58:55.072
53, -40676.08, 44247.36, -187500.02, -187500.02, -187500.02, -187500.02, -187500.02, -187500.02, 0.000, 0.000, 0.000, 17:58:55.072
54, -43915.52, 40905.34, -187500.02, -187500.02, -187500.02, -187500.02, -187500.02, -187500.02, 0.000, 0.000, 0.000, 17:58:55.073
55, -37311.16, 47364.64, -187500.02, -187500.02, -187500.02, -187500.02, -187500.02, -187500.02, 0.000, 0.000, 0.000, 17:58:55.073
56, -34123.20, 50645.48, -187500.02, -187500.02, -187500.02, -187500.02, -187500.02, -187500.02, 0.000, 0.000, 0.000, 17:58:55.073
57, -35246.80, 49577.98, -187500.02, -187500.02, -187500.02, -187500.02, -187500.02, -187500.02, 0.000, 0.000, 0.000, 17:58:55.073
58, -40672.37, 44246.82, -187500.02, -187500.02, -187500.02, -187500.02, -187500.02, -187500.02, 0.000, 0.000, 0.000, 17:58:55.073
59, -43940.09, 40875.48, -187500.02, -187500.02, -187500.02, -187500.02, -187500.02, -187500.02, 0.000, 0.000, 0.000, 17:58:55.073
60, -37356.69, 47310.21, -187500.02, -187500.02, -187500.02, -187500.02, -187500.02, -187500.02, 0.012, -0.018, 1.028, 17:58:55.073
61, -34143.85, 50612.91, -187500.02, -187500.02, -187500.02, -187500.02, -187500.02, -187500.02, 0.000, 0.000, 0.000, 17:58:55.073
62, -35269.46, 49552.70, -187500.02, -187500.02, -187500.02, -187500.02, -187500.02, -187500.02, 0.000, 0.000, 0.000, 17:58:55.074
63, -40674.83, 44248.76, -187500.02, -187500.02, -187500.02, -187500.02, -187500.02, -187500.02, 0.000, 0.000, 0.000, 17:58:55.074
64, -43974.80, 40846.22, -187500.02, -187500.02, -187500.02, -187500.02, -187500.02, -187500.02, 0.000, 0.000, 0.000, 17:58:55.074
65, -37399.00, 47275.79, -187500.02, -187500.02, -187500.02, -187500.02, -187500.02, -187500.02, 0.000, 0.000, 0.000, 17:58:55.074
66, -34155.88, 50615.03, -187500.02, -187500.02, -187500.02, -187500.02, -187500.02, -187500.02, 0.000, 0.000, 0.000, 17:58:55.074
67, -35265.66, 49567.47, -187500.02, -187500.02, -187500.02, -187500.02, -187500.02, -187500.02, 0.000, 0.000, 0.000, 17:58:55.074
68, -40652.48, 44273.73, -187500.02, -187500.02, -187500.02, -187500.02, -187500.02, -187500.02, 0.000, 0.000, 0.000, 17:58:55.074
69, -43973.25, 40846.71, -187500.02, -187500.02, -187500.02, -187500.02, -187500.02, -187500.02, 0.000, 0.000, 0.000, 17:58:55.074
70, -37413.80, 47254.43, -187500.02, -187500.02, -187500.02, -187500.02, -187500.02, -187500.02, 0.010, -0.016, 1.034, 17:58:55.075
71, -34169.82, 50596.28, -187500.02, -187500.02, -187500.02, -187500.02, -187500.02, -187500.02, 0.000, 0.000, 0.000, 17:58:55.075
72, -35281.58, 49540.16, -187500.02, -187500.02, -187500.02, -187500.02, -187500.02, -187500.02, 0.000, 0.000, 0.000, 17:58:55.075
73, -40648.43, 44260.61, -187500.02, -187500.02, -187500.02, -187500.02, -187500.02, -187500.02, 0.000, 0.000, 0.000, 17:58:55.075
74, -43999.27, 40805.14, -187500.02, -187500.02, -187500.02, -187500.02, -187500.02, -187500.02, 0.000, 0.000, 0.000, 17:58:55.075
75, -37455.33, 47204.78, -187500.02, -187500.02, -187500.02, -187500.02, -187500.02, -187500.02, 0.000, 0.000, 0.000, 17:58:55.075
76, -34196.47, 50566.02, -187500.02, -187500.02, -187500.02, -187500.02, -187500.02, -187500.02, 0.000, 0.000, 0.000, 17:58:55.075
77, -35289.67, 49532.83, -187500.02, -187500.02, -187500.02, -187500.02, -187500.02, -187500.02, 0.000, 0.000, 0.000, 17:58:55.075
78, -40647.54, 44264.72, -187500.02, -187500.02, -187500.02, -187500.02, -187500.02, -187500.02, 0.000, 0.000, 0.000, 17:58:55.075
79, -44026.50, 40780.69, -187500.02, -187500.02, -187500.02, -187500.02, -187500.02, -187500.02, 0.000, 0.000, 0.000, 17:58:55.076
80, -37493.20, 47166.79, -187500.02, -187500.02, -187500.02, -187500.02, -187500.02, -187500.02, 0.012, -0.014, 1.034, 17:58:55.076
81, -34212.45, 50542.99, -187500.02, -187500.02, -187500.02, -187500.02, -187500.02, -187500.02, 0.000, 0.000, 0.000, 17:58:55.076
82, -35298.14, 49515.73, -187500.02, -187500.02, -187500.02, -187500.02, -187500.02, -187500.02, 0.000, 0.000, 0.000, 17:58:55.076
83, -40626.77, 44278.09, -187500.02, -187500.02, -187500.02, -187500.02, -187500.02, -187500.02, 0.000, 0.000, 0.000, 17:58:55.076
84, -44033.36, 40771.79, -187500.02, -187500.02, -187500.02, -187500.02, -187500.02, -187500.02, 0.000, 0.000, 0.000, 17:58:55.076
85, -37519.64, 47141.95, -187500.02, -187500.02, -187500.02, -187500.02, -187500.02, -187500.02, 0.000, 0.000, 0.000, 17:58:55.076
86, -34227.27, 50527.77, -187500.02, -187500.02, -187500.02, -187500.02, -187500.02, -187500.02, 0.000, 0.000, 0.000, 17:58:55.076
87, -35311.38, 49499.30, -187500.02, -187500.02, -187500.02, -187500.02, -187500.02, -187500.02, 0.000, 0.000, 0.000, 17:58:55.077
88, -40633.17, 44277.02, -187500.02, -187500.02, -187500.02, -187500.02, -187500.02, -187500.02, 0.000, 0.000, 0.000, 17:58:55.077
89, -44082.36, 40731.27, -187500.02, -187500.02, -187500.02, -187500.02, -187500.02, -187500.02, 0.000, 0.000, 0.000, 17:58:55.543
90, -37579.76, 47083.81, -187500.02, -187500.02, -187500.02, -187500.02, -187500.02, -187500.02, 0.006, -0.010, 1.028, 17:58:55.543
91, -34254.34, 50505.62, -187500.02, -187500.02, -187500.02, -187500.02, -187500.02, -187500.02, 0.000, 0.000, 0.000, 17:58:55.543
92, -35320.80, 49496.91, -187500.02, -187500.02, -187500.02, -187500.02, -187500.02, -187500.02, 0.000, 0.000, 0.000, 17:58:55.543
93, -40635.18, 44276.86, -187500.02, -187500.02, -187500.02, -187500.02, -187500.02, -187500.02, 0.000, 0.000, 0.000, 17:58:55.543
94, -44115.46, 40698.43, -187500.02, -187500.02, -187500.02, -187500.02, -187500.02, -187500.02, 0.000, 0.000, 0.000, 17:58:55.543
95, -37616.66, 47049.28, -187500.02, -187500.02, -187500.02, -187500.02, -187500.02, -187500.02, 0.000, 0.000, 0.000, 17:58:55.543
96, -34265.43, 50496.23, -187500.02, -187500.02, -187500.02, -187500.02, -187500.02, -187500.02, 0.000, 0.000, 0.000, 17:58:55.543
97, -35333.19, 49487.34, -187500.02, -187500.02, -187500.02, -187500.02, -187500.02, -187500.02, 0.000, 0.000, 0.000, 17:58:55.544
98, -40627.54, 44286.89, -187500.02, -187500.02, -187500.02, -187500.02, -187500.02, -187500.02, 0.000, 0.000, 0.000, 17:58:55.544
99, -44115.79, 40699.38, -187500.02, -187500.02, -187500.02, -187500.02, -187500.02, -187500.02, 0.000, 0.000, 0.000, 17:58:55.544
100, -37636.61, 47031.06, -187500.02, -187500.02, -187500.02, -187500.02, -187500.02, -187500.02, 0.006, -0.010, 1.028, 17:58:55.544
101, -34266.00, 50493.04, -187500.02, -187500.02, -187500.02, -187500.02, -187500.02, -187500.02, 0.000, 0.000, 0.000, 17:58:55.544
102, -35326.86, 49493.76, -187500.02, -187500.02, -187500.02, -187500.02, -187500.02, -187500.02, 0.000, 0.000, 0.000, 17:58:55.544
103, -40620.63, 44294.23, -187500.02, -187500.02, -187500.02, -187500.02, -187500.02, -187500.02, 0.000, 0.000, 0.000, 17:58:55.544
104, -44144.70, 40667.52, -187500.02, -187500.02, -187500.02, -187500.02, -187500.02, -187500.02, 0.000, 0.000, 0.000, 17:58:55.544
105, -37665.95, 46996.39, -187500.02, -187500.02, -187500.02, -187500.02, -187500.02, -187500.02, 0.000, 0.000, 0.000, 17:58:55.545
106, -34266.48, 50490.91, -187500.02, -187500.02, -187500.02, -187500.02, -187500.02, -187500.02, 0.000, 0.000, 0.000, 17:58:55.545
107, -35302.19, 49516.22, -187500.02, -187500.02, -187500.02, -187500.02, -187500.02, -187500.02, 0.000, 0.000, 0.000, 17:58:55.545
108, -40554.02, 44353.04, -187500.02, -187500.02, -187500.02, -187500.02, -187500.02, -187500.02, 0.000, 0.000, 0.000, 17:58:55.545
109, -44114.38, 40690.41, -187500.02, -187500.02, -187500.02, -187500.02, -187500.02, -187500.02, 0.000, 0.000, 0.000, 17:58:55.545
110, -37658.80, 46999.41, -187500.02, -187500.02, -187500.02, -187500.02, -187500.02, -187500.02, 0.010, -0.008, 1.024, 17:58:55.545
111, -34249.93, 50503.23, -187500.02, -187500.02, -187500.02, -187500.02, -187500.02, -187500.02, 0.000, 0.000, 0.000, 17:58:55.545
112, -35294.81, 49522.72, -187500.02, -187500.02, -187500.02, -187500.02, -187500.02, -187500.02, 0.000, 0.000, 0.000, 17:58:55.545
113, -40545.30, 44367.88, -187500.02, -187500.02, -187500.02, -187500.02, -187500.02, -187500.02, 0.000, 0.000, 0.000, 17:58:55.545
114, -44136.27, 40677.43, -187500.02, -187500.02, -187500.02, -187500.02, -187500.02, -187500.02, 0.000, 0.000, 0.000, 17:58:55.546
115, -37685.38, 46972.91, -187500.02, -187500.02, -187500.02, -187500.02, -187500.02, -187500.02, 0.000, 0.000, 0.000, 17:58:55.546
116, -34251.36, 50498.16, -187500.02, -187500.02, -187500.02, -187500.02, -187500.02, -187500.02, 0.000, 0.000, 0.000, 17:58:55.546
117, -35265.78, 49546.66, -187500.02, -187500.02, -187500.02, -187500.02, -187500.02, -187500.02, 0.000, 0.000, 0.000, 17:58:55.546
118, -40518.04, 44393.16, -187500.02, -187500.02, -187500.02, -187500.02, -187500.02, -187500.02, 0.000, 0.000, 0.000, 17:58:55.546
119, -44116.66, 40692.33, -187500.02, -187500.02, -187500.02, -187500.02, -187500.02, -187500.02, 0.000, 0.000, 0.000, 17:58:55.546
120, -37670.45, 46978.29, -187500.02, -187500.02, -187500.02, -187500.02, -187500.02, -187500.02, 0.010, -0.010, 1.020, 17:58:55.546
121, -34222.91, 50519.84, -187500.02, -187500.02, -187500.02, -187500.02, -187500.02, -187500.02, 0.000, 0.000, 0.000, 17:58:55.546
122, -35257.84, 49544.07, -187500.02, -187500.02, -187500.02, -187500.02, -187500.02, -187500.02, 0.000, 0.000, 0.000, 17:58:55.547
123, -40489.87, 44405.85, -187500.02, -187500.02, -187500.02, -187500.02, -187500.02, -187500.02, 0.000, 0.000, 0.000, 17:58:55.547
124, -44125.76, 40678.18, -187500.02, -187500.02, -187500.02, -187500.02, -187500.02, -187500.02, 0.000, 0.000, 0.000, 17:58:55.547
125, -37687.77, 46965.33, -187500.02, -187500.02, -187500.02, -187500.02, -187500.02, -187500.02, 0.000, 0.000, 0.000, 17:58:55.547
126, -34222.78, 50521.00, -187500.02, -187500.02, -187500.02, -187500.02, -187500.02, -187500.02, 0.000, 0.000, 0.000, 17:58:55.547
127, -35227.62, 49574.98, -187500.02, -187500.02, -187500.02, -187500.02, -187500.02, -187500.02, 0.000, 0.000, 0.000, 17:58:55.547
128, -40430.04, 44463.86, -187500.02, -187500.02, -187500.02, -187500.02, -187500.02, -187500.02, 0.000, 0.000, 0.000, 17:58:55.548
129, -44100.04, 40697.56, -187500.02, -187500.02, -187500.02, -187500.02, -187500.02, -187500.02, 0.000, 0.000, 0.000, 17:58:55.548
130, -37688.79, 46953.21, -187500.02, -187500.02, -187500.02, -187500.02, -187500.02, -187500.02, 0.010, -0.014, 1.028, 17:58:55.548
131, -34198.10, 50537.92, -187500.02, -187500.02, -187500.02, -187500.02, -187500.02, -187500.02, 0.000, 0.000, 0.000, 17:58:55.548
132, -35205.81, 49587.52, -187500.02, -187500.02, -187500.02, -187500.02, -187500.02, -187500.02, 0.000, 0.000, 0.000, 17:58:55.548
133, -40395.75, 44496.40, -187500.02, -187500.02, -187500.02, -187500.02, -187500.02, -187500.02, 0.000, 0.000, 0.000, 17:58:55.548
134, -44075.87, 40731.47, -187500.02, -187500.02, -187500.02, -187500.02, -187500.02, -187500.02, 0.000, 0.000, 0.000, 17:58:55.548
135, -37670.78, 46982.88, -187500.02, -187500.02, -187500.02, -187500.02, -187500.02, -187500.02, 0.000, 0.000, 0.000, 17:58:55.548
136, -34162.43, 50586.20, -187500.02, -187500.02, -187500.02, -187500.02, -187500.02, -187500.02, 0.000, 0.000, 0.000, 17:58:55.549
137, -35177.15, 49628.98, -187500.02, -187500.02, -187500.02, -187500.02, -187500.02, -187500.02, 0.000, 0.000, 0.000, 17:58:55.549
138, -40366.63, 44532.90, -187500.02, -187500.02, -187500.02, -187500.02, -187500.02, -187500.02, 0.000, 0.000, 0.000, 17:58:55.549
139, -44084.05, 40724.61, -187500.02, -187500.02, -187500.02, -187500.02, -187500.02, -187500.02, 0.004, -0.010, 1.026, 17:58:55.549
140, -37702.50, 46952.48, -187500.02, -187500.02, -187500.02, -187500.02, -187500.02, -187500.02, 0.000, 0.000, 0.000, 17:58:55.549
141, -34183.19, 50565.88, -187500.02, -187500.02, -187500.02, -187500.02, -187500.02, -187500.02, 0.000, 0.000, 0.000, 17:58:55.549
142, -35187.16, 49617.77, -187500.02, -187500.02, -187500.02, -187500.02, -187500.02, -187500.02, 0.000, 0.000, 0.000, 17:58:55.549
143, -40354.22, 44539.18, -187500.02, -187500.02, -187500.02, -187500.02, -187500.02, -187500.02, 0.000, 0.000, 0.000, 17:58:55.549
144, -44093.62, 40708.14, -187500.02, -187500.02, -187500.02, -187500.02, -187500.02, -187500.02, 0.000, 0.000, 0.000, 17:58:55.550
145, -37722.64, 46922.39, -187500.02, -187500.02, -187500.02, -187500.02, -187500.02, -187500.02, 0.000, 0.000, 0.000, 17:58:55.550
146, -34170.16, 50567.16, -187500.02, -187500.02, -187500.02, -187500.02, -187500.02, -187500.02, 0.000, 0.000, 0.000, 17:58:55.550
147, -35165.77, 49633.45, -187500.02, -187500.02, -187500.02, -187500.02, -187500.02, -187500.02, 0.000, 0.000, 0.000, 17:58:55.550
148, -40312.24, 44585.05, -187500.02, -187500.02, -187500.02, -187500.02, -187500.02, -187500.02, 0.000, 0.000, 0.000, 17:58:55.550
149, -44097.29, 40713.39, -187500.02, -187500.02, -187500.02, -187500.02, -187500.02, -187500.02, 0.010, -0.016, 1.020, 17:58:55.550
150, -37751.89, 46894.50, -187500.02, -187500.02, -187500.02, -187500.02, -187500.02, -187500.02, 0.000, 0.000, 0.000, 17:58:55.550
151, -34180.96, 50552.89, -187500.02, -187500.02, -187500.02, -187500.02, -187500.02, -187500.02, 0.000, 0.000, 0.000, 17:58:55.550
152, -35168.32, 49626.19, -187500.02, -187500.02, -187500.02, -187500.02, -187500.02, -187500.02, 0.000, 0.000, 0.000, 17:58:55.551
153, -40315.30, 44574.50, -187500.02, -187500.02, -187500.02, -187500.02, -187500.02, -187500.02, 0.000, 0.000, 0.000, 17:58:55.551
154, -44110.99, 40691.66, -187500.02, -187500.02, -187500.02, -187500.02, -187500.02, -187500.02, 0.000, 0.000, 0.000, 17:58:55.551
155, -37775.92, 46867.56, -187500.02, -187500.02, -187500.02, -187500.02, -187500.02, -187500.02, 0.000, 0.000, 0.000, 17:58:55.551
156, -34206.57, 50526.70, -187500.02, -187500.02, -187500.02, -187500.02, -187500.02, -187500.02, 0.000, 0.000, 0.000, 17:58:55.551
157, -35180.44, 49610.86, -187500.02, -187500.02, -187500.02, -187500.02, -187500.02, -187500.02, 0.000, 0.000, 0.000, 17:58:55.551
158, -40286.31, 44596.38, -187500.02, -187500.02, -187500.02, -187500.02, -187500.02, -187500.02, 0.000, 0.000, 0.000, 17:58:55.551
159, -44108.57, 40685.16, -187500.02, -187500.02, -187500.02, -187500.02, -187500.02, -187500.02, 0.008, -0.008, 1.024, 17:58:55.551
160, -37793.89, 46840.61, -187500.02, -187500.02, -187500.02, -187500.02, -187500.02, -187500.02, 0.000, 0.000, 0.000, 17:58:55.551
161, -34197.14, 50522.12, -187500.02, -187500.02, -187500.02, -187500.02, -187500.02, -187500.02, 0.000, 0.000, 0.000, 17:58:55.552
162, -35167.09, 49616.54, -187500.02, -187500.02, -187500.02, -187500.02, -187500.02, -187500.02, 0.000, 0.000, 0.000, 17:58:55.552
163, -40285.09, 44603.31, -187500.02, -187500.02, -187500.02, -187500.02, -187500.02, -187500.02, 0.000, 0.000, 0.000, 17:58:55.552
164, -44127.89, 40672.51, -187500.02, -187500.02, -187500.02, -187500.02, -187500.02, -187500.02, 0.000, 0.000, 0.000, 17:58:55.552
165, -37808.58, 46825.52, -187500.02, -187500.02, -187500.02, -187500.02, -187500.02, -187500.02, 0.000, 0.000, 0.000, 17:58:55.552
166, -34181.74, 50534.90, -187500.02, -187500.02, -187500.02, -187500.02, -187500.02, -187500.02, 0.000, 0.000, 0.000, 17:58:55.552
167, -35128.34, 49653.91, -187500.02, -187500.02, -187500.02, -187500.02, -187500.02, -187500.02, 0.000, 0.000, 0.000, 17:58:55.552
168, -40217.96, 44658.70, -187500.02, -187500.02, -187500.02, -187500.02, -187500.02, -187500.02, 0.000, 0.000, 0.000, 17:58:55.553
169, -44116.84, 40669.91, -187500.02, -187500.02, -187500.02, -187500.02, -187500.02, -187500.02, 0.010, -0.012, 1.026, 17:58:55.553
170, -37830.57, 46796.64, -187500.02, -187500.02, -187500.02, -187500.02, -187500.02, -187500.02, 0.000, 0.000, 0.000, 17:58:55.553
171, -34174.95, 50539.82, -187500.02, -187500.02, -187500.02, -187500.02, -187500.02, -187500.02, 0.000, 0.000, 0.000, 17:58:55.553
172, -35122.46, 49653.64, -187500.02, -187500.02, -187500.02, -187500.02, -187500.02, -187500.02, 0.000, 0.000, 0.000, 17:58:55.553
173, -40211.88, 44659.30, -187500.02, -187500.02, -187500.02, -187500.02, -187500.02, -187500.02, 0.000, 0.000, 0.000, 17:58:55.553
174, -44138.61, 40646.18, -187500.02, -187500.02, -187500.02, -187500.02, -187500.02, -187500.02, 0.000, 0.000, 0.000, 17:58:55.553
175, -37862.20, 46761.75, -187500.02, -187500.02, -187500.02, -187500.02, -187500.02, -187500.02, 0.000, 0.000, 0.000, 17:58:55.553
176, -34188.47, 50523.88, -187500.02, -187500.02, -187500.02, -187500.02, -187500.02, -187500.02, 0.000, 0.000, 0.000, 17:58:55.553
177, -35131.11, 49641.61, -187500.02, -187500.02, -187500.02, -187500.02, -187500.02, -187500.02, 0.000, 0.000, 0.000, 17:58:55.554
178, -40193.62, 44670.94, -187500.02, -187500.02, -187500.02, -187500.02, -187500.02, -187500.02, 0.000, 0.000, 0.000, 17:58:55.554
179, -44130.43, 40655.83, -187500.02, -187500.02, -187500.02, -187500.02, -187500.02, -187500.02, 0.010, -0.012, 1.034, 17:58:55.554
180, -37874.27, 46758.26, -187500.02, -187500.02, -187500.02, -187500.02, -187500.02, -187500.02, 0.000, 0.000, 0.000, 17:58:55.554
181, -34185.32, 50535.30, -187500.02, -187500.02, -187500.02, -187500.02, -187500.02, -187500.02, 0.000, 0.000, 0.000, 17:58:55.554
182, -35107.64, 49672.26, -187500.02, -187500.02, -187500.02, -187500.02, -187500.02, -187500.02, 0.000, 0.000, 0.000, 17:58:55.554
183, -40149.30, 44726.64, -187500.02, -187500.02, -187500.02, -187500.02, -187500.02, -187500.02, 0.000, 0.000, 0.000, 17:58:55.554
184, -44118.97, 40670.76, -187500.02, -187500.02, -187500.02, -187500.02, -187500.02, -187500.02, 0.000, 0.000, 0.000, 17:58:55.554
185, -37886.96, 46739.08, -187500.02, -187500.02, -187500.02, -187500.02, -187500.02, -187500.02, 0.000, 0.000, 0.000, 17:58:55.555
186, -34188.80, 50520.73, -187500.02, -187500.02, -187500.02, -187500.02, -187500.02, -187500.02, 0.000, 0.000, 0.000, 17:58:55.555
187, -35095.30, 49670.96, -187500.02, -187500.02, -187500.02, -187500.02, -187500.02, -187500.02, 0.000, 0.000, 0.000, 17:58:55.555
188, -40138.86, 44723.09, -187500.02, -187500.02, -187500.02, -187500.02, -187500.02, -187500.02, 0.000, 0.000, 0.000, 17:58:55.555
189, -44146.46, 40636.90, -187500.02, -187500.02, -187500.02, -187500.02, -187500.02, -187500.02, 0.010, -0.016, 1.034, 17:58:55.555
190, -37905.56, 46718.09, -187500.02, -187500.02, -187500.02, -187500.02, -187500.02, -187500.02, 0.000, 0.000, 0.000, 17:58:55.555
191, -34185.41, 50528.06, -187500.02, -187500.02, -187500.02, -187500.02, -187500.02, -187500.02, 0.000, 0.000, 0.000, 17:58:55.555
192, -35108.80, 49668.93, -187500.02, -187500.02, -187500.02, -187500.02, -187500.02, -187500.02, 0.000, 0.000, 0.000, 17:58:55.555
193, -40125.14, 44743.16, -187500.02, -187500.02, -187500.02, -187500.02, -187500.02, -187500.02, 0.000, 0.000, 0.000, 17:58:55.555
194, -44130.41, 40651.00, -187500.02, -187500.02, -187500.02, -187500.02, -187500.02, -187500.02, 0.000, 0.000, 0.000, 17:58:55.556
195, -37912.29, 46709.96, -187500.02, -187500.02, -187500.02, -187500.02, -187500.02, -187500.02, 0.000, 0.000, 0.000, 17:58:55.556
196, -34198.26, 50511.66, -187500.02, -187500.02, -187500.02, -187500.02, -187500.02, -187500.02, 0.000, 0.000, 0.000, 17:58:55.556
197, -35108.27, 49664.23, -187500.02, -187500.02, -187500.02, -187500.02, -187500.02, -187500.02, 0.000, 0.000, 0.000, 17:58:55.556
198, -40105.18, 44762.68, -187500.02, -187500.02, -187500.02, -187500.02, -187500.02, -187500.02, 0.000, 0.000, 0.000, 17:58:55.556
199, -44151.54, 40634.11, -187500.02, -187500.02, -187500.02, -187500.02, -187500.02, -187500.02, 0.012, -0.016, 1.028, 17:58:55.556
200, -37945.68, 46675.83, -187500.02, -187500.02, -187500.02, -187500.02, -187500.02, -187500.02, 0.000, 0.000, 0.000, 17:58:55.556
201, -34176.73, 50532.84, -187500.02, -187500.02, -187500.02, -187500.02, -187500.02, -187500.02, 0.000, 0.000, 0.000, 17:58:55.556
202, -35081.33, 49699.73, -187500.02, -187500.02, -187500.02, -187500.02, -187500.02, -187500.02, 0.000, 0.000, 0.000, 17:58:55.557
203, -40071.60, 44807.71, -187500.02, -187500.02, -187500.02, -187500.02, -187500.02, -187500.02, 0.000, 0.000, 0.000, 17:58:55.557
204, -44137.77, 40658.09, -187500.02, -187500.02, -187500.02, -187500.02, -187500.02, -187500.02, 0.000, 0.000, 0.000, 17:58:55.557
205, -37958.27, 46668.63, -187500.02, -187500.02, -187500.02, -187500.02, -187500.02, -187500.02, 0.000, 0.000, 0.000, 17:58:55.557
206, -34175.39, 50532.69, -187500.02, -187500.02, -187500.02, -187500.02, -187500.02, -187500.02, 0.000, 0.000, 0.000, 17:58:55.557
207, -35080.50, 49690.00, -187500.02, -187500.02, -187500.02, -187500.02, -187500.02, -187500.02, 0.000, 0.000, 0.000, 17:58:55.557
208, -40058.97, 44808.79, -187500.02, -187500.02, -187500.02, -187500.02, -187500.02, -187500.02, 0.000, 0.000, 0.000, 17:58:55.557
209, -44147.62, 40636.45, -187500.02, -187500.02, -187500.02, -187500.02, -187500.02, -187500.02, 0.008, -0.014, 1.024, 17:58:56.022
210, -37982.09, 46630.72, -187500.02, -187500.02, -187500.02, -187500.02, -187500.02, -187500.02, 0.000, 0.000, 0.000, 17:58:56.023
211, -34163.21, 50536.27, -187500.02, -187500.02, -187500.02, -187500.02, -187500.02, -187500.02, 0.000, 0.000, 0.000, 17:58:56.023
212, -35055.56, 49711.11, -187500.02, -187500.02, -187500.02, -187500.02, -187500.02, -187500.02, 0.000, 0.000, 0.000, 17:58:56.023
213, -40027.28, 44836.39, -187500.02, -187500.02, -187500.02, -187500.02, -187500.02, -187500.02, 0.000, 0.000, 0.000, 17:58:56.023
214, -44147.84, 40637.75, -187500.02, -187500.02, -187500.02, -187500.02, -187500.02, -187500.02, 0.000, 0.000, 0.000, 17:58:56.023
215, -37986.70, 46634.48, -187500.02, -187500.02, -187500.02, -187500.02, -187500.02, -187500.02, 0.000, 0.000, 0.000, 17:58:56.023
216, -34168.46, 50534.36, -187500.02, -187500.02, -187500.02, -187500.02, -187500.02, -187500.02, 0.000, 0.000, 0.000, 17:58:56.023
217, -35045.03, 49719.13, -187500.02, -187500.02, -187500.02, -187500.02, -187500.02, -187500.02, 0.000, 0.000, 0.000, 17:58:56.023
218, -39998.38, 44862.68, -187500.02, -187500.02, -187500.02, -187500.02, -187500.02, -187500.02, 0.000, 0.000, 0.000, 17:58:56.024
219, -44151.04, 40634.55, -187500.02, -187500.02, -187500.02, -187500.02, -187500.02, -187500.02, 0.008, -0.012, 1.018, 17:58:56.024
220, -38009.57, 46616.95, -187500.02, -187500.02, -187500.02, -187500.02, -187500.02, -187500.02, 0.000, 0.000, 0.000, 17:58:56.024
221, -34154.71, 50556.14, -187500.02, -187500.02, -187500.02, -187500.02, -187500.02, -187500.02, 0.000, 0.000, 0.000, 17:58:56.024
222, -35021.38, 49750.31, -187500.02, -187500.02, -187500.02, -187500.02, -187500.02, -187500.02, 0.000, 0.000, 0.000, 17:58:56.024
223, -39951.15, 44918.76, -187500.02, -187500.02, -187500.02, -187500.02, -187500.02, -187500.02, 0.000, 0.000, 0.000, 17:58:56.024
224, -44121.80, 40664.71, -187500.02, -187500.02, -187500.02, -187500.02, -187500.02, -187500.02, 0.000, 0.000, 0.000, 17:58:56.024
225, -38000.85, 46615.54, -187500.02, -187500.02, -187500.02, -187500.02, -187500.02, -187500.02, 0.000, 0.000, 0.000, 17:58:56.024
226, -34139.83, 50564.65, -187500.02, -187500.02, -187500.02, -187500.02, -187500.02, -187500.02, 0.000, 0.000, 0.000, 17:58:56.025
227, -35031.38, 49733.64, -187500.02, -187500.02, -187500.02, -187500.02, -187500.02, -187500.02, 0.000, 0.000, 0.000, 17:58:56.025
228, -39942.59, 44914.02, -187500.02, -187500.02, -187500.02, -187500.02, -187500.02, -187500.02, 0.000, 0.000, 0.000, 17:58:56.025
229, -44128.13, 40649.73, -187500.02, -187500.02, -187500.02, -187500.02, -187500.02, -187500.02, 0.012, -0.014, 1.022, 17:58:56.025
230, -38016.63, 46593.21, -187500.02, -187500.02, -187500.02, -187500.02, -187500.02, -187500.02, 0.000, 0.000, 0.000, 17:58:56.025
231, -34155.48, 50538.72, -187500.02, -187500.02, -187500.02, -187500.02, -187500.02, -187500.02, 0.000, 0.000, 0.000, 17:58:56.025
232, -35018.61, 49741.77, -187500.02, -187500.02, -187500.02, -187500.02, -187500.02, -187500.02, 0.000, 0.000, 0.000, 17:58:56.025
233, -39920.55, 44932.39, -187500.02, -187500.02, -187500.02, -187500.02, -187500.02, -187500.02, 0.000, 0.000, 0.000, 17:58:56.025
234, -44130.03, 40649.80, -187500.02, -187500.02, -187500.02, -187500.02, -187500.02, -187500.02, 0.000, 0.000, 0.000, 17:58:56.026
235, -38029.23, 46580.88, -187500.02, -187500.02, -187500.02, -187500.02, -187500.02, -187500.02, 0.000, 0.000, 0.000, 17:58:56.026
236, -34133.04, 50558.59, -187500.02, -187500.02, -187500.02, -187500.02, -187500.02, -187500.02, 0.000, 0.000, 0.000, 17:58:56.026
237, -34995.28, 49759.96, -187500.02, -187500.02, -187500.02, -187500.02, -187500.02, -187500.02, 0.000, 0.000, 0.000, 17:58:56.026
238, -39900.07, 44952.57, -187500.02, -187500.02, -187500.02, -187500.02, -187500.02, -187500.02, 0.000, 0.000, 0.000, 17:58:56.026
239, -44151.89, 40626.84, -187500.02, -187500.02, -187500.02, -187500.02, -187500.02, -187500.02, 0.008, -0.016, 1.028, 17:58:56.026
240, -38060.86, 46549.65, -187500.02, -187500.02, -187500.02, -187500.02, -187500.02, -187500.02, 0.000, 0.000, 0.000, 17:58:56.026
241, -34128.52, 50564.27, -187500.02, -187500.02, -187500.02, -187500.02, -187500.02, -187500.02, 0.000, 0.000, 0.000, 17:58:56.026
242, -34973.41, 49783.41, -187500.02, -187500.02, -187500.02, -187500.02, -187500.02, -187500.02, 0.000, 0.000, 0.000, 17:58:56.026
243, -39840.53, 45010.58, -187500.02, -187500.02, -187500.02, -187500.02, -187500.02, -187500.02, 0.000, 0.000, 0.000, 17:58:56.027
244, -44107.90, 40671.10, -187500.02, -187500.02, -187500.02, -187500.02, -187500.02, -187500.02, 0.000, 0.000, 0.000, 17:58:56.027
245, -38052.14, 46558.70, -187500.02, -187500.02, -187500.02, -187500.02, -187500.02, -187500.02, 0.000, 0.000, 0.000, 17:58:56.027
246, -34123.22, 50572.12, -187500.02, -187500.02, -187500.02, -187500.02, -187500.02, -187500.02, 0.000, 0.000, 0.000, 17:58:56.027
247, -34965.66, 49795.71, -187500.02, -187500.02, -187500.02, -187500.02, -187500.02, -187500.02, 0.000, 0.000, 0.000, 17:58:56.027
248, -39826.65, 45025.71, -187500.02, -187500.02, -187500.02, -187500.02, -187500.02, -187500.02, 0.000, 0.000, 0.000, 17:58:56.027
249, -44129.25, 40642.80, -187500.02, -187500.02, -187500.02, -187500.02, -187500.02, -187500.02, 0.010, -0.018, 1.034, 17:58:56.027
250, -38088.87, 46515.12, -187500.02, -187500.02, -187500.02, -187500.02, -187500.02, -187500.02, 0.000, 0.000, 0.000, 17:58:56.027
251, -34121.95, 50569.84, -187500.02, -187500.02, -187500.02, -187500.02, -187500.02, -187500.02, 0.000, 0.000, 0.000, 17:58:56.028
252, -34957.32, 49799.53, -187500.02, -187500.02, -187500.02, -187500.02, -187500.02, -187500.02, 0.000, 0.000, 0.000, 17:58:56.028
253, -39813.84, 45035.66, -187500.02, -187500.02, -187500.02, -187500.02, -187500.02, -187500.02, 0.000, 0.000, 0.000, 17:58:56.028
254, -44137.96, 40639.09, -187500.02, -187500.02, -187500.02, -187500.02, -187500.02, -187500.02, 0.000, 0.000, 0.000, 17:58:56.028
255, -38102.44, 46499.47, -187500.02, -187500.02, -187500.02, -187500.02, -187500.02, -187500.02, 0.000, 0.000, 0.000, 17:58:56.028
0, -34111.71, 50575.54, -187500.02, -187500.02, -187500.02, -187500.02, -187500.02, -187500.02, 0.000, 0.000, 0.000, 17:58:56.028
1, -34956.23, 49796.38, -187500.02, -187500.02, -187500.02, -187500.02, -187500.02, -187500.02, 0.000, 0.000, 0.000, 17:58:56.028
2, -39786.37, 45056.45, -187500.02, -187500.02, -187500.02, -187500.02, -187500.02, -187500.02, 0.000, 0.000, 0.000, 17:58:56.028
3, -44146.48, 40629.50, -187500.02, -187500.02, -187500.02, -187500.02, -187500.02, -187500.02, 0.010, -0.016, 1.024, 17:58:56.028
4, -38130.91, 46477.25, -187500.02, -187500.02, -187500.02, -187500.02, -187500.02, -187500.02, 0.000, 0.000, 0.000, 17:58:56.029
5, -34117.75, 50574.53, -187500.02, -187500.02, -187500.02, -187500.02, -187500.02, -187500.02, 0.000, 0.000, 0.000, 17:58:56.029
6, -34921.63, 49834.40, -187500.02, -187500.02, -187500.02, -187500.02, -187500.02, -187500.02, 0.000, 0.000, 0.000, 17:58:56.029
7, -39725.35, 45121.44, -187500.02, -187500.02, -187500.02, -187500.02, -187500.02, -187500.02, 0.000, 0.000, 0.000, 17:58:56.029
8, -44119.10, 40665.85, -187500.02, -187500.02, -187500.02, -187500.02, -187500.02, -187500.02, 0.000, 0.000, 0.000, 17:58:56.029
9, -38130.78, 46483.60, -187500.02, -187500.02, -187500.02, -187500.02, -187500.02, -187500.02, 0.000, 0.000, 0.000, 17:58:56.029
10, -34117.50, 50572.96, -187500.02, -187500.02, -187500.02, -187500.02, -187500.02, -187500.02, 0.000, 0.000, 0.000, 17:58:56.029
11, -34936.02, 49821.32, -187500.02, -187500.02, -187500.02, -187500.02, -187500.02, -187500.02, 0.000, 0.000, 0.000, 17:58:56.029
12, -39736.82, 45113.71, -187500.02, -187500.02, -187500.02, -187500.02, -187500.02, -187500.02, 0.008, -0.018, 1.034, 17:58:56.030
13, -44150.26, 40630.84, -187500.02, -187500.02, -187500.02, -187500.02, -187500.02, -187500.02, 0.000, 0.000, 0.000, 17:58:56.030
14, -38161.63, 46447.06, -187500.02, -187500.02, -187500.02, -187500.02, -187500.02, -187500.02, 0.000, 0.000, 0.000, 17:58:56.030
15, -34116.16, 50569.21, -187500.02, -187500.02, -187500.02, -187500.02, -187500.02, -187500.02, 0.000, 0.000, 0.000, 17:58:56.030
16, -34927.53, 49822.28, -187500.02, -187500.02, -187500.02, -187500.02, -187500.02, -187500.02, 0.000, 0.000, 0.000, 17:58:56.030
17, -39714.22, 45128.71, -187500.02, -187500.02, -187500.02, -187500.02, -187500.02, -187500.02, 0.000, 0.000, 0.000, 17:58:56.030
18, -44132.98, 40640.28, -187500.02, -187500.02, -187500.02, -187500.02, -187500.02, -187500.02, 0.000, 0.000, 0.000, 17:58:56.030
19, -38181.00, 46417.93, -187500.02, -187500.02, -187500.02, -187500.02, -187500.02, -187500.02, 0.000, 0.000, 0.000, 17:58:56.030
20, -34126.53, 50548.65, -187500.02, -187500.02, -187500.02, -187500.02, -187500.02, -187500.02, 0.000, 0.000, 0.000, 17:58:56.031
21, -34941.25, 49799.66, -187500.02, -187500.02, -187500.02, -187500.02, -187500.02, -187500.02, 0.000, 0.000, 0.000, 17:58:56.031
22, -39718.27, 45121.11, -187500.02, -187500.02, -187500.02, -187500.02, -187500.02, -187500.02, 0.006, -0.018, 1.034, 17:58:56.031
23, -44168.70, 40602.52, -187500.02, -187500.02, -187500.02, -187500.02, -187500.02, -187500.02, 0.000, 0.000, 0.000, 17:58:56.031
24, -38232.66, 46368.94, -187500.02, -187500.02, -187500.02, -187500.02, -187500.02, -187500.02, 0.000, 0.000, 0.000, 17:58:56.031
25, -34146.07, 50532.84, -187500.02, -187500.02, -187500.02, -187500.02, -187500.02, -187500.02, 0.000, 0.000, 0.000, 17:58:56.031
26, -34906.50, 49831.38, -187500.02, -187500.02, -187500.02, -187500.02, -187500.02, -187500.02, 0.000, 0.000, 0.000, 17:58:56.031
27, -39672.69, 45153.54, -187500.02, -187500.02, -187500.02, -187500.02, -187500.02, -187500.02, 0.000, 0.000, 0.000, 17:58:56.031
28, -44167.76, 40592.67, -187500.02, -187500.02, -187500.02, -187500.02, -187500.02, -187500.02, 0.000, 0.000, 0.000, 17:58:56.031
29, -38246.56, 46343.01, -187500.02, -187500.02, -187500.02, -187500.02, -187500.02, -187500.02, 0.000, 0.000, 0.000, 17:58:56.032
30, -34160.68, 50508.10, -187500.02, -187500.02, -187500.02, -187500.02, -187500.02, -187500.02, 0.000, 0.000, 0.000, 17:58:56.032
31, -34953.52, 49783.05, -187500.02, -187500.02, -187500.02, -187500.02, -187500.02, -187500.02, 0.000, 0.000, 0.000, 17:58:56.032
32, -39700.92, 45126.65, -187500.02, -187500.02, -187500.02, -187500.02, -187500.02, -187500.02, 0.006, -0.012, 1.040, 17:58:56.032
33, -44212.62, 40549.26, -187500.02, -187500.02, -187500.02, -187500.02, -187500.02, -187500.02, 0.000, 0.000, 0.000, 17:58:56.032
34, -38301.52, 46290.59, -187500.02, -187500.02, -187500.02, -187500.02, -187500.02, -187500.02, 0.000, 0.000, 0.000, 17:58:56.032
35, -34185.18, 50486.44, -187500.02, -187500.02, -187500.02, -187500.02, -187500.02, -187500.02, 0.000, 0.000, 0.000, 17:58:56.032
36, -34967.43, 49765.29, -187500.02, -187500.02, -187500.02, -187500.02, -187500.02, -187500.02, 0.000, 0.000, 0.000, 17:58:56.033
37, -39702.98, 45124.30, -187500.02, -187500.02, -187500.02, -187500.02, -187500.02, -187500.02, 0.000, 0.000, 0.000, 17:58:56.033
38, -44242.93, 40523.24, -187500.02, -187500.02, -187500.02, -187500.02, -187500.02, -187500.02, 0.000, 0.000, 0.000, 17:58:56.033
39, -38356.91, 46230.63, -187500.02, -187500.02, -187500.02, -187500.02, -187500.02, -187500.02, 0.000, 0.000, 0.000, 17:58:56.033
40, -34214.73, 50450.43, -187500.02, -187500.02, -187500.02, -187500.02, -187500.02, -187500.02, 0.000, 0.000, 0.000, 17:58:56.033
41, -34970.46, 49763.39, -187500.02, -187500.02, -187500.02, -187500.02, -187500.02, -187500.02, 0.000, 0.000, 0.000, 17:58:56.033
42, -39679.06, 45148.09, -187500.02, -187500.02, -187500.02, -187500.02, -187500.02, -187500.02, 0.006, -0.016, 1.038, 17:58:56.033
43, -44240.67, 40524.58, -187500.02, -187500.02, -187500.02, -187500.02, -187500.02, -187500.02, 0.000, 0.000, 0.000, 17:58:56.033
44, -38380.25, 46210.91, -187500.02, -187500.02, -187500.02, -187500.02, -187500.02, -187500.02, 0.000, 0.000, 0.000, 17:58:56.033
45, -34232.95, 50437.49, -187500.02, -187500.02, -187500.02, -187500.02, -187500.02, -187500.02, 0.000, 0.000, 0.000, 17:58:56.034
46, -34988.14, 49749.57, -187500.02, -187500.02, -187500.02, -187500.02, -187500.02, -187500.02, 0.000, 0.000, 0.000, 17:58:56.034
47, -39691.36, 45134.16, -187500.02, -187500.02, -187500.02, -187500.02, -187500.02, -187500.02, 0.000, 0.000, 0.000, 17:58:56.034
48, -44279.39, 40480.82, -187500.02, -187500.02, -187500.02, -187500.02, -187500.02, -187500.02, 0.000, 0.000, 0.000, 17:58:56.034
49, -38426.87, 46157.20, -187500.02, -187500.02, -187500.02, -187500.02, -187500.02, -187500.02, 0.000, 0.000, 0.000, 17:58:56.034
50, -34246.49, 50415.32, -187500.02, -187500.02, -187500.02, -187500.02, -187500.02, -187500.02, 0.000, 0.000, 0.000, 17:58:56.034
51, -35016.00, 49718.59, -187500.02, -187500.02, -187500.02, -187500.02, -187500.02, -187500.02, 0.000, 0.000, 0.000, 17:58:56.034
52, -39710.91, 45116.10, -187500.02, -187500.02, -187500.02, -187500.02, -187500.02, -187500.02, 0.010, -0.016, 1.032, 17:58:56.034
53, -44315.15, 40449.86, -187500.02, -187500.02, -187500.02, -187500.02, -187500.02, -187500.02, 0.000, 0.000, 0.000, 17:58:56.035
54, -38493.48, 46096.27, -187500.02, -187500.02, -187500.02, -187500.02, -187500.02, -187500.02, 0.000, 0.000, 0.000, 17:58:56.035
55, -34297.54, 50366.82, -187500.02, -187500.02, -187500.02, -187500.02, -187500.02, -187500.02, 0.000, 0.000, 0.000, 17:58:56.035
56, -35037.41, 49689.89, -187500.02, -187500.02, -187500.02, -187500.02, -187500.02, -187500.02, 0.000, 0.000, 0.000, 17:58:56.035
57, -39713.13, 45104.05, -187500.02, -187500.02, -187500.02, -187500.02, -187500.02, -187500.02, 0.000, 0.000, 0.000, 17:58:56.035
58, -44356.10, 40401.11, -187500.02, -187500.02, -187500.02, -187500.02, -187500.02, -187500.02, 0.000, 0.000, 0.000, 17:58:56.035
59, -38543.84, 46039.96, -187500.02, -187500.02, -187500.02, -187500.02, -187500.02, -187500.02, 0.000, 0.000, 0.000, 17:58:56.035
60, -34317.46, 50345.54, -187500.02, -187500.02, -187500.02, -187500.02, -187500.02, -187500.02, 0.000, 0.000, 0.000, 17:58:56.035
61, -35057.23, 49671.18, -187500.02, -187500.02, -187500.02, -187500.02, -187500.02, -187500.02, 0.000, 0.000, 0.000, 17:58:56.036
62, -39693.99, 45119.48, -187500.02, -187500.02, -187500.02, -187500.02, -187500.02, -187500.02, 0.010, -0.016, 1.034, 17:58:56.036
63, -44363.54, 40391.59, -187500.02, -187500.02, -187500.02, -187500.02, -187500.02, -187500.02, 0.000, 0.000, 0.000, 17:58:56.036
64, -38580.88, 45997.81, -187500.02, -187500.02, -187500.02, -187500.02, -187500.02, -187500.02, 0.000, 0.000, 0.000, 17:58:56.036
65, -34352.21, 50301.04, -187500.02, -187500.02, -187500.02, -187500.02, -187500.02, -187500.02, 0.000, 0.000, 0.000, 17:58:56.036
66, -35083.90, 49640.63, -187500.02, -187500.02, -187500.02, -187500.02, -187500.02, -187500.02, 0.000, 0.000, 0.000, 17:58:56.036
67, -39718.56, 45093.05, -187500.02, -187500.02, -187500.02, -187500.02, -187500.02, -187500.02, 0.000, 0.000, 0.000, 17:58:56.036
68, -44387.57, 40359.18, -187500.02, -187500.02, -187500.02, -187500.02, -187500.02, -187500.02, 0.000, 0.000, 0.000, 17:58:56.036
69, -38624.44, 45943.99, -187500.02, -187500.02, -187500.02, -187500.02, -187500.02, -187500.02, 0.000, 0.000, 0.000, 17:58:56.037
70, -34372.18, 50270.43, -187500.02, -187500.02, -187500.02, -187500.02, -187500.02, -187500.02, 0.000, 0.000, 0.000, 17:58:56.037
71, -35095.21, 49612.24, -187500.02, -187500.02, -187500.02, -187500.02, -187500.02, -187500.02, 0.000, 0.000, 0.000, 17:58:56.037
72, -39718.24, 45080.52, -187500.02, -187500.02, -187500.02, -187500.02, -187500.02, -187500.02, 0.012, -0.014, 1.026, 17:58:56.037
73, -44424.71, 40313.14, -187500.02, -187500.02, -187500.02, -187500.02, -187500.02, -187500.02, 0.000, 0.000, 0.000, 17:58:56.503
74, -38671.73, 45884.17, -187500.02, -187500.02, -187500.02, -187500.02, -187500.02, -187500.02, 0.000, 0.000, 0.000, 17:58:56.503
75, -34413.01, 50221.69, -187500.02, -187500.02, -187500.02, -187500.02, -187500.02, -187500.02, 0.000, 0.000, 0.000, 17:58:56.503
76, -35140.34, 49567.81, -187500.02, -187500.02, -187500.02, -187500.02, -187500.02, -187500.02, 0.000, 0.000, 0.000, 17:58:56.503
77, -39748.42, 45051.19, -187500.02, -187500.02, -187500.02, -187500.02, -187500.02, -187500.02, 0.000, 0.000, 0.000, 17:58:56.503
78, -44467.32, 40278.20, -187500.02, -187500.02, -187500.02, -187500.02, -187500.02, -187500.02, 0.000, 0.000, 0.000, 17:58:56.504
79, -38740.58, 45825.63, -187500.02, -187500.02, -187500.02, -187500.02, -187500.02, -187500.02, 0.000, 0.000, 0.000, 17:58:56.504
80, -34432.73, 50204.54, -187500.02, -187500.02, -187500.02, -187500.02, -187500.02, -187500.02, 0.000, 0.000, 0.000, 17:58:56.504
81, -35121.68, 49581.49, -187500.02, -187500.02, -187500.02, -187500.02, -187500.02, -187500.02, 0.000, 0.000, 0.000, 17:58:56.504
82, -39709.28, 45086.75, -187500.02, -187500.02, -187500.02, -187500.02, -187500.02, -187500.02, 0.006, -0.016, 1.028, 17:58:56.504
83, -44464.77, 40275.68, -187500.02, -187500.02, -187500.02, -187500.02, -187500.02, -187500.02, 0.000, 0.000, 0.000, 17:58:56.504
84, -38764.41, 45795.95, -187500.02, -187500.02, -187500.02, -187500.02, -187500.02, -187500.02, 0.000, 0.000, 0.000, 17:58:56.504
85, -34450.23, 50183.55, -187500.02, -187500.02, -187500.02, -187500.02, -187500.02, -187500.02, 0.000, 0.000, 0.000, 17:58:56.504
86, -35144.38, 49556.34, -187500.02, -187500.02, -187500.02, -187500.02, -187500.02, -187500.02, 0.000, 0.000, 0.000, 17:58:56.505
87, -39718.69, 45076.76, -187500.02, -187500.02, -187500.02, -187500.02, -187500.02, -187500.02, 0.000, 0.000, 0.000, 17:58:56.505
88, -44493.70, 40248.81, -187500.02, -187500.02, -187500.02, -187500.02, -187500.02, -187500.02, 0.000, 0.000, 0.000, 17:58:56.505
89, -38806.54, 45752.88, -187500.02, -187500.02, -187500.02, -187500.02, -187500.02, -187500.02, 0.000, 0.000, 0.000, 17:58:56.505
90, -34464.71, 50165.47, -187500.02, -187500.02, -187500.02, -187500.02, -187500.02, -187500.02, 0.000, 0.000, 0.000, 17:58:56.505
91, -35165.53, 49540.05, -187500.02, -187500.02, -187500.02, -187500.02, -187500.02, -187500.02, 0.000, 0.000, 0.000, 17:58:56.505
92, -39734.02, 45069.30, -187500.02, -187500.02, -187500.02, -187500.02, -187500.02, -187500.02, 0.010, -0.014, 1.026, 17:58:56.505
93, -44518.37, 40233.21, -187500.02, -187500.02, -187500.02, -187500.02, -187500.02, -187500.02, 0.000, 0.000, 0.000, 17:58:56.505
94, -38835.42, 45736.20, -187500.02, -187500.02, -187500.02, -187500.02, -187500.02, -187500.02, 0.000, 0.000, 0.000, 17:58:56.506
95, -34483.42, 50158.30, -187500.02, -187500.02, -187500.02, -187500.02, -187500.02, -187500.02, 0.000, 0.000, 0.000, 17:58:56.506
96, -35189.63, 49525.12, -187500.02, -187500.02, -187500.02, -187500.02, -187500.02, -187500.02, 0.000, 0.000, 0.000, 17:58:56.506
97, -39735.63, 45071.33, -187500.02, -187500.02, -187500.02, -187500.02, -187500.02, -187500.02, 0.000, 0.000, 0.000, 17:58:56.506
98, -44540.34, 40210.70, -187500.02, -187500.02, -187500.02, -187500.02, -187500.02, -187500.02, 0.000, 0.000, 0.000, 17:58:56.506
99, -38896.77, 45669.38, -187500.02, -187500.02, -187500.02, -187500.02, -187500.02, -187500.02, 0.000, 0.000, 0.000, 17:58:56.506
100, -34511.70, 50127.68, -187500.02, -187500.02, -187500.02, -187500.02, -187500.02, -187500.02, 0.000, 0.000, 0.000, 17:58:56.506
101, -35179.48, 49524.65, -187500.02, -187500.02, -187500.02, -187500.02, -187500.02, -187500.02, 0.000, 0.000, 0.000, 17:58:56.506
102, -39705.64, 45091.34, -187500.02, -187500.02, -187500.02, -187500.02, -187500.02, -187500.02, 0.012, -0.012, 1.032, 17:58:56.507
103, -44531.74, 40215.44, -187500.02, -187500.02, -187500.02, -187500.02, -187500.02, -187500.02, 0.000, 0.000, 0.000, 17:58:56.507
104, -38919.32, 45650.66, -187500.02, -187500.02, -187500.02, -187500.02, -187500.02, -187500.02, 0.000, 0.000, 0.000, 17:58:56.507
105, -34533.91, 50107.31, -187500.02, -187500.02, -187500.02, -187500.02, -187500.02, -187500.02, 0.000, 0.000, 0.000, 17:58:56.507
106, -35201.70, 49504.44, -187500.02, -187500.02, -187500.02, -187500.02, -187500.02, -187500.02, 0.000, 0.000, 0.000, 17:58:56.507
107, -39718.89, 45079.27, -187500.02, -187500.02, -187500.02, -187500.02, -187500.02, -187500.02, 0.000, 0.000, 0.000, 17:58:56.507
108, -44567.75, 40175.92, -187500.02, -187500.02, -187500.02, -187500.02, -187500.02, -187500.02, 0.000, 0.000, 0.000, 17:58:56.507
109, -38955.29, 45606.90, -187500.02, -187500.02, -187500.02, -187500.02, -187500.02, -187500.02, 0.000, 0.000, 0.000, 17:58:56.507
110, -34527.90, 50105.48, -187500.02, -187500.02, -187500.02, -187500.02, -187500.02, -187500.02, 0.000, 0.000, 0.000, 17:58:56.507
111, -35202.95, 49494.45, -187500.02, -187500.02, -187500.02, -187500.02, -187500.02, -187500.02, 0.000, 0.000, 0.000, 17:58:56.508
112, -39715.36, 45072.25, -187500.02, -187500.02, -187500.02, -187500.02, -187500.02, -187500.02, 0.010, -0.016, 1.036, 17:58:56.508
113, -44591.66, 40147.35, -187500.02, -187500.02, -187500.02, -187500.02, -187500.02, -187500.02, 0.000, 0.000, 0.000, 17:58:56.508
114, -38997.22, 45563.92, -187500.02, -187500.02, -187500.02, -187500.02, -187500.02, -187500.02, 0.000, 0.000, 0.000, 17:58:56.508
115, -34550.36, 50084.76, -187500.02, -187500.02, -187500.02, -187500.02, -187500.02, -187500.02, 0.000, 0.000, 0.000, 17:58:56.508
116, -35209.18, 49491.66, -187500.02, -187500.02, -187500.02, -187500.02, -187500.02, -187500.02, 0.000, 0.000, 0.000, 17:58:56.508
117, -39696.52, 45092.59, -187500.02, -187500.02, -187500.02, -187500.02, -187500.02, -187500.02, 0.000, 0.000, 0.000, 17:58:56.508
118, -44597.63, 40150.26, -187500.02, -187500.02, -187500.02, -187500.02, -187500.02, -187500.02, 0.000, 0.000, 0.000, 17:58:56.508
119, -39030.68, 45535.69, -187500.02, -187500.02, -187500.02, -187500.02, -187500.02, -187500.02, 0.000, 0.000, 0.000, 17:58:56.509
120, -34558.95, 50069.89, -187500.02, -187500.02, -187500.02, -187500.02, -187500.02, -187500.02, 0.000, 0.000, 0.000, 17:58:56.509
121, -35184.55, 49515.91, -187500.02, -187500.02, -187500.02, -187500.02, -187500.02, -187500.02, 0.000, 0.000, 0.000, 17:58:56.509
122, -39640.62, 45145.00, -187500.02, -187500.02, -187500.02, -187500.02, -187500.02, -187500.02, 0.010, -0.016, 1.032, 17:58:56.510
123, -44563.18, 40171.09, -187500.02, -187500.02, -187500.02, -187500.02, -187500.02, -187500.02, 0.000, 0.000, 0.000, 17:58:56.510
124, -39033.18, 45523.71, -187500.02, -187500.02, -187500.02, -187500.02, -187500.02, -187500.02, 0.000, 0.000, 0.000, 17:58:56.510
125, -34584.59, 50046.85, -187500.02, -187500.02, -187500.02, -187500.02, -187500.02, -187500.02, 0.000, 0.000, 0.000, 17:58:56.510
126, -35227.51, 49476.37, -187500.02, -187500.02, -187500.02, -187500.02, -187500.02, -187500.02, 0.000, 0.000, 0.000, 17:58:56.511
127, -39669.74, 45121.71, -187500.02, -187500.02, -187500.02, -187500.02, -187500.02, -187500.02, 0.000, 0.000, 0.000, 17:58:56.511
128, -44604.67, 40132.62, -187500.02, -187500.02, -187500.02, -187500.02, -187500.02, -187500.02, 0.000, 0.000, 0.000, 17:58:56.511
129, -39086.41, 45467.27, -187500.02, -187500.02, -187500.02, -187500.02, -187500.02, -187500.02, 0.000, 0.000, 0.000, 17:58:56.511
130, -34599.43, 50027.32, -187500.02, -187500.02, -187500.02, -187500.02, -187500.02, -187500.02, 0.000, 0.000, 0.000, 17:58:56.511
131, -35219.84, 49478.91, -187500.02, -187500.02, -187500.02, -187500.02, -187500.02, -187500.02, 0.000, 0.000, 0.000, 17:58:56.511
132, -39653.65, 45137.31, -187500.02, -187500.02, -187500.02, -187500.02, -187500.02, -187500.02, 0.012, -0.010, 1.028, 17:58:56.511
133, -44618.02, 40125.36, -187500.02, -187500.02, -187500.02, -187500.02, -187500.02, -187500.02, 0.000, 0.000, 0.000, 17:58:56.511
134, -39118.70, 45438.68, -187500.02, -187500.02, -187500.02, -187500.02, -187500.02, -187500.02, 0.000, 0.000, 0.000, 17:58:56.512
135, -34598.53, 50027.74, -187500.02, -187500.02, -187500.02, -187500.02, -187500.02, -187500.02, 0.000, 0.000, 0.000, 17:58:56.512
136, -35211.24, 49485.84, -187500.02, -187500.02, -187500.02, -187500.02, -187500.02, -187500.02, 0.000, 0.000, 0.000, 17:58:56.512
137, -39630.11, 45152.33, -187500.02, -187500.02, -187500.02, -187500.02, -187500.02, -187500.02, 0.000, 0.000, 0.000, 17:58:56.512
138, -44623.78, 40109.94, -187500.02, -187500.02, -187500.02, -187500.02, -187500.02, -187500.02, 0.000, 0.000, 0.000, 17:58:56.512
139, -39156.14, 45396.08, -187500.02, -187500.02, -187500.02, -187500.02, -187500.02, -187500.02, 0.000, 0.000, 0.000, 17:58:56.512
140, -34600.10, 50017.05, -187500.02, -187500.02, -187500.02, -187500.02, -187500.02, -187500.02, 0.000, 0.000, 0.000, 17:58:56.512
141, -35186.92, 49502.47, -187500.02, -187500.02, -187500.02, -187500.02, -187500.02, -187500.02, 0.006, -0.014, 1.022, 17:58:56.512
