%OpenBCI Raw EEG Data
%
%Sample Rate = 250.0 Hz
%First Column = SampleIndex
%Last Column = Timestamp 
%Other Columns = EEG data in microvolts followed by Accel Data (in G) interleaved with Aux Data
0, 5299.71, 24662.40, 187500.00, 187500.00, -187500.02, -187500.02, -187500.02, -187500.02, 0.028, -0.020, 1.036, 17:06:39.289
1, 5219.94, 24612.24, 187500.00, 187500.00, -187500.02, -187500.02, -187500.02, -187500.02, 0.000, 0.000, 0.000, 17:06:39.290
2, 4850.53, 24280.90, 187500.00, 187500.00, -187500.02, -187500.02, -187500.02, -187500.02, 0.000, 0.000, 0.000, 17:06:39.290
3, 4423.21, 23864.09, 187500.00, 187500.00, -187500.02, -187500.02, -187500.02, -187500.02, 0.000, 0.000, 0.000, 17:06:39.290
4, 4843.33, 24213.67, 187500.00, 187500.00, -187500.02, -187500.02, -187500.02, -187500.02, 0.000, 0.000, 0.000, 17:06:39.290
5, 5286.39, 24656.21, 187500.00, 187500.00, -187500.02, -187500.02, -187500.02, -187500.02, 0.000, 0.000, 0.000, 17:06:39.290
6, 5213.10, 24609.49, 187500.00, 187500.00, -187500.02, -187500.02, -187500.02, -187500.02, 0.000, 0.000, 0.000, 17:06:39.290
7, 4851.36, 24283.58, 187500.00, 187500.00, -187500.02, -187500.02, -187500.02, -187500.02, 0.024, -0.020, 1.016, 17:06:39.290
8, 4423.90, 23864.46, 187500.00, 187500.00, -187500.02, -187500.02, -187500.02, -187500.02, 0.000, 0.000, 0.000, 17:06:39.291
9, 4857.01, 24221.82, 187500.00, 187500.00, -187500.02, -187500.02, -187500.02, -187500.02, 0.000, 0.000, 0.000, 17:06:39.291
10, 5292.40, 24651.83, 187500.00, 187500.00, -187500.02, -187500.02, -187500.02, -187500.02, 0.000, 0.000, 0.000, 17:06:39.291
11, 5208.92, 24598.83, 187500.00, 187500.00, -187500.02, -187500.02, -187500.02, -187500.02, 0.000, 0.000, 0.000, 17:06:39.291
12, 4854.53, 24280.95, 187500.00, 187500.00, -187500.02, -187500.02, -187500.02, -187500.02, 0.000, 0.000, 0.000, 17:06:39.291
13, 4417.46, 23854.41, 187500.00, 187500.00, -187500.02, -187500.02, -187500.02, -187500.02, 0.000, 0.000, 0.000, 17:06:39.291
14, 4827.06, 24190.93, 187500.00, 187500.00, -187500.02, -187500.02, -187500.02, -187500.02, 0.000, 0.000, 0.000, 17:06:39.291
15, 5283.48, 24643.78, 187500.00, 187500.00, -187500.02, -187500.02, -187500.02, -187500.02, 0.000, 0.000, 0.000, 17:06:39.291
16, 5215.91, 24607.39, 187500.00, 187500.00, -187500.02, -187500.02, -187500.02, -187500.02, 0.020, -0.014, 1.028, 17:06:39.292
17, 4854.73, 24284.90, 187500.00, 187500.00, -187500.02, -187500.02, -187500.02, -187500.02, 0.000, 0.000, 0.000, 17:06:39.292
18, 4411.76, 23854.12, 187500.00, 187500.00, -187500.02, -187500.02, -187500.02, -187500.02, 0.000, 0.000, 0.000, 17:06:39.292
19, 4836.27, 24204.35, 187500.00, 187500.00, -187500.02, -187500.02, -187500.02, -187500.02, 0.000, 0.000, 0.000, 17:06:39.292
20, 5287.98, 24648.47, 187500.00, 187500.00, -187500.02, -187500.02, -187500.02, -187500.02, 0.000, 0.000, 0.000, 17:06:39.292
21, 5213.21, 24602.70, 187500.00, 187500.00, -187500.02, -187500.02, -187500.02, -187500.02, 0.000, 0.000, 0.000, 17:06:39.292
22, 4863.47, 24287.47, 187500.00, 187500.00, -187500.02, -187500.02, -187500.02, -187500.02, 0.000, 0.000, 0.000, 17:06:39.292
23, 4419.77, 23856.71, 187500.00, 187500.00, -187500.02, -187500.02, -187500.02, -187500.02, 0.000, 0.000, 0.000, 17:06:39.292
24, 4833.50, 24194.87, 187500.00, 187500.00, -187500.02, -187500.02, -187500.02, -187500.02, 0.000, 0.000, 0.000, 17:06:39.292
25, 5287.37, 24641.59, 187500.00, 187500.00, -187500.02, -187500.02, -187500.02, -187500.02, 0.000, 0.000, 0.000, 17:06:39.293
26, 5216.03, 24600.33, 187500.00, 187500.00, -187500.02, -187500.02, -187500.02, -187500.02, 0.016, -0.016, 1.026, 17:06:39.293
27, 4862.42, 24283.31, 187500.00, 187500.00, -187500.02, -187500.02, -187500.02, -187500.02, 0.000, 0.000, 0.000, 17:06:39.293
28, 4418.65, 23853.58, 187500.00, 187500.00, -187500.02, -187500.02, -187500.02, -187500.02, 0.000, 0.000, 0.000, 17:06:39.293
29, 4826.70, 24186.11, 187500.00, 187500.00, -187500.02, -187500.02, -187500.02, -187500.02, 0.000, 0.000, 0.000, 17:06:39.293
30, 5287.39, 24637.46, 187500.00, 187500.00, -187500.02, -187500.02, -187500.02, -187500.02, 0.000, 0.000, 0.000, 17:06:39.293
31, 5218.10, 24597.45, 187500.00, 187500.00, -187500.02, -187500.02, -187500.02, -187500.02, 0.000, 0.000, 0.000, 17:06:39.293
32, 4866.20, 24282.89, 187500.00, 187500.00, -187500.02, -187500.02, -187500.02, -187500.02, 0.000, 0.000, 0.000, 17:06:39.294
33, 4421.24, 23851.70, 187500.00, 187500.00, -187500.02, -187500.02, -187500.02, -187500.02, 0.000, 0.000, 0.000, 17:06:39.294
34, 4826.88, 24185.95, 187500.00, 187500.00, -187500.02, -187500.02, -187500.02, -187500.02, 0.000, 0.000, 0.000, 17:06:39.294
35, 5282.37, 24638.62, 187500.00, 187500.00, -187500.02, -187500.02, -187500.02, -187500.02, 0.000, 0.000, 0.000, 17:06:39.294
36, 5213.37, 24604.55, 187500.00, 187500.00, -187500.02, -187500.02, -187500.02, -187500.02, 0.014, -0.016, 1.032, 17:06:39.294
37, 4864.21, 24293.91, 187500.00, 187500.00, -187500.02, -187500.02, -187500.02, -187500.02, 0.000, 0.000, 0.000, 17:06:39.294
38, 4413.93, 23852.75, 187500.00, 187500.00, -187500.02, -187500.02, -187500.02, -187500.02, 0.000, 0.000, 0.000, 17:06:39.294
39, 4815.26, 24176.12, 187500.00, 187500.00, -187500.02, -187500.02, -187500.02, -187500.02, 0.000, 0.000, 0.000, 17:06:39.294
40, 5271.03, 24621.88, 187500.00, 187500.00, -187500.02, -187500.02, -187500.02, -187500.02, 0.000, 0.000, 0.000, 17:06:39.294
41, 5197.50, 24573.53, 187500.00, 187500.00, -187500.02, -187500.02, -187500.02, -187500.02, 0.000, 0.000, 0.000, 17:06:39.295
42, 4845.54, 24256.54, 187500.00, 187500.00, -187500.02, -187500.02, -187500.02, -187500.02, 0.000, 0.000, 0.000, 17:06:39.295
43, 4386.26, 23808.76, 187500.00, 187500.00, -187500.02, -187500.02, -187500.02, -187500.02, 0.000, 0.000, 0.000, 17:06:39.295
44, 4781.35, 24131.43, 187500.00, 187500.00, -187500.02, -187500.02, -187500.02, -187500.02, 0.000, 0.000, 0.000, 17:06:39.295
45, 5245.55, 24591.05, 187500.00, 187500.00, -187500.02, -187500.02, -187500.02, -187500.02, 0.000, 0.000, 0.000, 17:06:39.295
46, 5173.58, 24549.55, 187500.00, 187500.00, -187500.02, -187500.02, -187500.02, -187500.02, 0.012, -0.018, 1.032, 17:06:39.295
47, 4831.75, 24245.45, 187500.00, 187500.00, -187500.02, -187500.02, -187500.02, -187500.02, 0.000, 0.000, 0.000, 17:06:39.295
48, 4376.76, 23809.21, 187500.00, 187500.00, -187500.02, -187500.02, -187500.02, -187500.02, 0.000, 0.000, 0.000, 17:06:39.295
49, 4772.05, 24132.98, 187500.00, 187500.00, -187500.02, -187500.02, -187500.02, -187500.02, 0.000, 0.000, 0.000, 17:06:39.296
50, 5238.98, 24593.42, 187500.00, 187500.00, -187500.02, -187500.02, -187500.02, -187500.02, 0.000, 0.000, 0.000, 17:06:39.296
51, 5178.70, 24562.76, 187500.00, 187500.00, -187500.02, -187500.02, -187500.02, -187500.02, 0.000, 0.000, 0.000, 17:06:39.296
52, 4833.77, 24253.05, 187500.00, 187500.00, -187500.02, -187500.02, -187500.02, -187500.02, 0.000, 0.000, 0.000, 17:06:39.296
53, 4397.01, 23830.29, 187500.00, 187500.00, -187500.02, -187500.02, -187500.02, -187500.02, 0.000, 0.000, 0.000, 17:06:39.296
54, 4788.26, 24147.04, 187500.00, 187500.00, -187500.02, -187500.02, -187500.02, -187500.02, 0.000, 0.000, 0.000, 17:06:39.296
55, 5253.06, 24600.87, 187500.00, 187500.00, -187500.02, -187500.02, -187500.02, -187500.02, 0.000, 0.000, 0.000, 17:06:39.296
56, 5189.09, 24564.86, 187500.00, 187500.00, -187500.02, -187500.02, -187500.02, -187500.02, 0.006, -0.014, 1.026, 17:06:39.296
57, 4845.41, 24255.17, 187500.00, 187500.00, -187500.02, -187500.02, -187500.02, -187500.02, 0.000, 0.000, 0.000, 17:06:39.297
58, 4389.68, 23818.22, 187500.00, 187500.00, -187500.02, -187500.02, -187500.02, -187500.02, 0.000, 0.000, 0.000, 17:06:39.297
59, 4779.65, 24138.34, 187500.00, 187500.00, -187500.02, -187500.02, -187500.02, -187500.02, 0.000, 0.000, 0.000, 17:06:39.297
60, 5252.77, 24601.63, 187500.00, 187500.00, -187500.02, -187500.02, -187500.02, -187500.02, 0.000, 0.000, 0.000, 17:06:39.297
61, 5197.81, 24575.72, 187500.00, 187500.00, -187500.02, -187500.02, -187500.02, -187500.02, 0.000, 0.000, 0.000, 17:06:39.297
62, 4855.18, 24268.92, 187500.00, 187500.00, -187500.02, -187500.02, -187500.02, -187500.02, 0.000, 0.000, 0.000, 17:06:39.297
63, 4407.72, 23838.49, 187500.00, 187500.00, -187500.02, -187500.02, -187500.02, -187500.02, 0.000, 0.000, 0.000, 17:06:39.297
64, 4799.17, 24159.24, 187500.00, 187500.00, -187500.02, -187500.02, -187500.02, -187500.02, 0.000, 0.000, 0.000, 17:06:39.297
65, 5258.83, 24610.57, 187500.00, 187500.00, -187500.02, -187500.02, -187500.02, -187500.02, 0.000, 0.000, 0.000, 17:06:39.298
66, 5188.00, 24566.18, 187500.00, 187500.00, -187500.02, -187500.02, -187500.02, -187500.02, 0.006, -0.010, 1.026, 17:06:39.298
67, 4848.88, 24260.78, 187500.00, 187500.00, -187500.02, -187500.02, -187500.02, -187500.02, 0.000, 0.000, 0.000, 17:06:39.299
68, 4393.73, 23820.59, 187500.00, 187500.00, -187500.02, -187500.02, -187500.02, -187500.02, 0.000, 0.000, 0.000, 17:06:39.299
69, 4776.75, 24132.08, 187500.00, 187500.00, -187500.02, -187500.02, -187500.02, -187500.02, 0.000, 0.000, 0.000, 17:06:39.299
70, 5244.81, 24590.05, 187500.00, 187500.00, -187500.02, -187500.02, -187500.02, -187500.02, 0.000, 0.000, 0.000, 17:06:39.299
71, 5181.20, 24553.79, 187500.00, 187500.00, -187500.02, -187500.02, -187500.02, -187500.02, 0.000, 0.000, 0.000, 17:06:39.299
72, 4843.09, 24250.57, 187500.00, 187500.00, -187500.02, -187500.02, -187500.02, -187500.02, 0.000, 0.000, 0.000, 17:06:39.299
73, 4385.95, 23809.77, 187500.00, 187500.00, -187500.02, -187500.02, -187500.02, -187500.02, 0.000, 0.000, 0.000, 17:06:39.300
74, 4764.45, 24114.13, 187500.00, 187500.00, -187500.02, -187500.02, -187500.02, -187500.02, 0.000, 0.000, 0.000, 17:06:39.300
75, 5246.54, 24588.28, 187500.00, 187500.00, -187500.02, -187500.02, -187500.02, -187500.02, 0.000, 0.000, 0.000, 17:06:39.300
76, 5192.15, 24563.36, 187500.00, 187500.00, -187500.02, -187500.02, -187500.02, -187500.02, 0.010, -0.014, 1.030, 17:06:39.300
77, 4855.00, 24262.46, 187500.00, 187500.00, -187500.02, -187500.02, -187500.02, -187500.02, 0.000, 0.000, 0.000, 17:06:39.300
78, 4393.28, 23817.55, 187500.00, 187500.00, -187500.02, -187500.02, -187500.02, -187500.02, 0.000, 0.000, 0.000, 17:06:39.300
79, 4770.58, 24120.28, 187500.00, 187500.00, -187500.02, -187500.02, -187500.02, -187500.02, 0.000, 0.000, 0.000, 17:06:39.301
80, 5252.70, 24590.45, 187500.00, 187500.00, -187500.02, -187500.02, -187500.02, -187500.02, 0.000, 0.000, 0.000, 17:06:39.301
81, 5190.28, 24557.28, 187500.00, 187500.00, -187500.02, -187500.02, -187500.02, -187500.02, 0.000, 0.000, 0.000, 17:06:39.301
82, 4847.51, 24249.38, 187500.00, 187500.00, -187500.02, -187500.02, -187500.02, -187500.02, 0.000, 0.000, 0.000, 17:06:39.301
83, 4386.84, 23806.13, 187500.00, 187500.00, -187500.02, -187500.02, -187500.02, -187500.02, 0.000, 0.000, 0.000, 17:06:39.301
84, 4763.51, 24111.41, 187500.00, 187500.00, -187500.02, -187500.02, -187500.02, -187500.02, 0.000, 0.000, 0.000, 17:06:39.301
85, 5240.97, 24577.93, 187500.00, 187500.00, -187500.02, -187500.02, -187500.02, -187500.02, 0.000, 0.000, 0.000, 17:06:39.302
86, 5187.24, 24553.75, 187500.00, 187500.00, -187500.02, -187500.02, -187500.02, -187500.02, 0.010, -0.004, 1.034, 17:06:39.302
87, 4844.67, 24245.00, 187500.00, 187500.00, -187500.02, -187500.02, -187500.02, -187500.02, 0.000, 0.000, 0.000, 17:06:39.302
88, 4382.46, 23802.08, 187500.00, 187500.00, -187500.02, -187500.02, -187500.02, -187500.02, 0.000, 0.000, 0.000, 17:06:39.302
89, 4759.36, 24106.02, 187500.00, 187500.00, -187500.02, -187500.02, -187500.02, -187500.02, 0.000, 0.000, 0.000, 17:06:39.302
90, 5239.61, 24572.68, 187500.00, 187500.00, -187500.02, -187500.02, -187500.02, -187500.02, 0.000, 0.000, 0.000, 17:06:39.302
91, 5192.58, 24557.41, 187500.00, 187500.00, -187500.02, -187500.02, -187500.02, -187500.02, 0.000, 0.000, 0.000, 17:06:39.303
92, 4865.82, 24266.95, 187500.00, 187500.00, -187500.02, -187500.02, -187500.02, -187500.02, 0.000, 0.000, 0.000, 17:06:39.303
93, 4398.40, 23818.82, 187500.00, 187500.00, -187500.02, -187500.02, -187500.02, -187500.02, 0.000, 0.000, 0.000, 17:06:39.303
94, 4758.10, 24108.23, 187500.00, 187500.00, -187500.02, -187500.02, -187500.02, -187500.02, 0.000, 0.000, 0.000, 17:06:39.303
95, 5247.18, 24585.40, 187500.00, 187500.00, -187500.02, -187500.02, -187500.02, -187500.02, 0.000, 0.000, 0.000, 17:06:39.303
96, 5198.30, 24566.49, 187500.00, 187500.00, -187500.02, -187500.02, -187500.02, -187500.02, 0.008, -0.006, 1.040, 17:06:39.303
97, 4857.28, 24264.63, 187500.00, 187500.00, -187500.02, -187500.02, -187500.02, -187500.02, 0.000, 0.000, 0.000, 17:06:39.303
98, 4385.61, 23811.83, 187500.00, 187500.00, -187500.02, -187500.02, -187500.02, -187500.02, 0.000, 0.000, 0.000, 17:06:39.303
99, 4749.14, 24102.73, 187500.00, 187500.00, -187500.02, -187500.02, -187500.02, -187500.02, 0.000, 0.000, 0.000, 17:06:39.304
100, 5237.57, 24581.71, 187500.00, 187500.00, -187500.02, -187500.02, -187500.02, -187500.02, 0.000, 0.000, 0.000, 17:06:39.304
101, 5188.00, 24561.55, 187500.00, 187500.00, -187500.02, -187500.02, -187500.02, -187500.02, 0.000, 0.000, 0.000, 17:06:39.304
102, 4858.91, 24267.94, 187500.00, 187500.00, -187500.02, -187500.02, -187500.02, -187500.02, 0.000, 0.000, 0.000, 17:06:39.304
103, 4389.48, 23818.38, 187500.00, 187500.00, -187500.02, -187500.02, -187500.02, -187500.02, 0.000, 0.000, 0.000, 17:06:39.304
104, 4745.48, 24101.64, 187500.00, 187500.00, -187500.02, -187500.02, -187500.02, -187500.02, 0.000, 0.000, 0.000, 17:06:39.304
105, 5229.15, 24569.89, 187500.00, 187500.00, -187500.02, -187500.02, -187500.02, -187500.02, 0.000, 0.000, 0.000, 17:06:39.304
106, 5178.81, 24550.11, 187500.00, 187500.00, -187500.02, -187500.02, -187500.02, -187500.02, 0.006, -0.008, 1.036, 17:06:39.304
107, 4852.25, 24259.15, 187500.00, 187500.00, -187500.02, -187500.02, -187500.02, -187500.02, 0.000, 0.000, 0.000, 17:06:39.304
108, 4383.36, 23809.52, 187500.00, 187500.00, -187500.02, -187500.02, -187500.02, -187500.02, 0.000, 0.000, 0.000, 17:06:39.305
109, 4749.50, 24102.31, 187500.00, 187500.00, -187500.02, -187500.02, -187500.02, -187500.02, 0.000, 0.000, 0.000, 17:06:39.305
110, 5232.07, 24570.58, 187500.00, 187500.00, -187500.02, -187500.02, -187500.02, -187500.02, 0.000, 0.000, 0.000, 17:06:39.305
111, 5186.21, 24554.51, 187500.00, 187500.00, -187500.02, -187500.02, -187500.02, -187500.02, 0.000, 0.000, 0.000, 17:06:39.305
112, 4862.02, 24266.24, 187500.00, 187500.00, -187500.02, -187500.02, -187500.02, -187500.02, 0.000, 0.000, 0.000, 17:06:39.305
113, 4389.23, 23818.24, 187500.00, 187500.00, -187500.02, -187500.02, -187500.02, -187500.02, 0.000, 0.000, 0.000, 17:06:39.305
114, 4728.58, 24086.75, 187500.00, 187500.00, -187500.02, -187500.02, -187500.02, -187500.02, 0.000, 0.000, 0.000, 17:06:39.305
115, 5219.04, 24561.73, 187500.00, 187500.00, -187500.02, -187500.02, -187500.02, -187500.02, 0.000, 0.000, 0.000, 17:06:39.305
116, 5174.54, 24549.01, 187500.00, 187500.00, -187500.02, -187500.02, -187500.02, -187500.02, 0.008, -0.016, 1.026, 17:06:39.305
117, 4854.60, 24262.82, 187500.00, 187500.00, -187500.02, -187500.02, -187500.02, -187500.02, 0.000, 0.000, 0.000, 17:06:39.306
118, 4382.51, 23810.26, 187500.00, 187500.00, -187500.02, -187500.02, -187500.02, -187500.02, 0.000, 0.000, 0.000, 17:06:39.306
119, 4731.73, 24088.79, 187500.00, 187500.00, -187500.02, -187500.02, -187500.02, -187500.02, 0.000, 0.000, 0.000, 17:06:39.306
120, 5234.98, 24578.96, 187500.00, 187500.00, -187500.02, -187500.02, -187500.02, -187500.02, 0.000, 0.000, 0.000, 17:06:39.769
121, 5186.68, 24563.98, 187500.00, 187500.00, -187500.02, -187500.02, -187500.02, -187500.02, 0.000, 0.000, 0.000, 17:06:39.769
122, 4859.67, 24273.41, 187500.00, 187500.00, -187500.02, -187500.02, -187500.02, -187500.02, 0.000, 0.000, 0.000, 17:06:39.769
123, 4375.94, 23811.69, 187500.00, 187500.00, -187500.02, -187500.02, -187500.02, -187500.02, 0.000, 0.000, 0.000, 17:06:39.770
124, 4711.28, 24073.74, 187500.00, 187500.00, -187500.02, -187500.02, -187500.02, -187500.02, 0.000, 0.000, 0.000, 17:06:39.770
125, 5203.22, 24548.67, 187500.00, 187500.00, -187500.02, -187500.02, -187500.02, -187500.02, 0.000, 0.000, 0.000, 17:06:39.770
126, 5162.74, 24538.79, 187500.00, 187500.00, -187500.02, -187500.02, -187500.02, -187500.02, 0.012, -0.016, 1.022, 17:06:39.770
127, 4843.71, 24252.89, 187500.00, 187500.00, -187500.02, -187500.02, -187500.02, -187500.02, 0.000, 0.000, 0.000, 17:06:39.770
128, 4367.93, 23797.92, 187500.00, 187500.00, -187500.02, -187500.02, -187500.02, -187500.02, 0.000, 0.000, 0.000, 17:06:39.770
129, 4718.88, 24077.90, 187500.00, 187500.00, -187500.02, -187500.02, -187500.02, -187500.02, 0.000, 0.000, 0.000, 17:06:39.770
130, 5213.97, 24557.14, 187500.00, 187500.00, -187500.02, -187500.02, -187500.02, -187500.02, 0.000, 0.000, 0.000, 17:06:39.770
131, 5167.25, 24539.40, 187500.00, 187500.00, -187500.02, -187500.02, -187500.02, -187500.02, 0.000, 0.000, 0.000, 17:06:39.771
132, 4846.48, 24250.93, 187500.00, 187500.00, -187500.02, -187500.02, -187500.02, -187500.02, 0.000, 0.000, 0.000, 17:06:39.771
133, 4367.11, 23792.31, 187500.00, 187500.00, -187500.02, -187500.02, -187500.02, -187500.02, 0.000, 0.000, 0.000, 17:06:39.771
134, 4713.71, 24069.03, 187500.00, 187500.00, -187500.02, -187500.02, -187500.02, -187500.02, 0.000, 0.000, 0.000, 17:06:39.771
135, 5227.04, 24570.22, 187500.00, 187500.00, -187500.02, -187500.02, -187500.02, -187500.02, 0.000, 0.000, 0.000, 17:06:39.771
136, 5187.86, 24562.11, 187500.00, 187500.00, -187500.02, -187500.02, -187500.02, -187500.02, 0.008, -0.014, 1.024, 17:06:39.771
137, 4865.15, 24274.84, 187500.00, 187500.00, -187500.02, -187500.02, -187500.02, -187500.02, 0.000, 0.000, 0.000, 17:06:39.771
138, 4379.18, 23811.92, 187500.00, 187500.00, -187500.02, -187500.02, -187500.02, -187500.02, 0.000, 0.000, 0.000, 17:06:39.771
139, 4704.26, 24067.22, 187500.00, 187500.00, -187500.02, -187500.02, -187500.02, -187500.02, 0.000, 0.000, 0.000, 17:06:39.771
140, 5218.26, 24564.72, 187500.00, 187500.00, -187500.02, -187500.02, -187500.02, -187500.02, 0.000, 0.000, 0.000, 17:06:39.772
141, 5185.25, 24561.55, 187500.00, 187500.00, -187500.02, -187500.02, -187500.02, -187500.02, 0.000, 0.000, 0.000, 17:06:39.772
142, 4866.49, 24277.97, 187500.00, 187500.00, -187500.02, -187500.02, -187500.02, -187500.02, 0.000, 0.000, 0.000, 17:06:39.772
143, 4381.46, 23814.84, 187500.00, 187500.00, -187500.02, -187500.02, -187500.02, -187500.02, 0.000, 0.000, 0.000, 17:06:39.772
144, 4711.77, 24075.02, 187500.00, 187500.00, -187500.02, -187500.02, -187500.02, -187500.02, 0.000, 0.000, 0.000, 17:06:39.772
145, 5219.56, 24563.36, 187500.00, 187500.00, -187500.02, -187500.02, -187500.02, -187500.02, 0.012, -0.010, 1.022, 17:06:39.772
146, 5178.45, 24552.38, 187500.00, 187500.00, -187500.02, -187500.02, -187500.02, -187500.02, 0.000, 0.000, 0.000, 17:06:39.772
147, 4860.48, 24268.49, 187500.00, 187500.00, -187500.02, -187500.02, -187500.02, -187500.02, 0.000, 0.000, 0.000, 17:06:39.772
148, 4376.94, 23803.67, 187500.00, 187500.00, -187500.02, -187500.02, -187500.02, -187500.02, 0.000, 0.000, 0.000, 17:06:39.772
149, 4706.18, 24062.19, 187500.00, 187500.00, -187500.02, -187500.02, -187500.02, -187500.02, 0.000, 0.000, 0.000, 17:06:39.773
150, 5211.51, 24549.59, 187500.00, 187500.00, -187500.02, -187500.02, -187500.02, -187500.02, 0.000, 0.000, 0.000, 17:06:39.773
151, 5177.85, 24545.08, 187500.00, 187500.00, -187500.02, -187500.02, -187500.02, -187500.02, 0.000, 0.000, 0.000, 17:06:39.773
152, 4866.49, 24269.48, 187500.00, 187500.00, -187500.02, -187500.02, -187500.02, -187500.02, 0.000, 0.000, 0.000, 17:06:39.773
153, 4378.82, 23807.36, 187500.00, 187500.00, -187500.02, -187500.02, -187500.02, -187500.02, 0.000, 0.000, 0.000, 17:06:39.773
154, 4705.20, 24065.07, 187500.00, 187500.00, -187500.02, -187500.02, -187500.02, -187500.02, 0.000, 0.000, 0.000, 17:06:39.773
155, 5212.90, 24552.00, 187500.00, 187500.00, -187500.02, -187500.02, -187500.02, -187500.02, 0.016, -0.012, 1.026, 17:06:39.773
156, 5183.66, 24550.66, 187500.00, 187500.00, -187500.02, -187500.02, -187500.02, -187500.02, 0.000, 0.000, 0.000, 17:06:39.773
157, 4863.76, 24265.54, 187500.00, 187500.00, -187500.02, -187500.02, -187500.02, -187500.02, 0.000, 0.000, 0.000, 17:06:39.774
158, 4367.28, 23793.95, 187500.00, 187500.00, -187500.02, -187500.02, -187500.02, -187500.02, 0.000, 0.000, 0.000, 17:06:39.774
159, 4679.81, 24036.69, 187500.00, 187500.00, -187500.02, -187500.02, -187500.02, -187500.02, 0.000, 0.000, 0.000, 17:06:39.774
160, 5204.22, 24542.73, 187500.00, 187500.00, -187500.02, -187500.02, -187500.02, -187500.02, 0.000, 0.000, 0.000, 17:06:39.774
161, 5170.90, 24539.06, 187500.00, 187500.00, -187500.02, -187500.02, -187500.02, -187500.02, 0.000, 0.000, 0.000, 17:06:39.774
162, 4854.89, 24256.65, 187500.00, 187500.00, -187500.02, -187500.02, -187500.02, -187500.02, 0.000, 0.000, 0.000, 17:06:39.774
163, 4367.28, 23792.27, 187500.00, 187500.00, -187500.02, -187500.02, -187500.02, -187500.02, 0.000, 0.000, 0.000, 17:06:39.774
164, 4671.83, 24027.97, 187500.00, 187500.00, -187500.02, -187500.02, -187500.02, -187500.02, 0.000, 0.000, 0.000, 17:06:39.774
165, 5184.38, 24525.47, 187500.00, 187500.00, -187500.02, -187500.02, -187500.02, -187500.02, 0.010, -0.014, 1.032, 17:06:39.774
166, 5162.27, 24533.52, 187500.00, 187500.00, -187500.02, -187500.02, -187500.02, -187500.02, 0.000, 0.000, 0.000, 17:06:39.775
167, 4854.89, 24256.34, 187500.00, 187500.00, -187500.02, -187500.02, -187500.02, -187500.02, 0.000, 0.000, 0.000, 17:06:39.775
168, 4366.95, 23789.92, 187500.00, 187500.00, -187500.02, -187500.02, -187500.02, -187500.02, 0.000, 0.000, 0.000, 17:06:39.775
169, 4670.93, 24025.69, 187500.00, 187500.00, -187500.02, -187500.02, -187500.02, -187500.02, 0.000, 0.000, 0.000, 17:06:39.775
170, 5186.01, 24521.45, 187500.00, 187500.00, -187500.02, -187500.02, -187500.02, -187500.02, 0.000, 0.000, 0.000, 17:06:39.775
171, 5146.29, 24510.47, 187500.00, 187500.00, -187500.02, -187500.02, -187500.02, -187500.02, 0.000, 0.000, 0.000, 17:06:39.775
172, 4834.37, 24233.45, 187500.00, 187500.00, -187500.02, -187500.02, -187500.02, -187500.02, 0.000, 0.000, 0.000, 17:06:39.775
173, 4359.33, 23784.54, 187500.00, 187500.00, -187500.02, -187500.02, -187500.02, -187500.02, 0.000, 0.000, 0.000, 17:06:39.775
174, 4669.32, 24025.06, 187500.00, 187500.00, -187500.02, -187500.02, -187500.02, -187500.02, 0.000, 0.000, 0.000, 17:06:39.776
175, 5185.11, 24517.49, 187500.00, 187500.00, -187500.02, -187500.02, -187500.02, -187500.02, 0.006, -0.012, 1.026, 17:06:39.776
176, 5156.97, 24515.30, 187500.00, 187500.00, -187500.02, -187500.02, -187500.02, -187500.02, 0.000, 0.000, 0.000, 17:06:39.776
177, 4857.21, 24247.46, 187500.00, 187500.00, -187500.02, -187500.02, -187500.02, -187500.02, 0.000, 0.000, 0.000, 17:06:39.776
178, 4365.23, 23782.12, 187500.00, 187500.00, -187500.02, -187500.02, -187500.02, -187500.02, 0.000, 0.000, 0.000, 17:06:39.776
179, 4657.46, 24007.00, 187500.00, 187500.00, -187500.02, -187500.02, -187500.02, -187500.02, 0.000, 0.000, 0.000, 17:06:39.776
180, 5173.80, 24505.45, 187500.00, 187500.00, -187500.02, -187500.02, -187500.02, -187500.02, 0.000, 0.000, 0.000, 17:06:39.776
181, 5150.85, 24513.98, 187500.00, 187500.00, -187500.02, -187500.02, -187500.02, -187500.02, 0.000, 0.000, 0.000, 17:06:39.776
182, 4856.88, 24255.98, 187500.00, 187500.00, -187500.02, -187500.02, -187500.02, -187500.02, 0.000, 0.000, 0.000, 17:06:39.776
183, 4354.75, 23781.67, 187500.00, 187500.00, -187500.02, -187500.02, -187500.02, -187500.02, 0.000, 0.000, 0.000, 17:06:39.777
184, 4653.83, 24011.52, 187500.00, 187500.00, -187500.02, -187500.02, -187500.02, -187500.02, 0.000, 0.000, 0.000, 17:06:39.777
185, 5184.33, 24518.72, 187500.00, 187500.00, -187500.02, -187500.02, -187500.02, -187500.02, 0.010, -0.016, 1.022, 17:06:39.777
186, 5167.68, 24530.90, 187500.00, 187500.00, -187500.02, -187500.02, -187500.02, -187500.02, 0.000, 0.000, 0.000, 17:06:39.777
187, 4864.37, 24261.92, 187500.00, 187500.00, -187500.02, -187500.02, -187500.02, -187500.02, 0.000, 0.000, 0.000, 17:06:39.777
188, 4373.25, 23797.48, 187500.00, 187500.00, -187500.02, -187500.02, -187500.02, -187500.02, 0.000, 0.000, 0.000, 17:06:39.777
189, 4664.00, 24021.33, 187500.00, 187500.00, -187500.02, -187500.02, -187500.02, -187500.02, 0.000, 0.000, 0.000, 17:06:39.777
190, 5188.15, 24525.70, 187500.00, 187500.00, -187500.02, -187500.02, -187500.02, -187500.02, 0.000, 0.000, 0.000, 17:06:39.777
191, 5172.66, 24541.01, 187500.00, 187500.00, -187500.02, -187500.02, -187500.02, -187500.02, 0.000, 0.000, 0.000, 17:06:39.777
192, 4873.91, 24274.37, 187500.00, 187500.00, -187500.02, -187500.02, -187500.02, -187500.02, 0.000, 0.000, 0.000, 17:06:39.778
193, 4378.62, 23805.23, 187500.00, 187500.00, -187500.02, -187500.02, -187500.02, -187500.02, 0.000, 0.000, 0.000, 17:06:39.778
194, 4668.47, 24026.43, 187500.00, 187500.00, -187500.02, -187500.02, -187500.02, -187500.02, 0.000, 0.000, 0.000, 17:06:39.778
195, 5189.65, 24525.88, 187500.00, 187500.00, -187500.02, -187500.02, -187500.02, -187500.02, 0.012, -0.012, 1.026, 17:06:39.778
196, 5170.07, 24535.02, 187500.00, 187500.00, -187500.02, -187500.02, -187500.02, -187500.02, 0.000, 0.000, 0.000, 17:06:39.778
197, 4874.54, 24269.14, 187500.00, 187500.00, -187500.02, -187500.02, -187500.02, -187500.02, 0.000, 0.000, 0.000, 17:06:39.778
198, 4381.10, 23799.89, 187500.00, 187500.00, -187500.02, -187500.02, -187500.02, -187500.02, 0.000, 0.000, 0.000, 17:06:39.778
199, 4661.25, 24011.34, 187500.00, 187500.00, -187500.02, -187500.02, -187500.02, -187500.02, 0.000, 0.000, 0.000, 17:06:39.778
200, 5196.87, 24526.21, 187500.00, 187500.00, -187500.02, -187500.02, -187500.02, -187500.02, 0.000, 0.000, 0.000, 17:06:39.779
201, 5188.78, 24549.35, 187500.00, 187500.00, -187500.02, -187500.02, -187500.02, -187500.02, 0.000, 0.000, 0.000, 17:06:39.779
202, 4887.63, 24279.94, 187500.00, 187500.00, -187500.02, -187500.02, -187500.02, -187500.02, 0.000, 0.000, 0.000, 17:06:39.779
203, 4378.06, 23794.50, 187500.00, 187500.00, -187500.02, -187500.02, -187500.02, -187500.02, 0.000, 0.000, 0.000, 17:06:39.779
204, 4659.47, 24007.96, 187500.00, 187500.00, -187500.02, -187500.02, -187500.02, -187500.02, 0.000, 0.000, 0.000, 17:06:39.779
205, 5185.92, 24512.51, 187500.00, 187500.00, -187500.02, -187500.02, -187500.02, -187500.02, 0.008, -0.016, 1.024, 17:06:39.779
206, 5170.38, 24528.38, 187500.00, 187500.00, -187500.02, -187500.02, -187500.02, -187500.02, 0.000, 0.000, 0.000, 17:06:39.779
207, 4876.64, 24271.27, 187500.00, 187500.00, -187500.02, -187500.02, -187500.02, -187500.02, 0.000, 0.000, 0.000, 17:06:39.779
208, 4380.11, 23800.14, 187500.00, 187500.00, -187500.02, -187500.02, -187500.02, -187500.02, 0.000, 0.000, 0.000, 17:06:39.780
209, 4654.53, 24006.35, 187500.00, 187500.00, -187500.02, -187500.02, -187500.02, -187500.02, 0.000, 0.000, 0.000, 17:06:39.780
210, 5184.84, 24513.36, 187500.00, 187500.00, -187500.02, -187500.02, -187500.02, -187500.02, 0.000, 0.000, 0.000, 17:06:39.780
211, 5169.00, 24531.22, 187500.00, 187500.00, -187500.02, -187500.02, -187500.02, -187500.02, 0.000, 0.000, 0.000, 17:06:39.780
212, 4864.43, 24261.19, 187500.00, 187500.00, -187500.02, -187500.02, -187500.02, -187500.02, 0.000, 0.000, 0.000, 17:06:39.780
213, 4362.66, 23785.12, 187500.00, 187500.00, -187500.02, -187500.02, -187500.02, -187500.02, 0.000, 0.000, 0.000, 17:06:39.780
214, 4641.85, 23995.56, 187500.00, 187500.00, -187500.02, -187500.02, -187500.02, -187500.02, 0.000, 0.000, 0.000, 17:06:39.780
215, 5185.78, 24515.53, 187500.00, 187500.00, -187500.02, -187500.02, -187500.02, -187500.02, 0.006, -0.018, 1.024, 17:06:39.781
216, 5178.94, 24538.37, 187500.00, 187500.00, -187500.02, -187500.02, -187500.02, -187500.02, 0.000, 0.000, 0.000, 17:06:39.781
217, 4887.95, 24278.13, 187500.00, 187500.00, -187500.02, -187500.02, -187500.02, -187500.02, 0.000, 0.000, 0.000, 17:06:39.781
218, 4391.38, 23807.74, 187500.00, 187500.00, -187500.02, -187500.02, -187500.02, -187500.02, 0.000, 0.000, 0.000, 17:06:39.781
219, 4649.50, 23997.17, 187500.00, 187500.00, -187500.02, -187500.02, -187500.02, -187500.02, 0.000, 0.000, 0.000, 17:06:39.781
220, 5179.99, 24504.17, 187500.00, 187500.00, -187500.02, -187500.02, -187500.02, -187500.02, 0.000, 0.000, 0.000, 17:06:39.781
221, 5171.10, 24527.13, 187500.00, 187500.00, -187500.02, -187500.02, -187500.02, -187500.02, 0.000, 0.000, 0.000, 17:06:39.781
222, 4879.97, 24270.60, 187500.00, 187500.00, -187500.02, -187500.02, -187500.02, -187500.02, 0.000, 0.000, 0.000, 17:06:39.781
223, 4381.97, 23800.45, 187500.00, 187500.00, -187500.02, -187500.02, -187500.02, -187500.02, 0.000, 0.000, 0.000, 17:06:39.781
224, 4645.34, 23996.88, 187500.00, 187500.00, -187500.02, -187500.02, -187500.02, -187500.02, 0.000, 0.000, 0.000, 17:06:39.782
225, 5187.46, 24513.89, 187500.00, 187500.00, -187500.02, -187500.02, -187500.02, -187500.02, 0.012, -0.018, 1.028, 17:06:39.782
226, 5185.29, 24542.84, 187500.00, 187500.00, -187500.02, -187500.02, -187500.02, -187500.02, 0.000, 0.000, 0.000, 17:06:39.782
227, 4893.09, 24282.80, 187500.00, 187500.00, -187500.02, -187500.02, -187500.02, -187500.02, 0.000, 0.000, 0.000, 17:06:39.782
228, 4385.05, 23801.50, 187500.00, 187500.00, -187500.02, -187500.02, -187500.02, -187500.02, 0.000, 0.000, 0.000, 17:06:39.782
229, 4640.24, 23991.42, 187500.00, 187500.00, -187500.02, -187500.02, -187500.02, -187500.02, 0.000, 0.000, 0.000, 17:06:39.782
230, 5174.50, 24504.89, 187500.00, 187500.00, -187500.02, -187500.02, -187500.02, -187500.02, 0.000, 0.000, 0.000, 17:06:39.782
231, 5164.91, 24529.25, 187500.00, 187500.00, -187500.02, -187500.02, -187500.02, -187500.02, 0.000, 0.000, 0.000, 17:06:39.783
232, 4877.35, 24273.66, 187500.00, 187500.00, -187500.02, -187500.02, -187500.02, -187500.02, 0.000, 0.000, 0.000, 17:06:39.783
233, 4390.58, 23812.01, 187500.00, 187500.00, -187500.02, -187500.02, -187500.02, -187500.02, 0.000, 0.000, 0.000, 17:06:39.783
234, 4629.49, 23982.59, 187500.00, 187500.00, -187500.02, -187500.02, -187500.02, -187500.02, 0.000, 0.000, 0.000, 17:06:39.783
235, 5163.01, 24490.31, 187500.00, 187500.00, -187500.02, -187500.02, -187500.02, -187500.02, 0.008, -0.020, 1.030, 17:06:39.783
236, 5166.83, 24525.54, 187500.00, 187500.00, -187500.02, -187500.02, -187500.02, -187500.02, 0.000, 0.000, 0.000, 17:06:39.783
237, 4882.25, 24273.61, 187500.00, 187500.00, -187500.02, -187500.02, -187500.02, -187500.02, 0.000, 0.000, 0.000, 17:06:39.784
238, 4383.53, 23805.70, 187500.00, 187500.00, -187500.02, -187500.02, -187500.02, -187500.02, 0.000, 0.000, 0.000, 17:06:39.784
239, 4638.12, 23993.61, 187500.00, 187500.00, -187500.02, -187500.02, -187500.02, -187500.02, 0.000, 0.000, 0.000, 17:06:39.784
240, 5179.79, 24508.64, 187500.00, 187500.00, -187500.02, -187500.02, -187500.02, -187500.02, 0.000, 0.000, 0.000, 17:06:40.250
241, 5176.75, 24537.92, 187500.00, 187500.00, -187500.02, -187500.02, -187500.02, -187500.02, 0.000, 0.000, 0.000, 17:06:40.250
242, 4891.63, 24287.05, 187500.00, 187500.00, -187500.02, -187500.02, -187500.02, -187500.02, 0.000, 0.000, 0.000, 17:06:40.250
243, 4375.17, 23799.58, 187500.00, 187500.00, -187500.02, -187500.02, -187500.02, -187500.02, 0.000, 0.000, 0.000, 17:06:40.250
244, 4626.10, 23982.08, 187500.00, 187500.00, -187500.02, -187500.02, -187500.02, -187500.02, 0.000, 0.000, 0.000, 17:06:40.250
245, 5171.55, 24500.82, 187500.00, 187500.00, -187500.02, -187500.02, -187500.02, -187500.02, 0.010, -0.018, 1.030, 17:06:40.251
246, 5177.31, 24536.13, 187500.00, 187500.00, -187500.02, -187500.02, -187500.02, -187500.02, 0.000, 0.000, 0.000, 17:06:40.251
247, 4895.79, 24287.11, 187500.00, 187500.00, -187500.02, -187500.02, -187500.02, -187500.02, 0.000, 0.000, 0.000, 17:06:40.251
248, 4389.70, 23809.35, 187500.00, 187500.00, -187500.02, -187500.02, -187500.02, -187500.02, 0.000, 0.000, 0.000, 17:06:40.251
249, 4624.71, 23976.87, 187500.00, 187500.00, -187500.02, -187500.02, -187500.02, -187500.02, 0.000, 0.000, 0.000, 17:06:40.251
250, 5180.31, 24505.87, 187500.00, 187500.00, -187500.02, -187500.02, -187500.02, -187500.02, 0.000, 0.000, 0.000, 17:06:40.251
251, 5178.41, 24535.53, 187500.00, 187500.00, -187500.02, -187500.02, -187500.02, -187500.02, 0.000, 0.000, 0.000, 17:06:40.251
252, 4887.63, 24277.93, 187500.00, 187500.00, -187500.02, -187500.02, -187500.02, -187500.02, 0.000, 0.000, 0.000, 17:06:40.251
253, 4377.86, 23800.43, 187500.00, 187500.00, -187500.02, -187500.02, -187500.02, -187500.02, 0.000, 0.000, 0.000, 17:06:40.252
254, 4621.87, 23977.36, 187500.00, 187500.00, -187500.02, -187500.02, -187500.02, -187500.02, 0.000, 0.000, 0.000, 17:06:40.252
255, 5176.75, 24502.76, 187500.00, 187500.00, -187500.02, -187500.02, -187500.02, -187500.02, 0.010, -0.020, 1.036, 17:06:40.252
0, 5186.57, 24540.85, 187500.00, 187500.00, -187500.02, -187500.02, -187500.02, -187500.02, 0.000, 0.000, 0.000, 17:06:40.252
1, 4903.75, 24290.82, 187500.00, 187500.00, -187500.02, -187500.02, -187500.02, -187500.02, 0.000, 0.000, 0.000, 17:06:40.252
2, 4399.47, 23815.38, 187500.00, 187500.00, -187500.02, -187500.02, -187500.02, -187500.02, 0.000, 0.000, 0.000, 17:06:40.252
3, 4628.46, 23977.52, 187500.00, 187500.00, -187500.02, -187500.02, -187500.02, -187500.02, 0.000, 0.000, 0.000, 17:06:40.252
4, 5184.80, 24507.10, 187500.00, 187500.00, -187500.02, -187500.02, -187500.02, -187500.02, 0.000, 0.000, 0.000, 17:06:40.252
5, 5196.02, 24548.56, 187500.00, 187500.00, -187500.02, -187500.02, -187500.02, -187500.02, 0.000, 0.000, 0.000, 17:06:40.252
6, 4917.20, 24301.80, 187500.00, 187500.00, -187500.02, -187500.02, -187500.02, -187500.02, 0.000, 0.000, 0.000, 17:06:40.253
7, 4411.41, 23825.57, 187500.00, 187500.00, -187500.02, -187500.02, -187500.02, -187500.02, 0.000, 0.000, 0.000, 17:06:40.253
8, 4628.89, 23980.16, 187500.00, 187500.00, -187500.02, -187500.02, -187500.02, -187500.02, 0.010, -0.020, 1.034, 17:06:40.253
9, 5188.09, 24512.82, 187500.00, 187500.00, -187500.02, -187500.02, -187500.02, -187500.02, 0.000, 0.000, 0.000, 17:06:40.253
10, 5197.29, 24551.92, 187500.00, 187500.00, -187500.02, -187500.02, -187500.02, -187500.02, 0.000, 0.000, 0.000, 17:06:40.253
11, 4915.89, 24300.21, 187500.00, 187500.00, -187500.02, -187500.02, -187500.02, -187500.02, 0.000, 0.000, 0.000, 17:06:40.253
12, 4405.82, 23823.14, 187500.00, 187500.00, -187500.02, -187500.02, -187500.02, -187500.02, 0.000, 0.000, 0.000, 17:06:40.253
13, 4624.37, 23977.47, 187500.00, 187500.00, -187500.02, -187500.02, -187500.02, -187500.02, 0.000, 0.000, 0.000, 17:06:40.253
14, 5176.91, 24501.45, 187500.00, 187500.00, -187500.02, -187500.02, -187500.02, -187500.02, 0.000, 0.000, 0.000, 17:06:40.254
15, 5190.30, 24543.15, 187500.00, 187500.00, -187500.02, -187500.02, -187500.02, -187500.02, 0.000, 0.000, 0.000, 17:06:40.254
16, 4919.35, 24304.06, 187500.00, 187500.00, -187500.02, -187500.02, -187500.02, -187500.02, 0.000, 0.000, 0.000, 17:06:40.254
17, 4411.70, 23826.85, 187500.00, 187500.00, -187500.02, -187500.02, -187500.02, -187500.02, 0.000, 0.000, 0.000, 17:06:40.254
18, 4616.80, 23967.75, 187500.00, 187500.00, -187500.02, -187500.02, -187500.02, -187500.02, 0.012, -0.014, 1.034, 17:06:40.254
19, 5178.45, 24502.03, 187500.00, 187500.00, -187500.02, -187500.02, -187500.02, -187500.02, 0.000, 0.000, 0.000, 17:06:40.254
20, 5193.83, 24547.67, 187500.00, 187500.00, -187500.02, -187500.02, -187500.02, -187500.02, 0.000, 0.000, 0.000, 17:06:40.254
21, 4917.94, 24303.97, 187500.00, 187500.00, -187500.02, -187500.02, -187500.02, -187500.02, 0.000, 0.000, 0.000, 17:06:40.254
22, 4405.15, 23821.57, 187500.00, 187500.00, -187500.02, -187500.02, -187500.02, -187500.02, 0.000, 0.000, 0.000, 17:06:40.255
23, 4618.56, 23972.04, 187500.00, 187500.00, -187500.02, -187500.02, -187500.02, -187500.02, 0.000, 0.000, 0.000, 17:06:40.255
24, 5180.82, 24507.53, 187500.00, 187500.00, -187500.02, -187500.02, -187500.02, -187500.02, 0.000, 0.000, 0.000, 17:06:40.255
25, 5193.63, 24549.55, 187500.00, 187500.00, -187500.02, -187500.02, -187500.02, -187500.02, 0.000, 0.000, 0.000, 17:06:40.255
26, 4919.78, 24304.32, 187500.00, 187500.00, -187500.02, -187500.02, -187500.02, -187500.02, 0.000, 0.000, 0.000, 17:06:40.255
27, 4408.68, 23822.11, 187500.00, 187500.00, -187500.02, -187500.02, -187500.02, -187500.02, 0.000, 0.000, 0.000, 17:06:40.255
28, 4612.64, 23961.76, 187500.00, 187500.00, -187500.02, -187500.02, -187500.02, -187500.02, 0.012, -0.012, 1.024, 17:06:40.255
29, 5179.41, 24498.49, 187500.00, 187500.00, -187500.02, -187500.02, -187500.02, -187500.02, 0.000, 0.000, 0.000, 17:06:40.255
30, 5195.95, 24547.22, 187500.00, 187500.00, -187500.02, -187500.02, -187500.02, -187500.02, 0.000, 0.000, 0.000, 17:06:40.255
31, 4918.34, 24305.04, 187500.00, 187500.00, -187500.02, -187500.02, -187500.02, -187500.02, 0.000, 0.000, 0.000, 17:06:40.256
32, 4408.57, 23827.21, 187500.00, 187500.00, -187500.02, -187500.02, -187500.02, -187500.02, 0.000, 0.000, 0.000, 17:06:40.256
33, 4609.96, 23963.15, 187500.00, 187500.00, -187500.02, -187500.02, -187500.02, -187500.02, 0.000, 0.000, 0.000, 17:06:40.256
34, 5170.83, 24493.40, 187500.00, 187500.00, -187500.02, -187500.02, -187500.02, -187500.02, 0.000, 0.000, 0.000, 17:06:40.256
35, 5193.54, 24544.99, 187500.00, 187500.00, -187500.02, -187500.02, -187500.02, -187500.02, 0.000, 0.000, 0.000, 17:06:40.256
36, 4916.47, 24297.96, 187500.00, 187500.00, -187500.02, -187500.02, -187500.02, -187500.02, 0.000, 0.000, 0.000, 17:06:40.256
37, 4401.68, 23813.71, 187500.00, 187500.00, -187500.02, -187500.02, -187500.02, -187500.02, 0.000, 0.000, 0.000, 17:06:40.256
38, 4599.85, 23947.70, 187500.00, 187500.00, -187500.02, -187500.02, -187500.02, -187500.02, 0.010, -0.016, 1.028, 17:06:40.256
39, 5172.42, 24491.01, 187500.00, 187500.00, -187500.02, -187500.02, -187500.02, -187500.02, 0.000, 0.000, 0.000, 17:06:40.257
40, 5189.94, 24537.19, 187500.00, 187500.00, -187500.02, -187500.02, -187500.02, -187500.02, 0.000, 0.000, 0.000, 17:06:40.257
41, 4906.23, 24286.58, 187500.00, 187500.00, -187500.02, -187500.02, -187500.02, -187500.02, 0.000, 0.000, 0.000, 17:06:40.257
42, 4386.40, 23803.58, 187500.00, 187500.00, -187500.02, -187500.02, -187500.02, -187500.02, 0.000, 0.000, 0.000, 17:06:40.257
43, 4563.20, 23914.09, 187500.00, 187500.00, -187500.02, -187500.02, -187500.02, -187500.02, 0.000, 0.000, 0.000, 17:06:40.257
44, 5111.42, 24428.80, 187500.00, 187500.00, -187500.02, -187500.02, -187500.02, -187500.02, 0.000, 0.000, 0.000, 17:06:40.257
45, 5120.05, 24467.74, 187500.00, 187500.00, -187500.02, -187500.02, -187500.02, -187500.02, 0.000, 0.000, 0.000, 17:06:40.257
46, 4838.68, 24216.86, 187500.00, 187500.00, -187500.02, -187500.02, -187500.02, -187500.02, 0.000, 0.000, 0.000, 17:06:40.257
47, 4304.39, 23713.72, 187500.00, 187500.00, -187500.02, -187500.02, -187500.02, -187500.02, 0.000, 0.000, 0.000, 17:06:40.257
48, 4480.81, 23826.62, 187500.00, 187500.00, -187500.02, -187500.02, -187500.02, -187500.02, 0.012, -0.016, 1.022, 17:06:40.258
49, 5031.91, 24346.77, 187500.00, 187500.00, -187500.02, -187500.02, -187500.02, -187500.02, 0.000, 0.000, 0.000, 17:06:40.258
50, 5039.74, 24386.29, 187500.00, 187500.00, -187500.02, -187500.02, -187500.02, -187500.02, 0.000, 0.000, 0.000, 17:06:40.258
51, 4760.99, 24139.62, 187500.00, 187500.00, -187500.02, -187500.02, -187500.02, -187500.02, 0.000, 0.000, 0.000, 17:06:40.258
52, 4231.19, 23643.92, 187500.00, 187500.00, -187500.02, -187500.02, -187500.02, -187500.02, 0.000, 0.000, 0.000, 17:06:40.258
53, 4410.18, 23759.59, 187500.00, 187500.00, -187500.02, -187500.02, -187500.02, -187500.02, 0.000, 0.000, 0.000, 17:06:40.258
54, 4978.92, 24297.71, 187500.00, 187500.00, -187500.02, -187500.02, -187500.02, -187500.02, 0.000, 0.000, 0.000, 17:06:40.258
55, 5007.30, 24355.60, 187500.00, 187500.00, -187500.02, -187500.02, -187500.02, -187500.02, 0.000, 0.000, 0.000, 17:06:40.258
56, 4727.71, 24106.06, 187500.00, 187500.00, -187500.02, -187500.02, -187500.02, -187500.02, 0.000, 0.000, 0.000, 17:06:40.258
57, 4207.89, 23619.51, 187500.00, 187500.00, -187500.02, -187500.02, -187500.02, -187500.02, 0.000, 0.000, 0.000, 17:06:40.259
58, 4389.75, 23738.09, 187500.00, 187500.00, -187500.02, -187500.02, -187500.02, -187500.02, 0.012, -0.014, 1.032, 17:06:40.259
59, 4958.20, 24280.01, 187500.00, 187500.00, -187500.02, -187500.02, -187500.02, -187500.02, 0.000, 0.000, 0.000, 17:06:40.259
60, 4989.29, 24341.81, 187500.00, 187500.00, -187500.02, -187500.02, -187500.02, -187500.02, 0.000, 0.000, 0.000, 17:06:40.259
61, 4731.73, 24117.46, 187500.00, 187500.00, -187500.02, -187500.02, -187500.02, -187500.02, 0.000, 0.000, 0.000, 17:06:40.259
62, 4217.64, 23640.17, 187500.00, 187500.00, -187500.02, -187500.02, -187500.02, -187500.02, 0.000, 0.000, 0.000, 17:06:40.259
63, 4403.20, 23760.93, 187500.00, 187500.00, -187500.02, -187500.02, -187500.02, -187500.02, 0.000, 0.000, 0.000, 17:06:40.259
64, 4983.34, 24306.18, 187500.00, 187500.00, -187500.02, -187500.02, -187500.02, -187500.02, 0.000, 0.000, 0.000, 17:06:40.259
65, 5010.43, 24364.09, 187500.00, 187500.00, -187500.02, -187500.02, -187500.02, -187500.02, 0.000, 0.000, 0.000, 17:06:40.260
66, 4744.40, 24129.62, 187500.00, 187500.00, -187500.02, -187500.02, -187500.02, -187500.02, 0.000, 0.000, 0.000, 17:06:40.260
67, 4233.38, 23652.86, 187500.00, 187500.00, -187500.02, -187500.02, -187500.02, -187500.02, 0.000, 0.000, 0.000, 17:06:40.260
68, 4411.07, 23768.80, 187500.00, 187500.00, -187500.02, -187500.02, -187500.02, -187500.02, 0.008, -0.016, 1.030, 17:06:40.260
69, 4978.52, 24302.89, 187500.00, 187500.00, -187500.02, -187500.02, -187500.02, -187500.02, 0.000, 0.000, 0.000, 17:06:40.260
70, 5018.26, 24372.99, 187500.00, 187500.00, -187500.02, -187500.02, -187500.02, -187500.02, 0.000, 0.000, 0.000, 17:06:40.260
71, 4760.88, 24146.01, 187500.00, 187500.00, -187500.02, -187500.02, -187500.02, -187500.02, 0.000, 0.000, 0.000, 17:06:40.260
72, 4240.80, 23657.55, 187500.00, 187500.00, -187500.02, -187500.02, -187500.02, -187500.02, 0.000, 0.000, 0.000, 17:06:40.260
73, 4411.63, 23768.06, 187500.00, 187500.00, -187500.02, -187500.02, -187500.02, -187500.02, 0.000, 0.000, 0.000, 17:06:40.261
74, 4984.75, 24308.77, 187500.00, 187500.00, -187500.02, -187500.02, -187500.02, -187500.02, 0.000, 0.000, 0.000, 17:06:40.261
75, 5021.79, 24376.43, 187500.00, 187500.00, -187500.02, -187500.02, -187500.02, -187500.02, 0.000, 0.000, 0.000, 17:06:40.261
76, 4758.04, 24146.99, 187500.00, 187500.00, -187500.02, -187500.02, -187500.02, -187500.02, 0.000, 0.000, 0.000, 17:06:40.261
77, 4242.47, 23665.87, 187500.00, 187500.00, -187500.02, -187500.02, -187500.02, -187500.02, 0.000, 0.000, 0.000, 17:06:40.261
78, 4406.02, 23765.74, 187500.00, 187500.00, -187500.02, -187500.02, -187500.02, -187500.02, 0.012, -0.018, 1.030, 17:06:40.261
79, 4978.34, 24305.80, 187500.00, 187500.00, -187500.02, -187500.02, -187500.02, -187500.02, 0.000, 0.000, 0.000, 17:06:40.261
80, 5017.32, 24375.61, 187500.00, 187500.00, -187500.02, -187500.02, -187500.02, -187500.02, 0.000, 0.000, 0.000, 17:06:40.261
81, 4762.78, 24152.38, 187500.00, 187500.00, -187500.02, -187500.02, -187500.02, -187500.02, 0.000, 0.000, 0.000, 17:06:40.262
82, 4246.65, 23670.59, 187500.00, 187500.00, -187500.02, -187500.02, -187500.02, -187500.02, 0.000, 0.000, 0.000, 17:06:40.262
83, 4410.18, 23774.14, 187500.00, 187500.00, -187500.02, -187500.02, -187500.02, -187500.02, 0.000, 0.000, 0.000, 17:06:40.262
84, 4987.30, 24318.09, 187500.00, 187500.00, -187500.02, -187500.02, -187500.02, -187500.02, 0.000, 0.000, 0.000, 17:06:40.262
85, 5024.87, 24385.89, 187500.00, 187500.00, -187500.02, -187500.02, -187500.02, -187500.02, 0.000, 0.000, 0.000, 17:06:40.262
86, 4768.48, 24159.69, 187500.00, 187500.00, -187500.02, -187500.02, -187500.02, -187500.02, 0.000, 0.000, 0.000, 17:06:40.262
87, 4252.64, 23678.68, 187500.00, 187500.00, -187500.02, -187500.02, -187500.02, -187500.02, 0.000, 0.000, 0.000, 17:06:40.262
88, 4409.73, 23779.64, 187500.00, 187500.00, -187500.02, -187500.02, -187500.02, -187500.02, 0.008, -0.010, 1.030, 17:06:40.262
89, 4988.75, 24328.06, 187500.00, 187500.00, -187500.02, -187500.02, -187500.02, -187500.02, 0.000, 0.000, 0.000, 17:06:40.262
90, 5032.41, 24402.02, 187500.00, 187500.00, -187500.02, -187500.02, -187500.02, -187500.02, 0.000, 0.000, 0.000, 17:06:40.263
91, 4774.06, 24174.28, 187500.00, 187500.00, -187500.02, -187500.02, -187500.02, -187500.02, 0.000, 0.000, 0.000, 17:06:40.263
92, 4253.56, 23687.21, 187500.00, 187500.00, -187500.02, -187500.02, -187500.02, -187500.02, 0.000, 0.000, 0.000, 17:06:40.263
93, 4398.06, 23769.40, 187500.00, 187500.00, -187500.02, -187500.02, -187500.02, -187500.02, 0.000, 0.000, 0.000, 17:06:40.263
94, 4981.56, 24319.39, 187500.00, 187500.00, -187500.02, -187500.02, -187500.02, -187500.02, 0.000, 0.000, 0.000, 17:06:40.263
95, 5033.84, 24398.81, 187500.00, 187500.00, -187500.02, -187500.02, -187500.02, -187500.02, 0.000, 0.000, 0.000, 17:06:40.263
96, 4777.15, 24169.68, 187500.00, 187500.00, -187500.02, -187500.02, -187500.02, -187500.02, 0.000, 0.000, 0.000, 17:06:40.263
97, 4253.94, 23681.31, 187500.00, 187500.00, -187500.02, -187500.02, -187500.02, -187500.02, 0.000, 0.000, 0.000, 17:06:40.263
98, 4396.88, 23762.50, 187500.00, 187500.00, -187500.02, -187500.02, -187500.02, -187500.02, 0.006, -0.012, 1.028, 17:06:40.263
99, 4974.47, 24303.68, 187500.00, 187500.00, -187500.02, -187500.02, -187500.02, -187500.02, 0.000, 0.000, 0.000, 17:06:40.264
100, 5030.46, 24389.87, 187500.00, 187500.00, -187500.02, -187500.02, -187500.02, -187500.02, 0.000, 0.000, 0.000, 17:06:40.264
101, 4771.56, 24163.67, 187500.00, 187500.00, -187500.02, -187500.02, -187500.02, -187500.02, 0.000, 0.000, 0.000, 17:06:40.264
102, 4258.23, 23684.73, 187500.00, 187500.00, -187500.02, -187500.02, -187500.02, -187500.02, 0.000, 0.000, 0.000, 17:06:40.264
103, 4397.75, 23765.04, 187500.00, 187500.00, -187500.02, -187500.02, -187500.02, -187500.02, 0.000, 0.000, 0.000, 17:06:40.264
104, 4985.09, 24314.21, 187500.00, 187500.00, -187500.02, -187500.02, -187500.02, -187500.02, 0.000, 0.000, 0.000, 17:06:40.731
105, 5034.86, 24392.14, 187500.00, 187500.00, -187500.02, -187500.02, -187500.02, -187500.02, 0.000, 0.000, 0.000, 17:06:40.731
106, 4788.55, 24177.52, 187500.00, 187500.00, -187500.02, -187500.02, -187500.02, -187500.02, 0.000, 0.000, 0.000, 17:06:40.731
107, 4263.26, 23686.95, 187500.00, 187500.00, -187500.02, -187500.02, -187500.02, -187500.02, 0.000, 0.000, 0.000, 17:06:40.731
108, 4394.17, 23759.14, 187500.00, 187500.00, -187500.02, -187500.02, -187500.02, -187500.02, 0.012, -0.016, 1.030, 17:06:40.732
109, 4979.86, 24312.01, 187500.00, 187500.00, -187500.02, -187500.02, -187500.02, -187500.02, 0.000, 0.000, 0.000, 17:06:40.732
110, 5034.42, 24398.69, 187500.00, 187500.00, -187500.02, -187500.02, -187500.02, -187500.02, 0.000, 0.000, 0.000, 17:06:40.732
111, 4787.18, 24183.58, 187500.00, 187500.00, -187500.02, -187500.02, -187500.02, -187500.02, 0.000, 0.000, 0.000, 17:06:40.732
112, 4267.24, 23699.96, 187500.00, 187500.00, -187500.02, -187500.02, -187500.02, -187500.02, 0.000, 0.000, 0.000, 17:06:40.732
113, 4394.20, 23767.91, 187500.00, 187500.00, -187500.02, -187500.02, -187500.02, -187500.02, 0.000, 0.000, 0.000, 17:06:40.732
114, 4978.00, 24311.99, 187500.00, 187500.00, -187500.02, -187500.02, -187500.02, -187500.02, 0.000, 0.000, 0.000, 17:06:40.732
115, 5040.43, 24402.94, 187500.00, 187500.00, -187500.02, -187500.02, -187500.02, -187500.02, 0.000, 0.000, 0.000, 17:06:40.732
116, 4782.38, 24172.83, 187500.00, 187500.00, -187500.02, -187500.02, -187500.02, -187500.02, 0.000, 0.000, 0.000, 17:06:40.733
117, 4261.56, 23688.74, 187500.00, 187500.00, -187500.02, -187500.02, -187500.02, -187500.02, 0.000, 0.000, 0.000, 17:06:40.733
118, 4388.52, 23756.28, 187500.00, 187500.00, -187500.02, -187500.02, -187500.02, -187500.02, 0.010, -0.016, 1.022, 17:06:40.733
119, 4983.77, 24313.51, 187500.00, 187500.00, -187500.02, -187500.02, -187500.02, -187500.02, 0.000, 0.000, 0.000, 17:06:40.733
120, 5036.36, 24396.21, 187500.00, 187500.00, -187500.02, -187500.02, -187500.02, -187500.02, 0.000, 0.000, 0.000, 17:06:40.733
121, 4774.65, 24164.18, 187500.00, 187500.00, -187500.02, -187500.02, -187500.02, -187500.02, 0.000, 0.000, 0.000, 17:06:40.733
122, 4259.06, 23681.96, 187500.00, 187500.00, -187500.02, -187500.02, -187500.02, -187500.02, 0.000, 0.000, 0.000, 17:06:40.733
123, 4386.48, 23749.91, 187500.00, 187500.00, -187500.02, -187500.02, -187500.02, -187500.02, 0.000, 0.000, 0.000, 17:06:40.733
124, 4976.35, 24300.95, 187500.00, 187500.00, -187500.02, -187500.02, -187500.02, -187500.02, 0.000, 0.000, 0.000, 17:06:40.734
125, 5034.46, 24388.52, 187500.00, 187500.00, -187500.02, -187500.02, -187500.02, -187500.02, 0.000, 0.000, 0.000, 17:06:40.734
126, 4783.59, 24169.43, 187500.00, 187500.00, -187500.02, -187500.02, -187500.02, -187500.02, 0.000, 0.000, 0.000, 17:06:40.734
127, 4264.73, 23689.67, 187500.00, 187500.00, -187500.02, -187500.02, -187500.02, -187500.02, 0.000, 0.000, 0.000, 17:06:40.734
128, 4386.73, 23758.63, 187500.00, 187500.00, -187500.02, -187500.02, -187500.02, -187500.02, 0.014, -0.016, 1.026, 17:06:40.734
129, 4982.99, 24317.18, 187500.00, 187500.00, -187500.02, -187500.02, -187500.02, -187500.02, 0.000, 0.000, 0.000, 17:06:40.734
130, 5038.08, 24402.43, 187500.00, 187500.00, -187500.02, -187500.02, -187500.02, -187500.02, 0.000, 0.000, 0.000, 17:06:40.734
131, 4782.31, 24176.65, 187500.00, 187500.00, -187500.02, -187500.02, -187500.02, -187500.02, 0.000, 0.000, 0.000, 17:06:40.734
132, 4262.86, 23694.17, 187500.00, 187500.00, -187500.02, -187500.02, -187500.02, -187500.02, 0.000, 0.000, 0.000, 17:06:40.735
133, 4374.59, 23751.07, 187500.00, 187500.00, -187500.02, -187500.02, -187500.02, -187500.02, 0.000, 0.000, 0.000, 17:06:40.735
134, 4960.95, 24299.41, 187500.00, 187500.00, -187500.02, -187500.02, -187500.02, -187500.02, 0.000, 0.000, 0.000, 17:06:40.735
135, 5023.69, 24392.53, 187500.00, 187500.00, -187500.02, -187500.02, -187500.02, -187500.02, 0.000, 0.000, 0.000, 17:06:40.735
136, 4776.23, 24178.04, 187500.00, 187500.00, -187500.02, -187500.02, -187500.02, -187500.02, 0.000, 0.000, 0.000, 17:06:40.735
137, 4252.93, 23692.11, 187500.00, 187500.00, -187500.02, -187500.02, -187500.02, -187500.02, 0.012, -0.016, 1.030, 17:06:40.735
138, 4364.00, 23745.13, 187500.00, 187500.00, -187500.02, -187500.02, -187500.02, -187500.02, 0.000, 0.000, 0.000, 17:06:40.735
139, 4966.02, 24307.50, 187500.00, 187500.00, -187500.02, -187500.02, -187500.02, -187500.02, 0.000, 0.000, 0.000, 17:06:40.735
140, 5036.07, 24407.84, 187500.00, 187500.00, -187500.02, -187500.02, -187500.02, -187500.02, 0.000, 0.000, 0.000, 17:06:40.736
141, 4797.33, 24198.56, 187500.00, 187500.00, -187500.02, -187500.02, -187500.02, -187500.02, 0.000, 0.000, 0.000, 17:06:40.736
142, 4273.39, 23711.45, 187500.00, 187500.00, -187500.02, -187500.02, -187500.02, -187500.02, 0.000, 0.000, 0.000, 17:06:40.736
143, 4376.43, 23756.97, 187500.00, 187500.00, -187500.02, -187500.02, -187500.02, -187500.02, 0.000, 0.000, 0.000, 17:06:40.736
144, 4969.55, 24309.71, 187500.00, 187500.00, -187500.02, -187500.02, -187500.02, -187500.02, 0.000, 0.000, 0.000, 17:06:40.736
145, 5037.03, 24406.83, 187500.00, 187500.00, -187500.02, -187500.02, -187500.02, -187500.02, 0.000, 0.000, 0.000, 17:06:40.736
146, 4793.73, 24191.11, 187500.00, 187500.00, -187500.02, -187500.02, -187500.02, -187500.02, 0.000, 0.000, 0.000, 17:06:40.736
147, 4278.59, 23710.33, 187500.00, 187500.00, -187500.02, -187500.02, -187500.02, -187500.02, 0.008, -0.014, 1.028, 17:06:40.736
148, 4375.51, 23750.74, 187500.00, 187500.00, -187500.02, -187500.02, -187500.02, -187500.02, 0.000, 0.000, 0.000, 17:06:40.737
149, 4967.12, 24302.83, 187500.00, 187500.00, -187500.02, -187500.02, -187500.02, -187500.02, 0.000, 0.000, 0.000, 17:06:40.737
150, 5033.81, 24398.47, 187500.00, 187500.00, -187500.02, -187500.02, -187500.02, -187500.02, 0.000, 0.000, 0.000, 17:06:40.737
151, 4796.17, 24189.93, 187500.00, 187500.00, -187500.02, -187500.02, -187500.02, -187500.02, 0.000, 0.000, 0.000, 17:06:40.737
152, 4274.79, 23713.70, 187500.00, 187500.00, -187500.02, -187500.02, -187500.02, -187500.02, 0.000, 0.000, 0.000, 17:06:40.737
153, 4369.18, 23755.34, 187500.00, 187500.00, -187500.02, -187500.02, -187500.02, -187500.02, 0.000, 0.000, 0.000, 17:06:40.737
154, 4967.38, 24308.42, 187500.00, 187500.00, -187500.02, -187500.02, -187500.02, -187500.02, 0.000, 0.000, 0.000, 17:06:40.737
155, 5040.68, 24409.42, 187500.00, 187500.00, -187500.02, -187500.02, -187500.02, -187500.02, 0.000, 0.000, 0.000, 17:06:40.737
156, 4787.39, 24187.56, 187500.00, 187500.00, -187500.02, -187500.02, -187500.02, -187500.02, 0.000, 0.000, 0.000, 17:06:40.737
157, 4265.81, 23704.74, 187500.00, 187500.00, -187500.02, -187500.02, -187500.02, -187500.02, 0.010, -0.014, 1.034, 17:06:40.738
158, 4358.63, 23747.81, 187500.00, 187500.00, -187500.02, -187500.02, -187500.02, -187500.02, 0.000, 0.000, 0.000, 17:06:40.738
159, 4950.29, 24300.14, 187500.00, 187500.00, -187500.02, -187500.02, -187500.02, -187500.02, 0.000, 0.000, 0.000, 17:06:40.738
160, 5035.51, 24413.54, 187500.00, 187500.00, -187500.02, -187500.02, -187500.02, -187500.02, 0.000, 0.000, 0.000, 17:06:40.738
161, 4789.00, 24197.89, 187500.00, 187500.00, -187500.02, -187500.02, -187500.02, -187500.02, 0.000, 0.000, 0.000, 17:06:40.739
162, 4263.95, 23712.88, 187500.00, 187500.00, -187500.02, -187500.02, -187500.02, -187500.02, 0.000, 0.000, 0.000, 17:06:40.739
163, 4353.58, 23746.76, 187500.00, 187500.00, -187500.02, -187500.02, -187500.02, -187500.02, 0.000, 0.000, 0.000, 17:06:40.739
164, 4948.14, 24298.09, 187500.00, 187500.00, -187500.02, -187500.02, -187500.02, -187500.02, 0.000, 0.000, 0.000, 17:06:40.740
165, 5024.78, 24402.85, 187500.00, 187500.00, -187500.02, -187500.02, -187500.02, -187500.02, 0.000, 0.000, 0.000, 17:06:40.740
166, 4785.82, 24193.37, 187500.00, 187500.00, -187500.02, -187500.02, -187500.02, -187500.02, 0.000, 0.000, 0.000, 17:06:40.740
167, 4261.20, 23710.62, 187500.00, 187500.00, -187500.02, -187500.02, -187500.02, -187500.02, 0.010, -0.016, 1.026, 17:06:40.740
168, 4345.29, 23741.53, 187500.00, 187500.00, -187500.02, -187500.02, -187500.02, -187500.02, 0.000, 0.000, 0.000, 17:06:40.740
169, 4954.91, 24307.66, 187500.00, 187500.00, -187500.02, -187500.02, -187500.02, -187500.02, 0.000, 0.000, 0.000, 17:06:40.740
170, 5035.92, 24417.31, 187500.00, 187500.00, -187500.02, -187500.02, -187500.02, -187500.02, 0.000, 0.000, 0.000, 17:06:40.740
171, 4802.03, 24213.22, 187500.00, 187500.00, -187500.02, -187500.02, -187500.02, -187500.02, 0.000, 0.000, 0.000, 17:06:40.740
172, 4285.08, 23732.10, 187500.00, 187500.00, -187500.02, -187500.02, -187500.02, -187500.02, 0.000, 0.000, 0.000, 17:06:40.741
173, 4349.16, 23740.14, 187500.00, 187500.00, -187500.02, -187500.02, -187500.02, -187500.02, 0.000, 0.000, 0.000, 17:06:40.741
174, 4959.70, 24303.68, 187500.00, 187500.00, -187500.02, -187500.02, -187500.02, -187500.02, 0.000, 0.000, 0.000, 17:06:40.741
175, 5048.45, 24417.92, 187500.00, 187500.00, -187500.02, -187500.02, -187500.02, -187500.02, 0.000, 0.000, 0.000, 17:06:40.741
176, 4810.27, 24209.02, 187500.00, 187500.00, -187500.02, -187500.02, -187500.02, -187500.02, 0.000, 0.000, 0.000, 17:06:40.741
177, 4287.80, 23725.95, 187500.00, 187500.00, -187500.02, -187500.02, -187500.02, -187500.02, 0.008, -0.014, 1.024, 17:06:40.741
178, 4357.88, 23742.02, 187500.00, 187500.00, -187500.02, -187500.02, -187500.02, -187500.02, 0.000, 0.000, 0.000, 17:06:40.741
179, 4955.25, 24295.92, 187500.00, 187500.00, -187500.02, -187500.02, -187500.02, -187500.02, 0.000, 0.000, 0.000, 17:06:40.741
180, 5046.96, 24414.25, 187500.00, 187500.00, -187500.02, -187500.02, -187500.02, -187500.02, 0.000, 0.000, 0.000, 17:06:40.741
181, 4814.43, 24211.01, 187500.00, 187500.00, -187500.02, -187500.02, -187500.02, -187500.02, 0.000, 0.000, 0.000, 17:06:40.742
182, 4294.98, 23730.69, 187500.00, 187500.00, -187500.02, -187500.02, -187500.02, -187500.02, 0.000, 0.000, 0.000, 17:06:40.742
183, 4358.50, 23742.42, 187500.00, 187500.00, -187500.02, -187500.02, -187500.02, -187500.02, 0.000, 0.000, 0.000, 17:06:40.742
184, 4955.69, 24298.76, 187500.00, 187500.00, -187500.02, -187500.02, -187500.02, -187500.02, 0.000, 0.000, 0.000, 17:06:40.742
185, 5046.44, 24419.15, 187500.00, 187500.00, -187500.02, -187500.02, -187500.02, -187500.02, 0.000, 0.000, 0.000, 17:06:40.742
186, 4816.31, 24218.85, 187500.00, 187500.00, -187500.02, -187500.02, -187500.02, -187500.02, 0.000, 0.000, 0.000, 17:06:40.742
187, 4299.16, 23740.17, 187500.00, 187500.00, -187500.02, -187500.02, -187500.02, -187500.02, 0.010, -0.016, 1.020, 17:06:40.742
188, 4360.58, 23749.60, 187500.00, 187500.00, -187500.02, -187500.02, -187500.02, -187500.02, 0.000, 0.000, 0.000, 17:06:40.742
189, 4961.71, 24307.88, 187500.00, 187500.00, -187500.02, -187500.02, -187500.02, -187500.02, 0.000, 0.000, 0.000, 17:06:40.743
190, 5051.76, 24425.02, 187500.00, 187500.00, -187500.02, -187500.02, -187500.02, -187500.02, 0.000, 0.000, 0.000, 17:06:40.743
191, 4823.31, 24224.06, 187500.00, 187500.00, -187500.02, -187500.02, -187500.02, -187500.02, 0.000, 0.000, 0.000, 17:06:40.743
192, 4300.63, 23740.19, 187500.00, 187500.00, -187500.02, -187500.02, -187500.02, -187500.02, 0.000, 0.000, 0.000, 17:06:40.743
193, 4351.73, 23736.93, 187500.00, 187500.00, -187500.02, -187500.02, -187500.02, -187500.02, 0.000, 0.000, 0.000, 17:06:40.743
194, 4948.41, 24289.21, 187500.00, 187500.00, -187500.02, -187500.02, -187500.02, -187500.02, 0.000, 0.000, 0.000, 17:06:40.743
195, 5038.71, 24406.94, 187500.00, 187500.00, -187500.02, -187500.02, -187500.02, -187500.02, 0.000, 0.000, 0.000, 17:06:40.743
196, 4813.63, 24211.43, 187500.00, 187500.00, -187500.02, -187500.02, -187500.02, -187500.02, 0.000, 0.000, 0.000, 17:06:40.743
197, 4299.04, 23733.89, 187500.00, 187500.00, -187500.02, -187500.02, -187500.02, -187500.02, 0.008, -0.014, 1.022, 17:06:40.743
198, 4346.50, 23729.46, 187500.00, 187500.00, -187500.02, -187500.02, -187500.02, -187500.02, 0.000, 0.000, 0.000, 17:06:40.744
199, 4947.87, 24285.93, 187500.00, 187500.00, -187500.02, -187500.02, -187500.02, -187500.02, 0.000, 0.000, 0.000, 17:06:40.744
200, 5040.47, 24404.33, 187500.00, 187500.00, -187500.02, -187500.02, -187500.02, -187500.02, 0.000, 0.000, 0.000, 17:06:40.744
201, 4808.11, 24197.48, 187500.00, 187500.00, -187500.02, -187500.02, -187500.02, -187500.02, 0.000, 0.000, 0.000, 17:06:40.744
202, 4292.79, 23721.46, 187500.00, 187500.00, -187500.02, -187500.02, -187500.02, -187500.02, 0.000, 0.000, 0.000, 17:06:40.744
203, 4341.89, 23718.87, 187500.00, 187500.00, -187500.02, -187500.02, -187500.02, -187500.02, 0.000, 0.000, 0.000, 17:06:40.744
204, 4949.86, 24282.06, 187500.00, 187500.00, -187500.02, -187500.02, -187500.02, -187500.02, 0.000, 0.000, 0.000, 17:06:40.744
205, 5050.62, 24414.34, 187500.00, 187500.00, -187500.02, -187500.02, -187500.02, -187500.02, 0.000, 0.000, 0.000, 17:06:40.744
206, 4811.50, 24208.62, 187500.00, 187500.00, -187500.02, -187500.02, -187500.02, -187500.02, 0.000, 0.000, 0.000, 17:06:40.745
207, 4281.77, 23719.40, 187500.00, 187500.00, -187500.02, -187500.02, -187500.02, -187500.02, 0.002, -0.010, 1.030, 17:06:40.745
208, 4339.01, 23721.84, 187500.00, 187500.00, -187500.02, -187500.02, -187500.02, -187500.02, 0.000, 0.000, 0.000, 17:06:40.745
209, 4947.94, 24284.12, 187500.00, 187500.00, -187500.02, -187500.02, -187500.02, -187500.02, 0.000, 0.000, 0.000, 17:06:40.745
210, 5049.28, 24411.28, 187500.00, 187500.00, -187500.02, -187500.02, -187500.02, -187500.02, 0.000, 0.000, 0.000, 17:06:40.745
211, 4834.75, 24222.67, 187500.00, 187500.00, -187500.02, -187500.02, -187500.02, -187500.02, 0.000, 0.000, 0.000, 17:06:40.745
212, 4314.09, 23737.80, 187500.00, 187500.00, -187500.02, -187500.02, -187500.02, -187500.02, 0.000, 0.000, 0.000, 17:06:40.745
213, 4350.97, 23726.13, 187500.00, 187500.00, -187500.02, -187500.02, -187500.02, -187500.02, 0.000, 0.000, 0.000, 17:06:40.745
214, 4959.92, 24292.72, 187500.00, 187500.00, -187500.02, -187500.02, -187500.02, -187500.02, 0.000, 0.000, 0.000, 17:06:40.745
215, 5064.84, 24427.91, 187500.00, 187500.00, -187500.02, -187500.02, -187500.02, -187500.02, 0.000, 0.000, 0.000, 17:06:40.746
216, 4845.59, 24236.78, 187500.00, 187500.00, -187500.02, -187500.02, -187500.02, -187500.02, 0.000, 0.000, 0.000, 17:06:40.746
217, 4327.41, 23760.87, 187500.00, 187500.00, -187500.02, -187500.02, -187500.02, -187500.02, 0.006, -0.014, 1.028, 17:06:40.746
218, 4351.12, 23736.75, 187500.00, 187500.00, -187500.02, -187500.02, -187500.02, -187500.02, 0.000, 0.000, 0.000, 17:06:40.746
219, 4950.02, 24291.05, 187500.00, 187500.00, -187500.02, -187500.02, -187500.02, -187500.02, 0.000, 0.000, 0.000, 17:06:40.746
220, 5049.86, 24417.92, 187500.00, 187500.00, -187500.02, -187500.02, -187500.02, -187500.02, 0.000, 0.000, 0.000, 17:06:40.746
221, 4825.76, 24222.88, 187500.00, 187500.00, -187500.02, -187500.02, -187500.02, -187500.02, 0.000, 0.000, 0.000, 17:06:40.746
222, 4308.59, 23747.52, 187500.00, 187500.00, -187500.02, -187500.02, -187500.02, -187500.02, 0.000, 0.000, 0.000, 17:06:40.746
223, 4335.59, 23723.98, 187500.00, 187500.00, -187500.02, -187500.02, -187500.02, -187500.02, 0.000, 0.000, 0.000, 17:06:40.747
224, 4943.11, 24283.34, 187500.00, 187500.00, -187500.02, -187500.02, -187500.02, -187500.02, 0.000, 0.000, 0.000, 17:06:41.212
225, 5045.82, 24414.38, 187500.00, 187500.00, -187500.02, -187500.02, -187500.02, -187500.02, 0.000, 0.000, 0.000, 17:06:41.212
226, 4824.24, 24220.06, 187500.00, 187500.00, -187500.02, -187500.02, -187500.02, -187500.02, 0.000, 0.000, 0.000, 17:06:41.212
227, 4313.80, 23749.06, 187500.00, 187500.00, -187500.02, -187500.02, -187500.02, -187500.02, 0.018, -0.010, 1.024, 17:06:41.212
228, 4339.12, 23724.43, 187500.00, 187500.00, -187500.02, -187500.02, -187500.02, -187500.02, 0.000, 0.000, 0.000, 17:06:41.212
229, 4939.85, 24279.74, 187500.00, 187500.00, -187500.02, -187500.02, -187500.02, -187500.02, 0.000, 0.000, 0.000, 17:06:41.212
230, 5051.74, 24418.63, 187500.00, 187500.00, -187500.02, -187500.02, -187500.02, -187500.02, 0.000, 0.000, 0.000, 17:06:41.213
231, 4829.68, 24224.98, 187500.00, 187500.00, -187500.02, -187500.02, -187500.02, -187500.02, 0.000, 0.000, 0.000, 17:06:41.213
232, 4312.84, 23749.17, 187500.00, 187500.00, -187500.02, -187500.02, -187500.02, -187500.02, 0.000, 0.000, 0.000, 17:06:41.213
233, 4327.92, 23717.97, 187500.00, 187500.00, -187500.02, -187500.02, -187500.02, -187500.02, 0.000, 0.000, 0.000, 17:06:41.213
234, 4940.58, 24281.46, 187500.00, 187500.00, -187500.02, -187500.02, -187500.02, -187500.02, 0.000, 0.000, 0.000, 17:06:41.213
235, 5051.23, 24417.89, 187500.00, 187500.00, -187500.02, -187500.02, -187500.02, -187500.02, 0.000, 0.000, 0.000, 17:06:41.213
236, 4833.01, 24227.97, 187500.00, 187500.00, -187500.02, -187500.02, -187500.02, -187500.02, 0.000, 0.000, 0.000, 17:06:41.213
237, 4319.88, 23754.27, 187500.00, 187500.00, -187500.02, -187500.02, -187500.02, -187500.02, 0.014, -0.016, 1.026, 17:06:41.213
238, 4328.64, 23718.40, 187500.00, 187500.00, -187500.02, -187500.02, -187500.02, -187500.02, 0.000, 0.000, 0.000, 17:06:41.213
239, 4932.34, 24274.40, 187500.00, 187500.00, -187500.02, -187500.02, -187500.02, -187500.02, 0.000, 0.000, 0.000, 17:06:41.214
240, 5046.64, 24415.01, 187500.00, 187500.00, -187500.02, -187500.02, -187500.02, -187500.02, 0.000, 0.000, 0.000, 17:06:41.214
241, 4827.84, 24221.65, 187500.00, 187500.00, -187500.02, -187500.02, -187500.02, -187500.02, 0.000, 0.000, 0.000, 17:06:41.214
242, 4314.87, 23749.53, 187500.00, 187500.00, -187500.02, -187500.02, -187500.02, -187500.02, 0.000, 0.000, 0.000, 17:06:41.214
243, 4326.67, 23716.27, 187500.00, 187500.00, -187500.02, -187500.02, -187500.02, -187500.02, 0.000, 0.000, 0.000, 17:06:41.214
244, 4929.88, 24271.27, 187500.00, 187500.00, -187500.02, -187500.02, -187500.02, -187500.02, 0.000, 0.000, 0.000, 17:06:41.214
245, 5042.60, 24409.65, 187500.00, 187500.00, -187500.02, -187500.02, -187500.02, -187500.02, 0.000, 0.000, 0.000, 17:06:41.214
246, 4826.70, 24220.91, 187500.00, 187500.00, -187500.02, -187500.02, -187500.02, -187500.02, 0.000, 0.000, 0.000, 17:06:41.214
247, 4315.12, 23750.87, 187500.00, 187500.00, -187500.02, -187500.02, -187500.02, -187500.02, 0.006, -0.016, 1.028, 17:06:41.214
248, 4324.37, 23711.20, 187500.00, 187500.00, -187500.02, -187500.02, -187500.02, -187500.02, 0.000, 0.000, 0.000, 17:06:41.215
249, 4939.76, 24277.57, 187500.00, 187500.00, -187500.02, -187500.02, -187500.02, -187500.02, 0.000, 0.000, 0.000, 17:06:41.215
250, 5050.58, 24414.50, 187500.00, 187500.00, -187500.02, -187500.02, -187500.02, -187500.02, 0.000, 0.000, 0.000, 17:06:41.215
251, 4829.23, 24218.70, 187500.00, 187500.00, -187500.02, -187500.02, -187500.02, -187500.02, 0.000, 0.000, 0.000, 17:06:41.215
252, 4307.11, 23738.54, 187500.00, 187500.00, -187500.02, -187500.02, -187500.02, -187500.02, 0.000, 0.000, 0.000, 17:06:41.215
253, 4310.35, 23695.66, 187500.00, 187500.00, -187500.02, -187500.02, -187500.02, -187500.02, 0.000, 0.000, 0.000, 17:06:41.215
254, 4922.26, 24258.26, 187500.00, 187500.00, -187500.02, -187500.02, -187500.02, -187500.02, 0.000, 0.000, 0.000, 17:06:41.216
255, 5048.39, 24408.55, 187500.00, 187500.00, -187500.02, -187500.02, -187500.02, -187500.02, 0.000, 0.000, 0.000, 17:06:41.216
0, 4832.36, 24221.20, 187500.00, 187500.00, -187500.02, -187500.02, -187500.02, -187500.02, 0.000, 0.000, 0.000, 17:06:41.216
1, 4317.42, 23748.46, 187500.00, 187500.00, -187500.02, -187500.02, -187500.02, -187500.02, 0.010, -0.018, 1.028, 17:06:41.216
2, 4309.17, 23691.13, 187500.00, 187500.00, -187500.02, -187500.02, -187500.02, -187500.02, 0.000, 0.000, 0.000, 17:06:41.216
3, 4920.78, 24256.63, 187500.00, 187500.00, -187500.02, -187500.02, -187500.02, -187500.02, 0.000, 0.000, 0.000, 17:06:41.216
4, 5051.54, 24414.88, 187500.00, 187500.00, -187500.02, -187500.02, -187500.02, -187500.02, 0.000, 0.000, 0.000, 17:06:41.216
5, 4842.68, 24234.81, 187500.00, 187500.00, -187500.02, -187500.02, -187500.02, -187500.02, 0.000, 0.000, 0.000, 17:06:41.216
6, 4333.62, 23764.64, 187500.00, 187500.00, -187500.02, -187500.02, -187500.02, -187500.02, 0.000, 0.000, 0.000, 17:06:41.217
7, 4321.80, 23708.45, 187500.00, 187500.00, -187500.02, -187500.02, -187500.02, -187500.02, 0.000, 0.000, 0.000, 17:06:41.217
8, 4925.74, 24260.38, 187500.00, 187500.00, -187500.02, -187500.02, -187500.02, -187500.02, 0.000, 0.000, 0.000, 17:06:41.217
9, 5054.78, 24415.39, 187500.00, 187500.00, -187500.02, -187500.02, -187500.02, -187500.02, 0.000, 0.000, 0.000, 17:06:41.217
10, 4832.74, 24221.11, 187500.00, 187500.00, -187500.02, -187500.02, -187500.02, -187500.02, 0.012, -0.020, 1.032, 17:06:41.217
11, 4324.37, 23753.06, 187500.00, 187500.00, -187500.02, -187500.02, -187500.02, -187500.02, 0.000, 0.000, 0.000, 17:06:41.217
12, 4312.32, 23698.19, 187500.00, 187500.00, -187500.02, -187500.02, -187500.02, -187500.02, 0.000, 0.000, 0.000, 17:06:41.217
13, 4916.06, 24255.04, 187500.00, 187500.00, -187500.02, -187500.02, -187500.02, -187500.02, 0.000, 0.000, 0.000, 17:06:41.217
14, 5056.05, 24420.73, 187500.00, 187500.00, -187500.02, -187500.02, -187500.02, -187500.02, 0.000, 0.000, 0.000, 17:06:41.218
15, 4848.16, 24238.59, 187500.00, 187500.00, -187500.02, -187500.02, -187500.02, -187500.02, 0.000, 0.000, 0.000, 17:06:41.218
16, 4335.48, 23764.11, 187500.00, 187500.00, -187500.02, -187500.02, -187500.02, -187500.02, 0.000, 0.000, 0.000, 17:06:41.218
17, 4319.92, 23702.53, 187500.00, 187500.00, -187500.02, -187500.02, -187500.02, -187500.02, 0.000, 0.000, 0.000, 17:06:41.218
18, 4924.60, 24257.50, 187500.00, 187500.00, -187500.02, -187500.02, -187500.02, -187500.02, 0.000, 0.000, 0.000, 17:06:41.218
19, 5049.71, 24408.51, 187500.00, 187500.00, -187500.02, -187500.02, -187500.02, -187500.02, 0.000, 0.000, 0.000, 17:06:41.218
20, 4838.77, 24228.44, 187500.00, 187500.00, -187500.02, -187500.02, -187500.02, -187500.02, 0.010, -0.018, 1.036, 17:06:41.218
21, 4335.97, 23769.85, 187500.00, 187500.00, -187500.02, -187500.02, -187500.02, -187500.02, 0.000, 0.000, 0.000, 17:06:41.218
22, 4308.81, 23700.80, 187500.00, 187500.00, -187500.02, -187500.02, -187500.02, -187500.02, 0.000, 0.000, 0.000, 17:06:41.219
23, 4919.02, 24260.11, 187500.00, 187500.00, -187500.02, -187500.02, -187500.02, -187500.02, 0.000, 0.000, 0.000, 17:06:41.219
24, 5053.17, 24422.54, 187500.00, 187500.00, -187500.02, -187500.02, -187500.02, -187500.02, 0.000, 0.000, 0.000, 17:06:41.219
25, 4842.82, 24241.58, 187500.00, 187500.00, -187500.02, -187500.02, -187500.02, -187500.02, 0.000, 0.000, 0.000, 17:06:41.219
26, 4323.16, 23762.81, 187500.00, 187500.00, -187500.02, -187500.02, -187500.02, -187500.02, 0.000, 0.000, 0.000, 17:06:41.219
27, 4293.86, 23686.41, 187500.00, 187500.00, -187500.02, -187500.02, -187500.02, -187500.02, 0.000, 0.000, 0.000, 17:06:41.219
28, 4908.82, 24250.32, 187500.00, 187500.00, -187500.02, -187500.02, -187500.02, -187500.02, 0.000, 0.000, 0.000, 17:06:41.219
29, 5044.97, 24415.64, 187500.00, 187500.00, -187500.02, -187500.02, -187500.02, -187500.02, 0.000, 0.000, 0.000, 17:06:41.219
30, 4835.82, 24237.70, 187500.00, 187500.00, -187500.02, -187500.02, -187500.02, -187500.02, 0.008, -0.014, 1.026, 17:06:41.219
31, 4319.18, 23762.61, 187500.00, 187500.00, -187500.02, -187500.02, -187500.02, -187500.02, 0.000, 0.000, 0.000, 17:06:41.220
32, 4276.29, 23673.16, 187500.00, 187500.00, -187500.02, -187500.02, -187500.02, -187500.02, 0.000, 0.000, 0.000, 17:06:41.220
33, 4886.43, 24230.92, 187500.00, 187500.00, -187500.02, -187500.02, -187500.02, -187500.02, 0.000, 0.000, 0.000, 17:06:41.220
34, 5031.53, 24395.90, 187500.00, 187500.00, -187500.02, -187500.02, -187500.02, -187500.02, 0.000, 0.000, 0.000, 17:06:41.220
35, 4821.74, 24210.87, 187500.00, 187500.00, -187500.02, -187500.02, -187500.02, -187500.02, 0.000, 0.000, 0.000, 17:06:41.220
36, 4320.46, 23752.35, 187500.00, 187500.00, -187500.02, -187500.02, -187500.02, -187500.02, 0.000, 0.000, 0.000, 17:06:41.220
37, 4282.68, 23671.23, 187500.00, 187500.00, -187500.02, -187500.02, -187500.02, -187500.02, 0.000, 0.000, 0.000, 17:06:41.220
38, 4880.10, 24220.19, 187500.00, 187500.00, -187500.02, -187500.02, -187500.02, -187500.02, 0.000, 0.000, 0.000, 17:06:41.220
39, 5014.46, 24382.89, 187500.00, 187500.00, -187500.02, -187500.02, -187500.02, -187500.02, 0.000, 0.000, 0.000, 17:06:41.220
40, 4808.17, 24207.16, 187500.00, 187500.00, -187500.02, -187500.02, -187500.02, -187500.02, 0.010, -0.012, 1.026, 17:06:41.221
41, 4297.86, 23740.44, 187500.00, 187500.00, -187500.02, -187500.02, -187500.02, -187500.02, 0.000, 0.000, 0.000, 17:06:41.221
42, 4253.92, 23652.75, 187500.00, 187500.00, -187500.02, -187500.02, -187500.02, -187500.02, 0.000, 0.000, 0.000, 17:06:41.221
43, 4876.08, 24216.08, 187500.00, 187500.00, -187500.02, -187500.02, -187500.02, -187500.02, 0.000, 0.000, 0.000, 17:06:41.221
44, 5022.06, 24390.69, 187500.00, 187500.00, -187500.02, -187500.02, -187500.02, -187500.02, 0.000, 0.000, 0.000, 17:06:41.221
45, 4811.12, 24211.90, 187500.00, 187500.00, -187500.02, -187500.02, -187500.02, -187500.02, 0.000, 0.000, 0.000, 17:06:41.221
46, 4309.04, 23750.58, 187500.00, 187500.00, -187500.02, -187500.02, -187500.02, -187500.02, 0.000, 0.000, 0.000, 17:06:41.221
47, 4246.38, 23642.76, 187500.00, 187500.00, -187500.02, -187500.02, -187500.02, -187500.02, 0.000, 0.000, 0.000, 17:06:41.221
48, 4854.42, 24196.57, 187500.00, 187500.00, -187500.02, -187500.02, -187500.02, -187500.02, 0.000, 0.000, 0.000, 17:06:41.222
49, 5009.25, 24379.43, 187500.00, 187500.00, -187500.02, -187500.02, -187500.02, -187500.02, 0.000, 0.000, 0.000, 17:06:41.222
50, 4799.88, 24200.93, 187500.00, 187500.00, -187500.02, -187500.02, -187500.02, -187500.02, 0.010, -0.012, 1.026, 17:06:41.222
51, 4295.42, 23741.13, 187500.00, 187500.00, -187500.02, -187500.02, -187500.02, -187500.02, 0.000, 0.000, 0.000, 17:06:41.222
52, 4245.29, 23649.04, 187500.00, 187500.00, -187500.02, -187500.02, -187500.02, -187500.02, 0.000, 0.000, 0.000, 17:06:41.222
53, 4856.01, 24206.25, 187500.00, 187500.00, -187500.02, -187500.02, -187500.02, -187500.02, 0.000, 0.000, 0.000, 17:06:41.222
54, 5011.64, 24385.15, 187500.00, 187500.00, -187500.02, -187500.02, -187500.02, -187500.02, 0.000, 0.000, 0.000, 17:06:41.222
55, 4809.58, 24208.32, 187500.00, 187500.00, -187500.02, -187500.02, -187500.02, -187500.02, 0.000, 0.000, 0.000, 17:06:41.222
56, 4305.73, 23744.66, 187500.00, 187500.00, -187500.02, -187500.02, -187500.02, -187500.02, 0.000, 0.000, 0.000, 17:06:41.222
57, 4246.90, 23643.50, 187500.00, 187500.00, -187500.02, -187500.02, -187500.02, -187500.02, 0.000, 0.000, 0.000, 17:06:41.223
58, 4853.52, 24195.90, 187500.00, 187500.00, -187500.02, -187500.02, -187500.02, -187500.02, 0.000, 0.000, 0.000, 17:06:41.223
59, 5005.76, 24372.74, 187500.00, 187500.00, -187500.02, -187500.02, -187500.02, -187500.02, 0.000, 0.000, 0.000, 17:06:41.223
60, 4802.50, 24200.08, 187500.00, 187500.00, -187500.02, -187500.02, -187500.02, -187500.02, 0.004, -0.014, 1.030, 17:06:41.223
61, 4298.53, 23745.78, 187500.00, 187500.00, -187500.02, -187500.02, -187500.02, -187500.02, 0.000, 0.000, 0.000, 17:06:41.223
62, 4235.28, 23644.17, 187500.00, 187500.00, -187500.02, -187500.02, -187500.02, -187500.02, 0.000, 0.000, 0.000, 17:06:41.223
63, 4842.10, 24195.23, 187500.00, 187500.00, -187500.02, -187500.02, -187500.02, -187500.02, 0.000, 0.000, 0.000, 17:06:41.223
64, 4998.72, 24374.67, 187500.00, 187500.00, -187500.02, -187500.02, -187500.02, -187500.02, 0.000, 0.000, 0.000, 17:06:41.223
65, 4803.79, 24205.51, 187500.00, 187500.00, -187500.02, -187500.02, -187500.02, -187500.02, 0.000, 0.000, 0.000, 17:06:41.224
66, 4296.88, 23740.10, 187500.00, 187500.00, -187500.02, -187500.02, -187500.02, -187500.02, 0.000, 0.000, 0.000, 17:06:41.224
67, 4231.97, 23631.67, 187500.00, 187500.00, -187500.02, -187500.02, -187500.02, -187500.02, 0.000, 0.000, 0.000, 17:06:41.224
68, 4839.38, 24184.94, 187500.00, 187500.00, -187500.02, -187500.02, -187500.02, -187500.02, 0.000, 0.000, 0.000, 17:06:41.224
69, 4996.13, 24366.42, 187500.00, 187500.00, -187500.02, -187500.02, -187500.02, -187500.02, 0.000, 0.000, 0.000, 17:06:41.224
70, 4795.37, 24197.69, 187500.00, 187500.00, -187500.02, -187500.02, -187500.02, -187500.02, 0.000, -0.016, 1.026, 17:06:41.224
71, 4293.03, 23740.10, 187500.00, 187500.00, -187500.02, -187500.02, -187500.02, -187500.02, 0.000, 0.000, 0.000, 17:06:41.224
72, 4218.40, 23621.61, 187500.00, 187500.00, -187500.02, -187500.02, -187500.02, -187500.02, 0.000, 0.000, 0.000, 17:06:41.224
73, 4829.74, 24177.10, 187500.00, 187500.00, -187500.02, -187500.02, -187500.02, -187500.02, 0.000, 0.000, 0.000, 17:06:41.224
74, 4999.21, 24370.44, 187500.00, 187500.00, -187500.02, -187500.02, -187500.02, -187500.02, 0.000, 0.000, 0.000, 17:06:41.225
75, 4801.53, 24200.54, 187500.00, 187500.00, -187500.02, -187500.02, -187500.02, -187500.02, 0.000, 0.000, 0.000, 17:06:41.225
76, 4297.46, 23740.30, 187500.00, 187500.00, -187500.02, -187500.02, -187500.02, -187500.02, 0.000, 0.000, 0.000, 17:06:41.225
77, 4219.12, 23623.33, 187500.00, 187500.00, -187500.02, -187500.02, -187500.02, -187500.02, 0.000, 0.000, 0.000, 17:06:41.225
78, 4822.63, 24171.55, 187500.00, 187500.00, -187500.02, -187500.02, -187500.02, -187500.02, 0.000, 0.000, 0.000, 17:06:41.225
79, 4987.50, 24365.64, 187500.00, 187500.00, -187500.02, -187500.02, -187500.02, -187500.02, 0.000, 0.000, 0.000, 17:06:41.225
80, 4789.15, 24193.26, 187500.00, 187500.00, -187500.02, -187500.02, -187500.02, -187500.02, 0.002, -0.016, 1.024, 17:06:41.225
81, 4291.04, 23734.40, 187500.00, 187500.00, -187500.02, -187500.02, -187500.02, -187500.02, 0.000, 0.000, 0.000, 17:06:41.225
82, 4215.38, 23618.95, 187500.00, 187500.00, -187500.02, -187500.02, -187500.02, -187500.02, 0.000, 0.000, 0.000, 17:06:41.226
83, 4810.68, 24159.91, 187500.00, 187500.00, -187500.02, -187500.02, -187500.02, -187500.02, 0.000, 0.000, 0.000, 17:06:41.226
84, 4988.82, 24364.27, 187500.00, 187500.00, -187500.02, -187500.02, -187500.02, -187500.02, 0.000, 0.000, 0.000, 17:06:41.226
85, 4798.54, 24203.72, 187500.00, 187500.00, -187500.02, -187500.02, -187500.02, -187500.02, 0.000, 0.000, 0.000, 17:06:41.226
86, 4301.59, 23750.54, 187500.00, 187500.00, -187500.02, -187500.02, -187500.02, -187500.02, 0.000, 0.000, 0.000, 17:06:41.226
87, 4215.76, 23626.31, 187500.00, 187500.00, -187500.02, -187500.02, -187500.02, -187500.02, 0.000, 0.000, 0.000, 17:06:41.226
88, 4828.49, 24182.73, 187500.00, 187500.00, -187500.02, -187500.02, -187500.02, -187500.02, 0.000, 0.000, 0.000, 17:06:41.226
89, 4986.74, 24365.93, 187500.00, 187500.00, -187500.02, -187500.02, -187500.02, -187500.02, 0.000, 0.000, 0.000, 17:06:41.692
90, 4797.65, 24204.30, 187500.00, 187500.00, -187500.02, -187500.02, -187500.02, -187500.02, 0.006, -0.016, 1.028, 17:06:41.692
91, 4308.21, 23756.51, 187500.00, 187500.00, -187500.02, -187500.02, -187500.02, -187500.02, 0.000, 0.000, 0.000, 17:06:41.692
92, 4210.24, 23621.26, 187500.00, 187500.00, -187500.02, -187500.02, -187500.02, -187500.02, 0.000, 0.000, 0.000, 17:06:41.692
93, 4813.60, 24168.18, 187500.00, 187500.00, -187500.02, -187500.02, -187500.02, -187500.02, 0.000, 0.000, 0.000, 17:06:41.692
94, 4989.87, 24367.63, 187500.00, 187500.00, -187500.02, -187500.02, -187500.02, -187500.02, 0.000, 0.000, 0.000, 17:06:41.692
95, 4792.30, 24201.33, 187500.00, 187500.00, -187500.02, -187500.02, -187500.02, -187500.02, 0.000, 0.000, 0.000, 17:06:41.692
96, 4296.79, 23749.82, 187500.00, 187500.00, -187500.02, -187500.02, -187500.02, -187500.02, 0.000, 0.000, 0.000, 17:06:41.692
97, 4200.45, 23613.90, 187500.00, 187500.00, -187500.02, -187500.02, -187500.02, -187500.02, 0.000, 0.000, 0.000, 17:06:41.693
98, 4813.54, 24169.57, 187500.00, 187500.00, -187500.02, -187500.02, -187500.02, -187500.02, 0.000, 0.000, 0.000, 17:06:41.693
99, 4988.86, 24370.55, 187500.00, 187500.00, -187500.02, -187500.02, -187500.02, -187500.02, 0.000, 0.000, 0.000, 17:06:41.693
100, 4793.13, 24201.48, 187500.00, 187500.00, -187500.02, -187500.02, -187500.02, -187500.02, 0.012, -0.016, 1.028, 17:06:41.693
101, 4294.37, 23745.33, 187500.00, 187500.00, -187500.02, -187500.02, -187500.02, -187500.02, 0.000, 0.000, 0.000, 17:06:41.693
102, 4191.82, 23605.19, 187500.00, 187500.00, -187500.02, -187500.02, -187500.02, -187500.02, 0.000, 0.000, 0.000, 17:06:41.693
103, 4803.48, 24156.87, 187500.00, 187500.00, -187500.02, -187500.02, -187500.02, -187500.02, 0.000, 0.000, 0.000, 17:06:41.693
104, 4982.94, 24357.88, 187500.00, 187500.00, -187500.02, -187500.02, -187500.02, -187500.02, 0.000, 0.000, 0.000, 17:06:41.693
105, 4799.01, 24202.33, 187500.00, 187500.00, -187500.02, -187500.02, -187500.02, -187500.02, 0.000, 0.000, 0.000, 17:06:41.693
106, 4310.78, 23759.54, 187500.00, 187500.00, -187500.02, -187500.02, -187500.02, -187500.02, 0.000, 0.000, 0.000, 17:06:41.694
107, 4205.68, 23617.97, 187500.00, 187500.00, -187500.02, -187500.02, -187500.02, -187500.02, 0.000, 0.000, 0.000, 17:06:41.694
108, 4816.89, 24169.79, 187500.00, 187500.00, -187500.02, -187500.02, -187500.02, -187500.02, 0.000, 0.000, 0.000, 17:06:41.694
109, 4999.62, 24376.50, 187500.00, 187500.00, -187500.02, -187500.02, -187500.02, -187500.02, 0.000, 0.000, 0.000, 17:06:41.694
110, 4809.83, 24214.78, 187500.00, 187500.00, -187500.02, -187500.02, -187500.02, -187500.02, 0.010, -0.014, 1.026, 17:06:41.694
111, 4315.67, 23767.57, 187500.00, 187500.00, -187500.02, -187500.02, -187500.02, -187500.02, 0.000, 0.000, 0.000, 17:06:41.694
112, 4209.37, 23626.53, 187500.00, 187500.00, -187500.02, -187500.02, -187500.02, -187500.02, 0.000, 0.000, 0.000, 17:06:41.694
113, 4822.57, 24181.48, 187500.00, 187500.00, -187500.02, -187500.02, -187500.02, -187500.02, 0.000, 0.000, 0.000, 17:06:41.694
114, 5007.89, 24390.36, 187500.00, 187500.00, -187500.02, -187500.02, -187500.02, -187500.02, 0.000, 0.000, 0.000, 17:06:41.694
115, 4819.44, 24230.52, 187500.00, 187500.00, -187500.02, -187500.02, -187500.02, -187500.02, 0.000, 0.000, 0.000, 17:06:41.695
116, 4324.93, 23782.12, 187500.00, 187500.00, -187500.02, -187500.02, -187500.02, -187500.02, 0.000, 0.000, 0.000, 17:06:41.695
117, 4202.11, 23625.44, 187500.00, 187500.00, -187500.02, -187500.02, -187500.02, -187500.02, 0.000, 0.000, 0.000, 17:06:41.695
118, 4815.93, 24181.41, 187500.00, 187500.00, -187500.02, -187500.02, -187500.02, -187500.02, 0.000, 0.000, 0.000, 17:06:41.695
119, 5013.29, 24401.04, 187500.00, 187500.00, -187500.02, -187500.02, -187500.02, -187500.02, 0.000, 0.000, 0.000, 17:06:41.695
120, 4817.38, 24233.27, 187500.00, 187500.00, -187500.02, -187500.02, -187500.02, -187500.02, 0.008, -0.014, 1.034, 17:06:41.695
121, 4323.63, 23779.24, 187500.00, 187500.00, -187500.02, -187500.02, -187500.02, -187500.02, 0.000, 0.000, 0.000, 17:06:41.695
122, 4200.16, 23620.12, 187500.00, 187500.00, -187500.02, -187500.02, -187500.02, -187500.02, 0.000, 0.000, 0.000, 17:06:41.695
123, 4801.53, 24161.21, 187500.00, 187500.00, -187500.02, -187500.02, -187500.02, -187500.02, 0.000, 0.000, 0.000, 17:06:41.696
124, 4995.15, 24376.25, 187500.00, 187500.00, -187500.02, -187500.02, -187500.02, -187500.02, 0.000, 0.000, 0.000, 17:06:41.696
125, 4801.53, 24212.01, 187500.00, 187500.00, -187500.02, -187500.02, -187500.02, -187500.02, 0.000, 0.000, 0.000, 17:06:41.696
126, 4325.13, 23780.29, 187500.00, 187500.00, -187500.02, -187500.02, -187500.02, -187500.02, 0.000, 0.000, 0.000, 17:06:41.696
127, 4205.03, 23626.93, 187500.00, 187500.00, -187500.02, -187500.02, -187500.02, -187500.02, 0.000, 0.000, 0.000, 17:06:41.696
128, 4809.27, 24170.30, 187500.00, 187500.00, -187500.02, -187500.02, -187500.02, -187500.02, 0.000, 0.000, 0.000, 17:06:41.696
129, 5009.00, 24390.18, 187500.00, 187500.00, -187500.02, -187500.02, -187500.02, -187500.02, 0.000, 0.000, 0.000, 17:06:41.696
130, 4822.70, 24231.77, 187500.00, 187500.00, -187500.02, -187500.02, -187500.02, -187500.02, 0.004, -0.012, 1.026, 17:06:41.696
131, 4330.25, 23781.32, 187500.00, 187500.00, -187500.02, -187500.02, -187500.02, -187500.02, 0.000, 0.000, 0.000, 17:06:41.696
132, 4202.44, 23620.67, 187500.00, 187500.00, -187500.02, -187500.02, -187500.02, -187500.02, 0.000, 0.000, 0.000, 17:06:41.697
133, 4804.57, 24167.22, 187500.00, 187500.00, -187500.02, -187500.02, -187500.02, -187500.02, 0.000, 0.000, 0.000, 17:06:41.697
134, 4994.70, 24379.90, 187500.00, 187500.00, -187500.02, -187500.02, -187500.02, -187500.02, 0.000, 0.000, 0.000, 17:06:41.697
135, 4813.63, 24226.45, 187500.00, 187500.00, -187500.02, -187500.02, -187500.02, -187500.02, 0.000, 0.000, 0.000, 17:06:41.697
136, 4330.94, 23787.87, 187500.00, 187500.00, -187500.02, -187500.02, -187500.02, -187500.02, 0.000, 0.000, 0.000, 17:06:41.697
137, 4197.28, 23620.92, 187500.00, 187500.00, -187500.02, -187500.02, -187500.02, -187500.02, 0.000, 0.000, 0.000, 17:06:41.697
138, 4801.87, 24162.82, 187500.00, 187500.00, -187500.02, -187500.02, -187500.02, -187500.02, 0.000, 0.000, 0.000, 17:06:41.697
139, 5003.71, 24386.11, 187500.00, 187500.00, -187500.02, -187500.02, -187500.02, -187500.02, 0.008, -0.010, 1.026, 17:06:41.697
140, 4821.67, 24232.62, 187500.00, 187500.00, -187500.02, -187500.02, -187500.02, -187500.02, 0.000, 0.000, 0.000, 17:06:41.698
141, 4332.42, 23784.80, 187500.00, 187500.00, -187500.02, -187500.02, -187500.02, -187500.02, 0.000, 0.000, 0.000, 17:06:41.698
142, 4197.72, 23618.24, 187500.00, 187500.00, -187500.02, -187500.02, -187500.02, -187500.02, 0.000, 0.000, 0.000, 17:06:41.698
143, 4806.14, 24171.91, 187500.00, 187500.00, -187500.02, -187500.02, -187500.02, -187500.02, 0.000, 0.000, 0.000, 17:06:41.698
144, 5007.89, 24398.29, 187500.00, 187500.00, -187500.02, -187500.02, -187500.02, -187500.02, 0.000, 0.000, 0.000, 17:06:41.698
145, 4823.53, 24240.47, 187500.00, 187500.00, -187500.02, -187500.02, -187500.02, -187500.02, 0.000, 0.000, 0.000, 17:06:41.698
146, 4335.14, 23793.79, 187500.00, 187500.00, -187500.02, -187500.02, -187500.02, -187500.02, 0.000, 0.000, 0.000, 17:06:41.698
147, 4201.48, 23628.99, 187500.00, 187500.00, -187500.02, -187500.02, -187500.02, -187500.02, 0.000, 0.000, 0.000, 17:06:41.698
148, 4804.93, 24172.61, 187500.00, 187500.00, -187500.02, -187500.02, -187500.02, -187500.02, 0.000, 0.000, 0.000, 17:06:41.699
149, 5007.64, 24396.79, 187500.00, 187500.00, -187500.02, -187500.02, -187500.02, -187500.02, 0.008, -0.012, 1.030, 17:06:41.699
150, 4827.33, 24245.25, 187500.00, 187500.00, -187500.02, -187500.02, -187500.02, -187500.02, 0.000, 0.000, 0.000, 17:06:41.699
151, 4343.75, 23805.48, 187500.00, 187500.00, -187500.02, -187500.02, -187500.02, -187500.02, 0.000, 0.000, 0.000, 17:06:41.699
152, 4207.16, 23636.61, 187500.00, 187500.00, -187500.02, -187500.02, -187500.02, -187500.02, 0.000, 0.000, 0.000, 17:06:41.699
153, 4802.23, 24169.97, 187500.00, 187500.00, -187500.02, -187500.02, -187500.02, -187500.02, 0.000, 0.000, 0.000, 17:06:41.699
154, 5012.29, 24401.38, 187500.00, 187500.00, -187500.02, -187500.02, -187500.02, -187500.02, 0.000, 0.000, 0.000, 17:06:41.699
155, 4836.90, 24252.60, 187500.00, 187500.00, -187500.02, -187500.02, -187500.02, -187500.02, 0.000, 0.000, 0.000, 17:06:41.699
156, 4353.09, 23812.59, 187500.00, 187500.00, -187500.02, -187500.02, -187500.02, -187500.02, 0.000, 0.000, 0.000, 17:06:41.700
157, 4206.53, 23635.43, 187500.00, 187500.00, -187500.02, -187500.02, -187500.02, -187500.02, 0.000, 0.000, 0.000, 17:06:41.700
158, 4802.92, 24170.39, 187500.00, 187500.00, -187500.02, -187500.02, -187500.02, -187500.02, 0.000, 0.000, 0.000, 17:06:41.700
159, 5005.45, 24393.15, 187500.00, 187500.00, -187500.02, -187500.02, -187500.02, -187500.02, 0.008, -0.016, 1.026, 17:06:41.700
160, 4827.08, 24247.46, 187500.00, 187500.00, -187500.02, -187500.02, -187500.02, -187500.02, 0.000, 0.000, 0.000, 17:06:41.700
161, 4344.08, 23805.72, 187500.00, 187500.00, -187500.02, -187500.02, -187500.02, -187500.02, 0.000, 0.000, 0.000, 17:06:41.700
162, 4195.06, 23623.76, 187500.00, 187500.00, -187500.02, -187500.02, -187500.02, -187500.02, 0.000, 0.000, 0.000, 17:06:41.700
163, 4796.21, 24160.80, 187500.00, 187500.00, -187500.02, -187500.02, -187500.02, -187500.02, 0.000, 0.000, 0.000, 17:06:41.700
164, 5000.44, 24385.26, 187500.00, 187500.00, -187500.02, -187500.02, -187500.02, -187500.02, 0.000, 0.000, 0.000, 17:06:41.701
165, 4828.29, 24241.09, 187500.00, 187500.00, -187500.02, -187500.02, -187500.02, -187500.02, 0.000, 0.000, 0.000, 17:06:41.701
166, 4351.73, 23810.66, 187500.00, 187500.00, -187500.02, -187500.02, -187500.02, -187500.02, 0.000, 0.000, 0.000, 17:06:41.701
167, 4187.24, 23618.35, 187500.00, 187500.00, -187500.02, -187500.02, -187500.02, -187500.02, 0.000, 0.000, 0.000, 17:06:41.701
168, 4786.96, 24158.08, 187500.00, 187500.00, -187500.02, -187500.02, -187500.02, -187500.02, 0.000, 0.000, 0.000, 17:06:41.701
169, 5003.57, 24395.05, 187500.00, 187500.00, -187500.02, -187500.02, -187500.02, -187500.02, 0.004, -0.022, 1.030, 17:06:41.701
170, 4830.21, 24251.51, 187500.00, 187500.00, -187500.02, -187500.02, -187500.02, -187500.02, 0.000, 0.000, 0.000, 17:06:41.701
171, 4356.09, 23818.15, 187500.00, 187500.00, -187500.02, -187500.02, -187500.02, -187500.02, 0.000, 0.000, 0.000, 17:06:41.701
172, 4192.78, 23621.68, 187500.00, 187500.00, -187500.02, -187500.02, -187500.02, -187500.02, 0.000, 0.000, 0.000, 17:06:41.702
173, 4788.68, 24155.04, 187500.00, 187500.00, -187500.02, -187500.02, -187500.02, -187500.02, 0.000, 0.000, 0.000, 17:06:41.702
174, 5007.22, 24395.12, 187500.00, 187500.00, -187500.02, -187500.02, -187500.02, -187500.02, 0.000, 0.000, 0.000, 17:06:41.702
175, 4825.32, 24243.86, 187500.00, 187500.00, -187500.02, -187500.02, -187500.02, -187500.02, 0.000, 0.000, 0.000, 17:06:41.702
176, 4346.94, 23812.38, 187500.00, 187500.00, -187500.02, -187500.02, -187500.02, -187500.02, 0.000, 0.000, 0.000, 17:06:41.702
177, 4181.39, 23614.91, 187500.00, 187500.00, -187500.02, -187500.02, -187500.02, -187500.02, 0.000, 0.000, 0.000, 17:06:41.702
178, 4789.38, 24159.24, 187500.00, 187500.00, -187500.02, -187500.02, -187500.02, -187500.02, 0.000, 0.000, 0.000, 17:06:41.702
179, 5014.12, 24403.25, 187500.00, 187500.00, -187500.02, -187500.02, -187500.02, -187500.02, 0.006, -0.018, 1.028, 17:06:41.702
180, 4830.70, 24244.22, 187500.00, 187500.00, -187500.02, -187500.02, -187500.02, -187500.02, 0.000, 0.000, 0.000, 17:06:41.702
181, 4364.38, 23818.91, 187500.00, 187500.00, -187500.02, -187500.02, -187500.02, -187500.02, 0.000, 0.000, 0.000, 17:06:41.703
182, 4191.62, 23620.23, 187500.00, 187500.00, -187500.02, -187500.02, -187500.02, -187500.02, 0.000, 0.000, 0.000, 17:06:41.703
183, 4782.13, 24151.06, 187500.00, 187500.00, -187500.02, -187500.02, -187500.02, -187500.02, 0.000, 0.000, 0.000, 17:06:41.703
184, 5011.64, 24400.13, 187500.00, 187500.00, -187500.02, -187500.02, -187500.02, -187500.02, 0.000, 0.000, 0.000, 17:06:41.703
185, 4833.30, 24252.02, 187500.00, 187500.00, -187500.02, -187500.02, -187500.02, -187500.02, 0.000, 0.000, 0.000, 17:06:41.703
186, 4354.77, 23815.60, 187500.00, 187500.00, -187500.02, -187500.02, -187500.02, -187500.02, 0.000, 0.000, 0.000, 17:06:41.703
187, 4176.89, 23608.54, 187500.00, 187500.00, -187500.02, -187500.02, -187500.02, -187500.02, 0.000, 0.000, 0.000, 17:06:41.703
188, 4772.07, 24142.19, 187500.00, 187500.00, -187500.02, -187500.02, -187500.02, -187500.02, 0.000, 0.000, 0.000, 17:06:41.703
189, 5004.29, 24395.63, 187500.00, 187500.00, -187500.02, -187500.02, -187500.02, -187500.02, 0.012, -0.018, 1.030, 17:06:41.704
190, 4831.40, 24253.52, 187500.00, 187500.00, -187500.02, -187500.02, -187500.02, -187500.02, 0.000, 0.000, 0.000, 17:06:41.704
191, 4354.86, 23821.19, 187500.00, 187500.00, -187500.02, -187500.02, -187500.02, -187500.02, 0.000, 0.000, 0.000, 17:06:41.704
192, 4172.85, 23611.49, 187500.00, 187500.00, -187500.02, -187500.02, -187500.02, -187500.02, 0.000, 0.000, 0.000, 17:06:41.704
193, 4765.35, 24140.62, 187500.00, 187500.00, -187500.02, -187500.02, -187500.02, -187500.02, 0.000, 0.000, 0.000, 17:06:41.704
194, 4991.57, 24385.44, 187500.00, 187500.00, -187500.02, -187500.02, -187500.02, -187500.02, 0.000, 0.000, 0.000, 17:06:41.704
195, 4813.00, 24236.91, 187500.00, 187500.00, -187500.02, -187500.02, -187500.02, -187500.02, 0.000, 0.000, 0.000, 17:06:41.704
196, 4342.41, 23805.81, 187500.00, 187500.00, -187500.02, -187500.02, -187500.02, -187500.02, 0.000, 0.000, 0.000, 17:06:41.704
197, 4164.35, 23599.11, 187500.00, 187500.00, -187500.02, -187500.02, -187500.02, -187500.02, 0.000, 0.000, 0.000, 17:06:41.704
198, 4769.97, 24144.13, 187500.00, 187500.00, -187500.02, -187500.02, -187500.02, -187500.02, 0.000, 0.000, 0.000, 17:06:41.705
199, 4998.43, 24391.41, 187500.00, 187500.00, -187500.02, -187500.02, -187500.02, -187500.02, 0.012, -0.012, 1.028, 17:06:41.705
200, 4830.37, 24250.99, 187500.00, 187500.00, -187500.02, -187500.02, -187500.02, -187500.02, 0.000, 0.000, 0.000, 17:06:41.705
201, 4353.56, 23815.85, 187500.00, 187500.00, -187500.02, -187500.02, -187500.02, -187500.02, 0.000, 0.000, 0.000, 17:06:41.705
202, 4164.82, 23598.10, 187500.00, 187500.00, -187500.02, -187500.02, -187500.02, -187500.02, 0.000, 0.000, 0.000, 17:06:41.705
203, 4754.91, 24123.95, 187500.00, 187500.00, -187500.02, -187500.02, -187500.02, -187500.02, 0.000, 0.000, 0.000, 17:06:41.705
204, 4993.92, 24381.39, 187500.00, 187500.00, -187500.02, -187500.02, -187500.02, -187500.02, 0.000, 0.000, 0.000, 17:06:41.705
205, 4818.83, 24236.17, 187500.00, 187500.00, -187500.02, -187500.02, -187500.02, -187500.02, 0.000, 0.000, 0.000, 17:06:41.705
206, 4349.94, 23811.94, 187500.00, 187500.00, -187500.02, -187500.02, -187500.02, -187500.02, 0.000, 0.000, 0.000, 17:06:41.705
207, 4155.90, 23592.51, 187500.00, 187500.00, -187500.02, -187500.02, -187500.02, -187500.02, 0.000, 0.000, 0.000, 17:06:41.706
208, 4743.96, 24114.54, 187500.00, 187500.00, -187500.02, -187500.02, -187500.02, -187500.02, 0.000, 0.000, 0.000, 17:06:41.706
209, 4981.09, 24372.19, 187500.00, 187500.00, -187500.02, -187500.02, -187500.02, -187500.02, 0.008, -0.016, 1.030, 17:06:42.172
210, 4814.74, 24234.21, 187500.00, 187500.00, -187500.02, -187500.02, -187500.02, -187500.02, 0.000, 0.000, 0.000, 17:06:42.173
211, 4354.97, 23815.18, 187500.00, 187500.00, -187500.02, -187500.02, -187500.02, -187500.02, 0.000, 0.000, 0.000, 17:06:42.173
212, 4155.12, 23587.30, 187500.00, 187500.00, -187500.02, -187500.02, -187500.02, -187500.02, 0.000, 0.000, 0.000, 17:06:42.173
213, 4744.02, 24109.64, 187500.00, 187500.00, -187500.02, -187500.02, -187500.02, -187500.02, 0.000, 0.000, 0.000, 17:06:42.173
214, 4983.03, 24366.60, 187500.00, 187500.00, -187500.02, -187500.02, -187500.02, -187500.02, 0.000, 0.000, 0.000, 17:06:42.173
215, 4825.12, 24237.58, 187500.00, 187500.00, -187500.02, -187500.02, -187500.02, -187500.02, 0.000, 0.000, 0.000, 17:06:42.173
216, 4357.54, 23813.93, 187500.00, 187500.00, -187500.02, -187500.02, -187500.02, -187500.02, 0.000, 0.000, 0.000, 17:06:42.173
217, 4154.27, 23587.88, 187500.00, 187500.00, -187500.02, -187500.02, -187500.02, -187500.02, 0.000, 0.000, 0.000, 17:06:42.173
218, 4745.88, 24116.93, 187500.00, 187500.00, -187500.02, -187500.02, -187500.02, -187500.02, 0.000, 0.000, 0.000, 17:06:42.173
219, 4993.80, 24381.48, 187500.00, 187500.00, -187500.02, -187500.02, -187500.02, -187500.02, 0.006, -0.012, 1.022, 17:06:42.174
220, 4827.84, 24243.15, 187500.00, 187500.00, -187500.02, -187500.02, -187500.02, -187500.02, 0.000, 0.000, 0.000, 17:06:42.174
221, 4357.79, 23816.54, 187500.00, 187500.00, -187500.02, -187500.02, -187500.02, -187500.02, 0.000, 0.000, 0.000, 17:06:42.174
222, 4143.37, 23578.50, 187500.00, 187500.00, -187500.02, -187500.02, -187500.02, -187500.02, 0.000, 0.000, 0.000, 17:06:42.174
223, 4731.89, 24103.20, 187500.00, 187500.00, -187500.02, -187500.02, -187500.02, -187500.02, 0.000, 0.000, 0.000, 17:06:42.174
224, 4987.64, 24375.92, 187500.00, 187500.00, -187500.02, -187500.02, -187500.02, -187500.02, 0.000, 0.000, 0.000, 17:06:42.174
225, 4820.69, 24233.80, 187500.00, 187500.00, -187500.02, -187500.02, -187500.02, -187500.02, 0.000, 0.000, 0.000, 17:06:42.174
226, 4359.84, 23814.84, 187500.00, 187500.00, -187500.02, -187500.02, -187500.02, -187500.02, 0.000, 0.000, 0.000, 17:06:42.174
227, 4152.37, 23583.48, 187500.00, 187500.00, -187500.02, -187500.02, -187500.02, -187500.02, 0.000, 0.000, 0.000, 17:06:42.175
228, 4736.18, 24104.43, 187500.00, 187500.00, -187500.02, -187500.02, -187500.02, -187500.02, 0.000, 0.000, 0.000, 17:06:42.175
229, 4993.18, 24378.42, 187500.00, 187500.00, -187500.02, -187500.02, -187500.02, -187500.02, 0.010, -0.012, 1.030, 17:06:42.175
230, 4826.03, 24236.62, 187500.00, 187500.00, -187500.02, -187500.02, -187500.02, -187500.02, 0.000, 0.000, 0.000, 17:06:42.175
231, 4359.10, 23813.30, 187500.00, 187500.00, -187500.02, -187500.02, -187500.02, -187500.02, 0.000, 0.000, 0.000, 17:06:42.175
232, 4144.15, 23577.92, 187500.00, 187500.00, -187500.02, -187500.02, -187500.02, -187500.02, 0.000, 0.000, 0.000, 17:06:42.175
233, 4740.45, 24109.84, 187500.00, 187500.00, -187500.02, -187500.02, -187500.02, -187500.02, 0.000, 0.000, 0.000, 17:06:42.175
234, 4994.39, 24380.19, 187500.00, 187500.00, -187500.02, -187500.02, -187500.02, -187500.02, 0.000, 0.000, 0.000, 17:06:42.175
235, 4835.73, 24248.24, 187500.00, 187500.00, -187500.02, -187500.02, -187500.02, -187500.02, 0.000, 0.000, 0.000, 17:06:42.175
236, 4367.37, 23820.52, 187500.00, 187500.00, -187500.02, -187500.02, -187500.02, -187500.02, 0.000, 0.000, 0.000, 17:06:42.176
237, 4145.02, 23576.53, 187500.00, 187500.00, -187500.02, -187500.02, -187500.02, -187500.02, 0.000, 0.000, 0.000, 17:06:42.176
238, 4728.80, 24096.45, 187500.00, 187500.00, -187500.02, -187500.02, -187500.02, -187500.02, 0.000, 0.000, 0.000, 17:06:42.176
239, 4982.43, 24368.36, 187500.00, 187500.00, -187500.02, -187500.02, -187500.02, -187500.02, 0.010, -0.016, 1.026, 17:06:42.176
240, 4828.13, 24242.16, 187500.00, 187500.00, -187500.02, -187500.02, -187500.02, -187500.02, 0.000, 0.000, 0.000, 17:06:42.176
241, 4360.18, 23818.00, 187500.00, 187500.00, -187500.02, -187500.02, -187500.02, -187500.02, 0.000, 0.000, 0.000, 17:06:42.176
242, 4136.93, 23572.91, 187500.00, 187500.00, -187500.02, -187500.02, -187500.02, -187500.02, 0.000, 0.000, 0.000, 17:06:42.176
243, 4728.98, 24098.73, 187500.00, 187500.00, -187500.02, -187500.02, -187500.02, -187500.02, 0.000, 0.000, 0.000, 17:06:42.176
244, 4993.76, 24381.71, 187500.00, 187500.00, -187500.02, -187500.02, -187500.02, -187500.02, 0.000, 0.000, 0.000, 17:06:42.177
245, 4830.17, 24247.10, 187500.00, 187500.00, -187500.02, -187500.02, -187500.02, -187500.02, 0.000, 0.000, 0.000, 17:06:42.177
246, 4363.26, 23824.61, 187500.00, 187500.00, -187500.02, -187500.02, -187500.02, -187500.02, 0.000, 0.000, 0.000, 17:06:42.177
247, 4132.64, 23572.95, 187500.00, 187500.00, -187500.02, -187500.02, -187500.02, -187500.02, 0.000, 0.000, 0.000, 17:06:42.177
248, 4714.97, 24087.49, 187500.00, 187500.00, -187500.02, -187500.02, -187500.02, -187500.02, 0.000, 0.000, 0.000, 17:06:42.177
249, 4985.58, 24374.04, 187500.00, 187500.00, -187500.02, -187500.02, -187500.02, -187500.02, 0.010, -0.016, 1.026, 17:06:42.177
250, 4832.47, 24248.09, 187500.00, 187500.00, -187500.02, -187500.02, -187500.02, -187500.02, 0.000, 0.000, 0.000, 17:06:42.177
251, 4373.41, 23829.42, 187500.00, 187500.00, -187500.02, -187500.02, -187500.02, -187500.02, 0.000, 0.000, 0.000, 17:06:42.177
252, 4138.83, 23572.98, 187500.00, 187500.00, -187500.02, -187500.02, -187500.02, -187500.02, 0.000, 0.000, 0.000, 17:06:42.177
253, 4717.20, 24082.46, 187500.00, 187500.00, -187500.02, -187500.02, -187500.02, -187500.02, 0.000, 0.000, 0.000, 17:06:42.178
254, 4981.96, 24361.81, 187500.00, 187500.00, -187500.02, -187500.02, -187500.02, -187500.02, 0.000, 0.000, 0.000, 17:06:42.178
255, 4826.77, 24236.00, 187500.00, 187500.00, -187500.02, -187500.02, -187500.02, -187500.02, 0.000, 0.000, 0.000, 17:06:42.178
0, 4356.73, 23807.92, 187500.00, 187500.00, -187500.02, -187500.02, -187500.02, -187500.02, 0.000, 0.000, 0.000, 17:06:42.178
1, 4120.57, 23552.12, 187500.00, 187500.00, -187500.02, -187500.02, -187500.02, -187500.02, 0.000, 0.000, 0.000, 17:06:42.178
2, 4705.22, 24070.84, 187500.00, 187500.00, -187500.02, -187500.02, -187500.02, -187500.02, 0.000, 0.000, 0.000, 17:06:42.178
3, 4978.67, 24360.67, 187500.00, 187500.00, -187500.02, -187500.02, -187500.02, -187500.02, 0.010, -0.014, 1.024, 17:06:42.178
4, 4824.83, 24233.69, 187500.00, 187500.00, -187500.02, -187500.02, -187500.02, -187500.02, 0.000, 0.000, 0.000, 17:06:42.178
5, 4372.11, 23823.74, 187500.00, 187500.00, -187500.02, -187500.02, -187500.02, -187500.02, 0.000, 0.000, 0.000, 17:06:42.179
6, 4130.20, 23560.55, 187500.00, 187500.00, -187500.02, -187500.02, -187500.02, -187500.02, 0.000, 0.000, 0.000, 17:06:42.179
7, 4708.77, 24070.73, 187500.00, 187500.00, -187500.02, -187500.02, -187500.02, -187500.02, 0.000, 0.000, 0.000, 17:06:42.179
8, 4985.85, 24363.76, 187500.00, 187500.00, -187500.02, -187500.02, -187500.02, -187500.02, 0.000, 0.000, 0.000, 17:06:42.179
9, 4833.18, 24236.60, 187500.00, 187500.00, -187500.02, -187500.02, -187500.02, -187500.02, 0.000, 0.000, 0.000, 17:06:42.179
10, 4380.29, 23823.52, 187500.00, 187500.00, -187500.02, -187500.02, -187500.02, -187500.02, 0.000, 0.000, 0.000, 17:06:42.179
11, 4133.49, 23558.20, 187500.00, 187500.00, -187500.02, -187500.02, -187500.02, -187500.02, 0.000, 0.000, 0.000, 17:06:42.179
12, 4710.83, 24066.81, 187500.00, 187500.00, -187500.02, -187500.02, -187500.02, -187500.02, 0.006, -0.010, 1.026, 17:06:42.180
13, 4981.09, 24352.52, 187500.00, 187500.00, -187500.02, -187500.02, -187500.02, -187500.02, 0.000, 0.000, 0.000, 17:06:42.180
14, 4828.22, 24227.17, 187500.00, 187500.00, -187500.02, -187500.02, -187500.02, -187500.02, 0.000, 0.000, 0.000, 17:06:42.180
15, 4373.99, 23818.60, 187500.00, 187500.00, -187500.02, -187500.02, -187500.02, -187500.02, 0.000, 0.000, 0.000, 17:06:42.180
16, 4130.00, 23558.54, 187500.00, 187500.00, -187500.02, -187500.02, -187500.02, -187500.02, 0.000, 0.000, 0.000, 17:06:42.180
17, 4696.57, 24059.62, 187500.00, 187500.00, -187500.02, -187500.02, -187500.02, -187500.02, 0.000, 0.000, 0.000, 17:06:42.180
18, 4975.63, 24354.42, 187500.00, 187500.00, -187500.02, -187500.02, -187500.02, -187500.02, 0.000, 0.000, 0.000, 17:06:42.180
19, 4830.82, 24236.71, 187500.00, 187500.00, -187500.02, -187500.02, -187500.02, -187500.02, 0.000, 0.000, 0.000, 17:06:42.180
20, 4379.42, 23827.34, 187500.00, 187500.00, -187500.02, -187500.02, -187500.02, -187500.02, 0.000, 0.000, 0.000, 17:06:42.180
21, 4122.51, 23552.05, 187500.00, 187500.00, -187500.02, -187500.02, -187500.02, -187500.02, 0.000, 0.000, 0.000, 17:06:42.181
22, 4690.27, 24051.01, 187500.00, 187500.00, -187500.02, -187500.02, -187500.02, -187500.02, 0.008, -0.018, 1.024, 17:06:42.181
23, 4976.41, 24349.41, 187500.00, 187500.00, -187500.02, -187500.02, -187500.02, -187500.02, 0.000, 0.000, 0.000, 17:06:42.181
24, 4834.19, 24233.04, 187500.00, 187500.00, -187500.02, -187500.02, -187500.02, -187500.02, 0.000, 0.000, 0.000, 17:06:42.181
25, 4381.37, 23820.10, 187500.00, 187500.00, -187500.02, -187500.02, -187500.02, -187500.02, 0.000, 0.000, 0.000, 17:06:42.181
26, 4132.50, 23555.18, 187500.00, 187500.00, -187500.02, -187500.02, -187500.02, -187500.02, 0.000, 0.000, 0.000, 17:06:42.181
27, 4699.54, 24056.38, 187500.00, 187500.00, -187500.02, -187500.02, -187500.02, -187500.02, 0.000, 0.000, 0.000, 17:06:42.181
28, 4978.85, 24351.62, 187500.00, 187500.00, -187500.02, -187500.02, -187500.02, -187500.02, 0.000, 0.000, 0.000, 17:06:42.181
29, 4827.75, 24229.83, 187500.00, 187500.00, -187500.02, -187500.02, -187500.02, -187500.02, 0.000, 0.000, 0.000, 17:06:42.181
30, 4387.85, 23831.90, 187500.00, 187500.00, -187500.02, -187500.02, -187500.02, -187500.02, 0.000, 0.000, 0.000, 17:06:42.182
31, 4133.31, 23559.54, 187500.00, 187500.00, -187500.02, -187500.02, -187500.02, -187500.02, 0.000, 0.000, 0.000, 17:06:42.182
32, 4703.66, 24059.10, 187500.00, 187500.00, -187500.02, -187500.02, -187500.02, -187500.02, 0.008, -0.012, 1.020, 17:06:42.182
33, 4993.36, 24363.47, 187500.00, 187500.00, -187500.02, -187500.02, -187500.02, -187500.02, 0.000, 0.000, 0.000, 17:06:42.182
34, 4839.49, 24237.87, 187500.00, 187500.00, -187500.02, -187500.02, -187500.02, -187500.02, 0.000, 0.000, 0.000, 17:06:42.182
35, 4394.04, 23835.30, 187500.00, 187500.00, -187500.02, -187500.02, -187500.02, -187500.02, 0.000, 0.000, 0.000, 17:06:42.182
36, 4132.32, 23557.24, 187500.00, 187500.00, -187500.02, -187500.02, -187500.02, -187500.02, 0.000, 0.000, 0.000, 17:06:42.182
37, 4687.09, 24044.15, 187500.00, 187500.00, -187500.02, -187500.02, -187500.02, -187500.02, 0.000, 0.000, 0.000, 17:06:42.183
38, 4973.89, 24351.46, 187500.00, 187500.00, -187500.02, -187500.02, -187500.02, -187500.02, 0.000, 0.000, 0.000, 17:06:42.183
39, 4829.32, 24234.63, 187500.00, 187500.00, -187500.02, -187500.02, -187500.02, -187500.02, 0.000, 0.000, 0.000, 17:06:42.183
40, 4386.71, 23835.97, 187500.00, 187500.00, -187500.02, -187500.02, -187500.02, -187500.02, 0.000, 0.000, 0.000, 17:06:42.183
41, 4122.60, 23556.08, 187500.00, 187500.00, -187500.02, -187500.02, -187500.02, -187500.02, 0.000, 0.000, 0.000, 17:06:42.183
42, 4687.45, 24051.15, 187500.00, 187500.00, -187500.02, -187500.02, -187500.02, -187500.02, 0.006, -0.008, 1.022, 17:06:42.183
43, 4979.54, 24354.39, 187500.00, 187500.00, -187500.02, -187500.02, -187500.02, -187500.02, 0.000, 0.000, 0.000, 17:06:42.183
44, 4839.35, 24242.14, 187500.00, 187500.00, -187500.02, -187500.02, -187500.02, -187500.02, 0.000, 0.000, 0.000, 17:06:42.184
45, 4386.71, 23831.16, 187500.00, 187500.00, -187500.02, -187500.02, -187500.02, -187500.02, 0.000, 0.000, 0.000, 17:06:42.184
46, 4118.49, 23548.95, 187500.00, 187500.00, -187500.02, -187500.02, -187500.02, -187500.02, 0.000, 0.000, 0.000, 17:06:42.184
47, 4687.45, 24049.02, 187500.00, 187500.00, -187500.02, -187500.02, -187500.02, -187500.02, 0.000, 0.000, 0.000, 17:06:42.184
48, 4989.67, 24363.42, 187500.00, 187500.00, -187500.02, -187500.02, -187500.02, -187500.02, 0.000, 0.000, 0.000, 17:06:42.184
49, 4845.50, 24248.47, 187500.00, 187500.00, -187500.02, -187500.02, -187500.02, -187500.02, 0.000, 0.000, 0.000, 17:06:42.184
50, 4401.80, 23846.43, 187500.00, 187500.00, -187500.02, -187500.02, -187500.02, -187500.02, 0.000, 0.000, 0.000, 17:06:42.184
51, 4133.28, 23564.79, 187500.00, 187500.00, -187500.02, -187500.02, -187500.02, -187500.02, 0.000, 0.000, 0.000, 17:06:42.184
52, 4697.58, 24062.28, 187500.00, 187500.00, -187500.02, -187500.02, -187500.02, -187500.02, 0.010, -0.008, 1.026, 17:06:42.184
53, 4995.97, 24374.44, 187500.00, 187500.00, -187500.02, -187500.02, -187500.02, -187500.02, 0.000, 0.000, 0.000, 17:06:42.185
54, 4852.03, 24256.25, 187500.00, 187500.00, -187500.02, -187500.02, -187500.02, -187500.02, 0.000, 0.000, 0.000, 17:06:42.185
55, 4405.44, 23850.54, 187500.00, 187500.00, -187500.02, -187500.02, -187500.02, -187500.02, 0.000, 0.000, 0.000, 17:06:42.185
56, 4125.01, 23553.64, 187500.00, 187500.00, -187500.02, -187500.02, -187500.02, -187500.02, 0.000, 0.000, 0.000, 17:06:42.185
57, 4691.12, 24051.10, 187500.00, 187500.00, -187500.02, -187500.02, -187500.02, -187500.02, 0.000, 0.000, 0.000, 17:06:42.185
58, 4997.78, 24368.56, 187500.00, 187500.00, -187500.02, -187500.02, -187500.02, -187500.02, 0.000, 0.000, 0.000, 17:06:42.185
59, 4843.87, 24244.85, 187500.00, 187500.00, -187500.02, -187500.02, -187500.02, -187500.02, 0.000, 0.000, 0.000, 17:06:42.185
60, 4401.08, 23845.13, 187500.00, 187500.00, -187500.02, -187500.02, -187500.02, -187500.02, 0.000, 0.000, 0.000, 17:06:42.185
61, 4120.34, 23551.00, 187500.00, 187500.00, -187500.02, -187500.02, -187500.02, -187500.02, 0.000, 0.000, 0.000, 17:06:42.186
62, 4681.13, 24045.09, 187500.00, 187500.00, -187500.02, -187500.02, -187500.02, -187500.02, 0.006, -0.008, 1.026, 17:06:42.186
63, 4988.62, 24364.65, 187500.00, 187500.00, -187500.02, -187500.02, -187500.02, -187500.02, 0.000, 0.000, 0.000, 17:06:42.186
64, 4842.15, 24244.13, 187500.00, 187500.00, -187500.02, -187500.02, -187500.02, -187500.02, 0.000, 0.000, 0.000, 17:06:42.186
65, 4405.39, 23847.12, 187500.00, 187500.00, -187500.02, -187500.02, -187500.02, -187500.02, 0.000, 0.000, 0.000, 17:06:42.186
66, 4121.89, 23547.52, 187500.00, 187500.00, -187500.02, -187500.02, -187500.02, -187500.02, 0.000, 0.000, 0.000, 17:06:42.187
67, 4675.22, 24032.21, 187500.00, 187500.00, -187500.02, -187500.02, -187500.02, -187500.02, 0.000, 0.000, 0.000, 17:06:42.187
68, 4986.18, 24354.13, 187500.00, 187500.00, -187500.02, -187500.02, -187500.02, -187500.02, 0.000, 0.000, 0.000, 17:06:42.187
69, 4843.71, 24238.83, 187500.00, 187500.00, -187500.02, -187500.02, -187500.02, -187500.02, 0.000, 0.000, 0.000, 17:06:42.187
70, 4410.58, 23845.47, 187500.00, 187500.00, -187500.02, -187500.02, -187500.02, -187500.02, 0.000, 0.000, 0.000, 17:06:42.187
71, 4122.47, 23546.24, 187500.00, 187500.00, -187500.02, -187500.02, -187500.02, -187500.02, 0.000, 0.000, 0.000, 17:06:42.187
72, 4686.78, 24041.20, 187500.00, 187500.00, -187500.02, -187500.02, -187500.02, -187500.02, 0.006, -0.010, 1.030, 17:06:42.188
73, 4991.01, 24357.77, 187500.00, 187500.00, -187500.02, -187500.02, -187500.02, -187500.02, 0.000, 0.000, 0.000, 17:06:42.653
74, 4852.41, 24250.93, 187500.00, 187500.00, -187500.02, -187500.02, -187500.02, -187500.02, 0.000, 0.000, 0.000, 17:06:42.653
75, 4426.72, 23867.53, 187500.00, 187500.00, -187500.02, -187500.02, -187500.02, -187500.02, 0.000, 0.000, 0.000, 17:06:42.653
76, 4133.93, 23563.83, 187500.00, 187500.00, -187500.02, -187500.02, -187500.02, -187500.02, 0.000, 0.000, 0.000, 17:06:42.653
77, 4683.05, 24042.56, 187500.00, 187500.00, -187500.02, -187500.02, -187500.02, -187500.02, 0.000, 0.000, 0.000, 17:06:42.653
78, 4998.14, 24371.02, 187500.00, 187500.00, -187500.02, -187500.02, -187500.02, -187500.02, 0.000, 0.000, 0.000, 17:06:42.654
79, 4859.22, 24262.68, 187500.00, 187500.00, -187500.02, -187500.02, -187500.02, -187500.02, 0.000, 0.000, 0.000, 17:06:42.654
80, 4415.12, 23863.01, 187500.00, 187500.00, -187500.02, -187500.02, -187500.02, -187500.02, 0.000, 0.000, 0.000, 17:06:42.654
81, 4113.35, 23548.95, 187500.00, 187500.00, -187500.02, -187500.02, -187500.02, -187500.02, 0.000, 0.000, 0.000, 17:06:42.654
82, 4665.59, 24028.28, 187500.00, 187500.00, -187500.02, -187500.02, -187500.02, -187500.02, 0.006, -0.012, 1.028, 17:06:42.654
83, 4981.78, 24353.25, 187500.00, 187500.00, -187500.02, -187500.02, -187500.02, -187500.02, 0.000, 0.000, 0.000, 17:06:42.654
84, 4846.80, 24247.35, 187500.00, 187500.00, -187500.02, -187500.02, -187500.02, -187500.02, 0.000, 0.000, 0.000, 17:06:42.654
85, 4415.34, 23860.49, 187500.00, 187500.00, -187500.02, -187500.02, -187500.02, -187500.02, 0.000, 0.000, 0.000, 17:06:42.654
86, 4110.20, 23544.59, 187500.00, 187500.00, -187500.02, -187500.02, -187500.02, -187500.02, 0.000, 0.000, 0.000, 17:06:42.655
87, 4660.88, 24026.40, 187500.00, 187500.00, -187500.02, -187500.02, -187500.02, -187500.02, 0.000, 0.000, 0.000, 17:06:42.655
88, 4978.60, 24354.44, 187500.00, 187500.00, -187500.02, -187500.02, -187500.02, -187500.02, 0.000, 0.000, 0.000, 17:06:42.655
89, 4840.40, 24243.15, 187500.00, 187500.00, -187500.02, -187500.02, -187500.02, -187500.02, 0.000, 0.000, 0.000, 17:06:42.655
90, 4411.99, 23854.21, 187500.00, 187500.00, -187500.02, -187500.02, -187500.02, -187500.02, 0.000, 0.000, 0.000, 17:06:42.655
91, 4103.98, 23536.45, 187500.00, 187500.00, -187500.02, -187500.02, -187500.02, -187500.02, 0.000, 0.000, 0.000, 17:06:42.655
92, 4650.93, 24009.71, 187500.00, 187500.00, -187500.02, -187500.02, -187500.02, -187500.02, 0.010, -0.016, 1.030, 17:06:42.655
93, 4976.79, 24346.32, 187500.00, 187500.00, -187500.02, -187500.02, -187500.02, -187500.02, 0.000, 0.000, 0.000, 17:06:42.655
94, 4835.44, 24237.76, 187500.00, 187500.00, -187500.02, -187500.02, -187500.02, -187500.02, 0.000, 0.000, 0.000, 17:06:42.655
95, 4411.74, 23855.68, 187500.00, 187500.00, -187500.02, -187500.02, -187500.02, -187500.02, 0.000, 0.000, 0.000, 17:06:42.656
96, 4107.11, 23539.85, 187500.00, 187500.00, -187500.02, -187500.02, -187500.02, -187500.02, 0.000, 0.000, 0.000, 17:06:42.656
97, 4654.97, 24017.02, 187500.00, 187500.00, -187500.02, -187500.02, -187500.02, -187500.02, 0.000, 0.000, 0.000, 17:06:42.656
98, 4981.96, 24355.44, 187500.00, 187500.00, -187500.02, -187500.02, -187500.02, -187500.02, 0.000, 0.000, 0.000, 17:06:42.656
99, 4846.86, 24247.93, 187500.00, 187500.00, -187500.02, -187500.02, -187500.02, -187500.02, 0.000, 0.000, 0.000, 17:06:42.656
100, 4420.95, 23861.76, 187500.00, 187500.00, -187500.02, -187500.02, -187500.02, -187500.02, 0.000, 0.000, 0.000, 17:06:42.656
101, 4108.63, 23542.22, 187500.00, 187500.00, -187500.02, -187500.02, -187500.02, -187500.02, 0.000, 0.000, 0.000, 17:06:42.656
102, 4651.60, 24016.12, 187500.00, 187500.00, -187500.02, -187500.02, -187500.02, -187500.02, 0.014, -0.016, 1.026, 17:06:42.656
103, 4984.22, 24360.14, 187500.00, 187500.00, -187500.02, -187500.02, -187500.02, -187500.02, 0.000, 0.000, 0.000, 17:06:42.656
104, 4851.80, 24259.24, 187500.00, 187500.00, -187500.02, -187500.02, -187500.02, -187500.02, 0.000, 0.000, 0.000, 17:06:42.657
105, 4427.28, 23876.45, 187500.00, 187500.00, -187500.02, -187500.02, -187500.02, -187500.02, 0.000, 0.000, 0.000, 17:06:42.657
106, 4121.93, 23560.59, 187500.00, 187500.00, -187500.02, -187500.02, -187500.02, -187500.02, 0.000, 0.000, 0.000, 17:06:42.657
107, 4662.66, 24030.56, 187500.00, 187500.00, -187500.02, -187500.02, -187500.02, -187500.02, 0.000, 0.000, 0.000, 17:06:42.657
108, 4983.92, 24354.04, 187500.00, 187500.00, -187500.02, -187500.02, -187500.02, -187500.02, 0.000, 0.000, 0.000, 17:06:42.657
109, 4850.02, 24247.87, 187500.00, 187500.00, -187500.02, -187500.02, -187500.02, -187500.02, 0.000, 0.000, 0.000, 17:06:42.657
110, 4435.01, 23874.63, 187500.00, 187500.00, -187500.02, -187500.02, -187500.02, -187500.02, 0.000, 0.000, 0.000, 17:06:42.657
111, 4111.80, 23544.61, 187500.00, 187500.00, -187500.02, -187500.02, -187500.02, -187500.02, 0.000, 0.000, 0.000, 17:06:42.657
112, 4647.53, 24010.09, 187500.00, 187500.00, -187500.02, -187500.02, -187500.02, -187500.02, 0.012, -0.018, 1.028, 17:06:42.658
113, 4983.75, 24356.70, 187500.00, 187500.00, -187500.02, -187500.02, -187500.02, -187500.02, 0.000, 0.000, 0.000, 17:06:42.658
114, 4853.41, 24254.79, 187500.00, 187500.00, -187500.02, -187500.02, -187500.02, -187500.02, 0.000, 0.000, 0.000, 17:06:42.658
115, 4433.20, 23872.49, 187500.00, 187500.00, -187500.02, -187500.02, -187500.02, -187500.02, 0.000, 0.000, 0.000, 17:06:42.658
116, 4104.20, 23532.21, 187500.00, 187500.00, -187500.02, -187500.02, -187500.02, -187500.02, 0.000, 0.000, 0.000, 17:06:42.658
117, 4637.94, 23993.57, 187500.00, 187500.00, -187500.02, -187500.02, -187500.02, -187500.02, 0.000, 0.000, 0.000, 17:06:42.658
118, 4970.94, 24336.31, 187500.00, 187500.00, -187500.02, -187500.02, -187500.02, -187500.02, 0.000, 0.000, 0.000, 17:06:42.658
119, 4841.23, 24242.21, 187500.00, 187500.00, -187500.02, -187500.02, -187500.02, -187500.02, 0.000, 0.000, 0.000, 17:06:42.658
120, 4418.98, 23864.13, 187500.00, 187500.00, -187500.02, -187500.02, -187500.02, -187500.02, 0.000, 0.000, 0.000, 17:06:42.658
121, 4090.32, 23528.34, 187500.00, 187500.00, -187500.02, -187500.02, -187500.02, -187500.02, 0.000, 0.000, 0.000, 17:06:42.659
122, 4626.54, 23991.78, 187500.00, 187500.00, -187500.02, -187500.02, -187500.02, -187500.02, 0.008, -0.012, 1.020, 17:06:42.659
123, 4966.07, 24341.41, 187500.00, 187500.00, -187500.02, -187500.02, -187500.02, -187500.02, 0.000, 0.000, 0.000, 17:06:42.659
124, 4832.47, 24237.29, 187500.00, 187500.00, -187500.02, -187500.02, -187500.02, -187500.02, 0.000, 0.000, 0.000, 17:06:42.659
125, 4413.51, 23859.06, 187500.00, 187500.00, -187500.02, -187500.02, -187500.02, -187500.02, 0.000, 0.000, 0.000, 17:06:42.659
126, 4091.06, 23528.43, 187500.00, 187500.00, -187500.02, -187500.02, -187500.02, -187500.02, 0.000, 0.000, 0.000, 17:06:42.659
127, 4622.79, 23987.82, 187500.00, 187500.00, -187500.02, -187500.02, -187500.02, -187500.02, 0.000, 0.000, 0.000, 17:06:42.659
128, 4966.96, 24340.36, 187500.00, 187500.00, -187500.02, -187500.02, -187500.02, -187500.02, 0.000, 0.000, 0.000, 17:06:42.659
129, 4841.41, 24245.07, 187500.00, 187500.00, -187500.02, -187500.02, -187500.02, -187500.02, 0.000, 0.000, 0.000, 17:06:42.660
130, 4427.05, 23874.70, 187500.00, 187500.00, -187500.02, -187500.02, -187500.02, -187500.02, 0.000, 0.000, 0.000, 17:06:42.660
131, 4095.00, 23534.11, 187500.00, 187500.00, -187500.02, -187500.02, -187500.02, -187500.02, 0.000, 0.000, 0.000, 17:06:42.660
132, 4634.88, 23995.36, 187500.00, 187500.00, -187500.02, -187500.02, -187500.02, -187500.02, 0.010, -0.010, 1.024, 17:06:42.660
133, 4986.70, 24354.01, 187500.00, 187500.00, -187500.02, -187500.02, -187500.02, -187500.02, 0.000, 0.000, 0.000, 17:06:42.660
134, 4870.06, 24263.35, 187500.00, 187500.00, -187500.02, -187500.02, -187500.02, -187500.02, 0.000, 0.000, 0.000, 17:06:42.660
135, 4457.99, 23890.66, 187500.00, 187500.00, -187500.02, -187500.02, -187500.02, -187500.02, 0.000, 0.000, 0.000, 17:06:42.660
136, 4137.08, 23560.30, 187500.00, 187500.00, -187500.02, -187500.02, -187500.02, -187500.02, 0.000, 0.000, 0.000, 17:06:42.660
137, 4683.00, 24031.32, 187500.00, 187500.00, -187500.02, -187500.02, -187500.02, -187500.02, 0.000, 0.000, 0.000, 17:06:42.660
138, 5037.05, 24393.02, 187500.00, 187500.00, -187500.02, -187500.02, -187500.02, -187500.02, 0.000, 0.000, 0.000, 17:06:42.661
139, 4924.56, 24307.54, 187500.00, 187500.00, -187500.02, -187500.02, -187500.02, -187500.02, 0.000, 0.000, 0.000, 17:06:42.661
140, 4518.54, 23940.73, 187500.00, 187500.00, -187500.02, -187500.02, -187500.02, -187500.02, 0.000, 0.000, 0.000, 17:06:42.661
141, 4189.63, 23604.09, 187500.00, 187500.00, -187500.02, -187500.02, -187500.02, -187500.02, 0.014, -0.008, 1.030, 17:06:42.661
142, 4717.47, 24060.22, 187500.00, 187500.00, -187500.02, -187500.02, -187500.02, -187500.02, 0.000, 0.000, 0.000, 17:06:42.661
143, 5070.58, 24424.42, 187500.00, 187500.00, -187500.02, -187500.02, -187500.02, -187500.02, 0.000, 0.000, 0.000, 17:06:42.661
144, 4943.74, 24329.00, 187500.00, 187500.00, -187500.02, -187500.02, -187500.02, -187500.02, 0.000, 0.000, 0.000, 17:06:42.661
145, 4531.23, 23958.01, 187500.00, 187500.00, -187500.02, -187500.02, -187500.02, -187500.02, 0.000, 0.000, 0.000, 17:06:42.661
146, 4196.90, 23616.00, 187500.00, 187500.00, -187500.02, -187500.02, -187500.02, -187500.02, 0.000, 0.000, 0.000, 17:06:42.662
147, 4722.45, 24068.58, 187500.00, 187500.00, -187500.02, -187500.02, -187500.02, -187500.02, 0.000, 0.000, 0.000, 17:06:42.662
148, 5079.95, 24430.25, 187500.00, 187500.00, -187500.02, -187500.02, -187500.02, -187500.02, 0.000, 0.000, 0.000, 17:06:42.662
149, 4963.16, 24341.63, 187500.00, 187500.00, -187500.02, -187500.02, -187500.02, -187500.02, 0.000, 0.000, 0.000, 17:06:42.662
150, 4549.63, 23969.94, 187500.00, 187500.00, -187500.02, -187500.02, -187500.02, -187500.02, 0.000, 0.000, 0.000, 17:06:42.662
151, 4211.31, 23624.27, 187500.00, 187500.00, -187500.02, -187500.02, -187500.02, -187500.02, 0.014, -0.016, 1.034, 17:06:42.662
152, 4727.30, 24067.42, 187500.00, 187500.00, -187500.02, -187500.02, -187500.02, -187500.02, 0.000, 0.000, 0.000, 17:06:42.662
153, 5089.36, 24436.02, 187500.00, 187500.00, -187500.02, -187500.02, -187500.02, -187500.02, 0.000, 0.000, 0.000, 17:06:42.662
154, 4971.65, 24348.56, 187500.00, 187500.00, -187500.02, -187500.02, -187500.02, -187500.02, 0.000, 0.000, 0.000, 17:06:42.662
155, 4563.76, 23980.83, 187500.00, 187500.00, -187500.02, -187500.02, -187500.02, -187500.02, 0.000, 0.000, 0.000, 17:06:42.663
156, 4226.36, 23634.73, 187500.00, 187500.00, -187500.02, -187500.02, -187500.02, -187500.02, 0.000, 0.000, 0.000, 17:06:42.663
157, 4749.10, 24083.42, 187500.00, 187500.00, -187500.02, -187500.02, -187500.02, -187500.02, 0.000, 0.000, 0.000, 17:06:42.663
158, 5103.31, 24447.22, 187500.00, 187500.00, -187500.02, -187500.02, -187500.02, -187500.02, 0.000, 0.000, 0.000, 17:06:42.663
159, 4987.59, 24361.81, 187500.00, 187500.00, -187500.02, -187500.02, -187500.02, -187500.02, 0.000, 0.000, 0.000, 17:06:42.663
160, 4577.37, 23990.98, 187500.00, 187500.00, -187500.02, -187500.02, -187500.02, -187500.02, 0.000, 0.000, 0.000, 17:06:42.663
161, 4229.02, 23634.71, 187500.00, 187500.00, -187500.02, -187500.02, -187500.02, -187500.02, 0.008, -0.012, 1.032, 17:06:42.663
162, 4742.44, 24074.28, 187500.00, 187500.00, -187500.02, -187500.02, -187500.02, -187500.02, 0.000, 0.000, 0.000, 17:06:42.663
163, 5114.50, 24449.46, 187500.00, 187500.00, -187500.02, -187500.02, -187500.02, -187500.02, 0.000, 0.000, 0.000, 17:06:42.664
164, 5001.00, 24363.76, 187500.00, 187500.00, -187500.02, -187500.02, -187500.02, -187500.02, 0.000, 0.000, 0.000, 17:06:42.664
165, 4588.66, 23992.99, 187500.00, 187500.00, -187500.02, -187500.02, -187500.02, -187500.02, 0.000, 0.000, 0.000, 17:06:42.664
166, 4229.80, 23630.69, 187500.00, 187500.00, -187500.02, -187500.02, -187500.02, -187500.02, 0.000, 0.000, 0.000, 17:06:42.664
167, 4748.05, 24078.62, 187500.00, 187500.00, -187500.02, -187500.02, -187500.02, -187500.02, 0.000, 0.000, 0.000, 17:06:42.664
168, 5114.95, 24448.58, 187500.00, 187500.00, -187500.02, -187500.02, -187500.02, -187500.02, 0.000, 0.000, 0.000, 17:06:42.664
169, 5003.24, 24364.76, 187500.00, 187500.00, -187500.02, -187500.02, -187500.02, -187500.02, 0.000, 0.000, 0.000, 17:06:42.664
