%OpenBCI Raw EEG Data
%
%Sample Rate = 250.0 Hz
%First Column = SampleIndex
%Last Column = Timestamp 
%Other Columns = EEG data in microvolts followed by Accel Data (in G) interleaved with Aux Data
0, 41290.36, 62164.58, 187500.00, 187500.00, 187500.00, -187500.02, -187500.02, -187500.02, 0.016, -0.020, 1.020, 16:24:12.625
1, 41185.52, 62074.35, 187500.00, 187500.00, 187500.00, -187500.02, -187500.02, -187500.02, 0.000, 0.000, 0.000, 16:24:12.626
2, 41330.83, 62161.90, 187500.00, 187500.00, 187500.00, -187500.02, -187500.02, -187500.02, 0.000, 0.000, 0.000, 16:24:12.627
3, 41503.95, 62289.91, 187500.00, 187500.00, 187500.00, -187500.02, -187500.02, -187500.02, 0.000, 0.000, 0.000, 16:24:12.627
4, 41481.30, 62289.14, 187500.00, 187500.00, 187500.00, -187500.02, -187500.02, -187500.02, 0.000, 0.000, 0.000, 16:24:12.628
5, 41293.75, 62160.40, 187500.00, 187500.00, 187500.00, -187500.02, -187500.02, -187500.02, 0.000, 0.000, 0.000, 16:24:12.628
6, 41180.70, 62064.09, 187500.00, 187500.00, 187500.00, -187500.02, -187500.02, -187500.02, 0.000, 0.000, 0.000, 16:24:12.629
7, 41328.69, 62156.80, 187500.00, 187500.00, 187500.00, -187500.02, -187500.02, -187500.02, 0.000, -0.016, 1.040, 16:24:12.629
8, 41491.45, 62279.63, 187500.00, 187500.00, 187500.00, -187500.02, -187500.02, -187500.02, 0.000, 0.000, 0.000, 16:24:12.630
9, 41456.52, 62264.56, 187500.00, 187500.00, 187500.00, -187500.02, -187500.02, -187500.02, 0.000, 0.000, 0.000, 16:24:12.630
10, 41285.77, 62153.14, 187500.00, 187500.00, 187500.00, -187500.02, -187500.02, -187500.02, 0.000, 0.000, 0.000, 16:24:12.631
11, 41191.49, 62077.52, 187500.00, 187500.00, 187500.00, -187500.02, -187500.02, -187500.02, 0.000, 0.000, 0.000, 16:24:12.631
12, 41323.21, 62157.83, 187500.00, 187500.00, 187500.00, -187500.02, -187500.02, -187500.02, 0.000, 0.000, 0.000, 16:24:12.632
13, 41501.82, 62289.35, 187500.00, 187500.00, 187500.00, -187500.02, -187500.02, -187500.02, 0.000, 0.000, 0.000, 16:24:12.633
14, 41490.43, 62306.63, 187500.00, 187500.00, 187500.00, -187500.02, -187500.02, -187500.02, 0.000, 0.000, 0.000, 16:24:12.633
15, 41313.42, 62182.62, 187500.00, 187500.00, 187500.00, -187500.02, -187500.02, -187500.02, 0.000, 0.000, 0.000, 16:24:12.634
16, 41208.93, 62087.91, 187500.00, 187500.00, 187500.00, -187500.02, -187500.02, -187500.02, 0.000, 0.000, 0.000, 16:24:12.635
17, 41338.84, 62161.25, 187500.00, 187500.00, 187500.00, -187500.02, -187500.02, -187500.02, 0.004, -0.020, 1.030, 16:24:12.635
18, 41500.62, 62276.63, 187500.00, 187500.00, 187500.00, -187500.02, -187500.02, -187500.02, 0.000, 0.000, 0.000, 16:24:12.636
19, 41474.20, 62274.15, 187500.00, 187500.00, 187500.00, -187500.02, -187500.02, -187500.02, 0.000, 0.000, 0.000, 16:24:12.636
20, 41291.47, 62146.74, 187500.00, 187500.00, 187500.00, -187500.02, -187500.02, -187500.02, 0.000, 0.000, 0.000, 16:24:12.637
21, 41202.42, 62069.18, 187500.00, 187500.00, 187500.00, -187500.02, -187500.02, -187500.02, 0.000, 0.000, 0.000, 16:24:12.638
22, 41323.50, 62140.62, 187500.00, 187500.00, 187500.00, -187500.02, -187500.02, -187500.02, 0.000, 0.000, 0.000, 16:24:12.638
23, 41494.94, 62265.39, 187500.00, 187500.00, 187500.00, -187500.02, -187500.02, -187500.02, 0.000, 0.000, 0.000, 16:24:12.639
24, 41472.10, 62268.63, 187500.00, 187500.00, 187500.00, -187500.02, -187500.02, -187500.02, 0.000, 0.000, 0.000, 16:24:12.640
25, 41280.16, 62141.16, 187500.00, 187500.00, 187500.00, -187500.02, -187500.02, -187500.02, 0.000, 0.000, 0.000, 16:24:12.641
26, 41190.89, 62066.19, 187500.00, 187500.00, 187500.00, -187500.02, -187500.02, -187500.02, 0.000, 0.000, 0.000, 16:24:12.641
27, 41325.47, 62142.77, 187500.00, 187500.00, 187500.00, -187500.02, -187500.02, -187500.02, 0.004, -0.022, 1.038, 16:24:12.643
28, 41505.71, 62273.88, 187500.00, 187500.00, 187500.00, -187500.02, -187500.02, -187500.02, 0.000, 0.000, 0.000, 16:24:12.643
29, 41476.86, 62269.66, 187500.00, 187500.00, 187500.00, -187500.02, -187500.02, -187500.02, 0.000, 0.000, 0.000, 16:24:12.644
30, 41274.24, 62137.16, 187500.00, 187500.00, 187500.00, -187500.02, -187500.02, -187500.02, 0.000, 0.000, 0.000, 16:24:12.644
31, 41169.99, 62056.75, 187500.00, 187500.00, 187500.00, -187500.02, -187500.02, -187500.02, 0.000, 0.000, 0.000, 16:24:12.645
32, 41304.82, 62136.02, 187500.00, 187500.00, 187500.00, -187500.02, -187500.02, -187500.02, 0.000, 0.000, 0.000, 16:24:12.646
33, 41488.01, 62266.17, 187500.00, 187500.00, 187500.00, -187500.02, -187500.02, -187500.02, 0.000, 0.000, 0.000, 16:24:12.646
34, 41472.27, 62273.48, 187500.00, 187500.00, 187500.00, -187500.02, -187500.02, -187500.02, 0.000, 0.000, 0.000, 16:24:12.647
35, 41283.80, 62149.89, 187500.00, 187500.00, 187500.00, -187500.02, -187500.02, -187500.02, 0.000, 0.000, 0.000, 16:24:12.647
36, 41172.98, 62050.99, 187500.00, 187500.00, 187500.00, -187500.02, -187500.02, -187500.02, 0.010, -0.020, 1.032, 16:24:12.648
37, 41309.13, 62132.91, 187500.00, 187500.00, 187500.00, -187500.02, -187500.02, -187500.02, 0.000, 0.000, 0.000, 16:24:12.649
38, 41491.07, 62279.36, 187500.00, 187500.00, 187500.00, -187500.02, -187500.02, -187500.02, 0.000, 0.000, 0.000, 16:24:12.649
39, 41480.46, 62290.69, 187500.00, 187500.00, 187500.00, -187500.02, -187500.02, -187500.02, 0.000, 0.000, 0.000, 16:24:12.650
40, 41282.64, 62145.96, 187500.00, 187500.00, 187500.00, -187500.02, -187500.02, -187500.02, 0.000, 0.000, 0.000, 16:24:12.650
41, 41183.16, 62062.81, 187500.00, 187500.00, 187500.00, -187500.02, -187500.02, -187500.02, 0.000, 0.000, 0.000, 16:24:12.651
42, 41322.81, 62149.56, 187500.00, 187500.00, 187500.00, -187500.02, -187500.02, -187500.02, 0.000, 0.000, 0.000, 16:24:12.652
43, 41495.99, 62279.73, 187500.00, 187500.00, 187500.00, -187500.02, -187500.02, -187500.02, 0.000, 0.000, 0.000, 16:24:12.652
44, 41472.90, 62279.71, 187500.00, 187500.00, 187500.00, -187500.02, -187500.02, -187500.02, 0.000, 0.000, 0.000, 16:24:12.653
45, 41299.68, 62160.73, 187500.00, 187500.00, 187500.00, -187500.02, -187500.02, -187500.02, 0.000, 0.000, 0.000, 16:24:12.654
46, 41191.11, 62065.07, 187500.00, 187500.00, 187500.00, -187500.02, -187500.02, -187500.02, 0.008, -0.020, 1.032, 16:24:12.655
47, 41319.95, 62137.29, 187500.00, 187500.00, 187500.00, -187500.02, -187500.02, -187500.02, 0.000, 0.000, 0.000, 16:24:12.655
48, 41483.14, 62258.61, 187500.00, 187500.00, 187500.00, -187500.02, -187500.02, -187500.02, 0.000, 0.000, 0.000, 16:24:12.656
49, 41465.34, 62270.28, 187500.00, 187500.00, 187500.00, -187500.02, -187500.02, -187500.02, 0.000, 0.000, 0.000, 16:24:12.656
50, 41294.91, 62161.61, 187500.00, 187500.00, 187500.00, -187500.02, -187500.02, -187500.02, 0.000, 0.000, 0.000, 16:24:12.657
51, 41180.96, 62066.37, 187500.00, 187500.00, 187500.00, -187500.02, -187500.02, -187500.02, 0.000, 0.000, 0.000, 16:24:12.657
52, 41329.96, 62156.46, 187500.00, 187500.00, 187500.00, -187500.02, -187500.02, -187500.02, 0.000, 0.000, 0.000, 16:24:12.658
53, 41498.83, 62275.40, 187500.00, 187500.00, 187500.00, -187500.02, -187500.02, -187500.02, 0.000, 0.000, 0.000, 16:24:12.658
54, 41459.33, 62257.00, 187500.00, 187500.00, 187500.00, -187500.02, -187500.02, -187500.02, 0.000, 0.000, 0.000, 16:24:12.659
55, 41276.54, 62137.51, 187500.00, 187500.00, 187500.00, -187500.02, -187500.02, -187500.02, 0.000, 0.000, 0.000, 16:24:12.659
56, 41177.41, 62054.36, 187500.00, 187500.00, 187500.00, -187500.02, -187500.02, -187500.02, 0.010, -0.014, 1.030, 16:24:12.660
57, 41303.52, 62128.53, 187500.00, 187500.00, 187500.00, -187500.02, -187500.02, -187500.02, 0.000, 0.000, 0.000, 16:24:12.661
58, 41477.97, 62257.23, 187500.00, 187500.00, 187500.00, -187500.02, -187500.02, -187500.02, 0.000, 0.000, 0.000, 16:24:12.661
59, 41466.22, 62266.53, 187500.00, 187500.00, 187500.00, -187500.02, -187500.02, -187500.02, 0.000, 0.000, 0.000, 16:24:12.662
60, 41292.84, 62157.38, 187500.00, 187500.00, 187500.00, -187500.02, -187500.02, -187500.02, 0.000, 0.000, 0.000, 16:24:12.662
61, 41186.48, 62072.42, 187500.00, 187500.00, 187500.00, -187500.02, -187500.02, -187500.02, 0.000, 0.000, 0.000, 16:24:12.663
62, 41320.75, 62147.28, 187500.00, 187500.00, 187500.00, -187500.02, -187500.02, -187500.02, 0.000, 0.000, 0.000, 16:24:12.663
63, 41490.02, 62265.01, 187500.00, 187500.00, 187500.00, -187500.02, -187500.02, -187500.02, 0.000, 0.000, 0.000, 16:24:12.664
64, 41473.10, 62269.68, 187500.00, 187500.00, 187500.00, -187500.02, -187500.02, -187500.02, 0.000, 0.000, 0.000, 16:24:12.664
65, 41288.27, 62144.60, 187500.00, 187500.00, 187500.00, -187500.02, -187500.02, -187500.02, 0.000, 0.000, 0.000, 16:24:12.665
66, 41176.81, 62048.75, 187500.00, 187500.00, 187500.00, -187500.02, -187500.02, -187500.02, 0.012, -0.012, 1.026, 16:24:12.666
67, 41325.18, 62147.23, 187500.00, 187500.00, 187500.00, -187500.02, -187500.02, -187500.02, 0.000, 0.000, 0.000, 16:24:12.667
68, 41493.26, 62267.11, 187500.00, 187500.00, 187500.00, -187500.02, -187500.02, -187500.02, 0.000, 0.000, 0.000, 16:24:12.667
69, 41474.27, 62268.00, 187500.00, 187500.00, 187500.00, -187500.02, -187500.02, -187500.02, 0.000, 0.000, 0.000, 16:24:12.668
70, 41291.63, 62148.44, 187500.00, 187500.00, 187500.00, -187500.02, -187500.02, -187500.02, 0.000, 0.000, 0.000, 16:24:12.669
71, 41188.99, 62061.81, 187500.00, 187500.00, 187500.00, -187500.02, -187500.02, -187500.02, 0.000, 0.000, 0.000, 16:24:12.670
72, 41313.80, 62131.43, 187500.00, 187500.00, 187500.00, -187500.02, -187500.02, -187500.02, 0.000, 0.000, 0.000, 16:24:12.670
73, 41489.51, 62259.62, 187500.00, 187500.00, 187500.00, -187500.02, -187500.02, -187500.02, 0.000, 0.000, 0.000, 16:24:12.671
74, 41480.63, 62272.14, 187500.00, 187500.00, 187500.00, -187500.02, -187500.02, -187500.02, 0.000, 0.000, 0.000, 16:24:12.672
75, 41299.94, 62156.33, 187500.00, 187500.00, 187500.00, -187500.02, -187500.02, -187500.02, 0.000, 0.000, 0.000, 16:24:12.672
76, 41187.58, 62068.47, 187500.00, 187500.00, 187500.00, -187500.02, -187500.02, -187500.02, 0.008, -0.018, 1.030, 16:24:12.673
77, 41305.53, 62125.87, 187500.00, 187500.00, 187500.00, -187500.02, -187500.02, -187500.02, 0.000, 0.000, 0.000, 16:24:12.673
78, 41494.25, 62265.66, 187500.00, 187500.00, 187500.00, -187500.02, -187500.02, -187500.02, 0.000, 0.000, 0.000, 16:24:12.674
79, 41487.03, 62287.67, 187500.00, 187500.00, 187500.00, -187500.02, -187500.02, -187500.02, 0.000, 0.000, 0.000, 16:24:12.674
80, 41298.33, 62159.71, 187500.00, 187500.00, 187500.00, -187500.02, -187500.02, -187500.02, 0.000, 0.000, 0.000, 16:24:12.675
81, 41178.68, 62052.33, 187500.00, 187500.00, 187500.00, -187500.02, -187500.02, -187500.02, 0.000, 0.000, 0.000, 16:24:12.675
82, 41316.01, 62134.02, 187500.00, 187500.00, 187500.00, -187500.02, -187500.02, -187500.02, 0.000, 0.000, 0.000, 16:24:12.676
83, 41490.63, 62260.63, 187500.00, 187500.00, 187500.00, -187500.02, -187500.02, -187500.02, 0.000, 0.000, 0.000, 16:24:12.676
84, 41470.35, 62261.25, 187500.00, 187500.00, 187500.00, -187500.02, -187500.02, -187500.02, 0.000, 0.000, 0.000, 16:24:12.677
85, 41291.74, 62152.22, 187500.00, 187500.00, 187500.00, -187500.02, -187500.02, -187500.02, 0.000, 0.000, 0.000, 16:24:12.678
86, 41175.20, 62054.61, 187500.00, 187500.00, 187500.00, -187500.02, -187500.02, -187500.02, 0.008, -0.018, 1.026, 16:24:12.678
87, 41318.11, 62140.82, 187500.00, 187500.00, 187500.00, -187500.02, -187500.02, -187500.02, 0.000, 0.000, 0.000, 16:24:12.679
88, 41491.63, 62263.11, 187500.00, 187500.00, 187500.00, -187500.02, -187500.02, -187500.02, 0.000, 0.000, 0.000, 16:24:12.679
89, 41477.66, 62269.36, 187500.00, 187500.00, 187500.00, -187500.02, -187500.02, -187500.02, 0.000, 0.000, 0.000, 16:24:12.680
90, 41307.48, 62156.60, 187500.00, 187500.00, 187500.00, -187500.02, -187500.02, -187500.02, 0.000, 0.000, 0.000, 16:24:12.680
91, 41187.94, 62065.16, 187500.00, 187500.00, 187500.00, -187500.02, -187500.02, -187500.02, 0.000, 0.000, 0.000, 16:24:12.681
92, 41321.58, 62152.55, 187500.00, 187500.00, 187500.00, -187500.02, -187500.02, -187500.02, 0.000, 0.000, 0.000, 16:24:12.681
93, 41493.38, 62269.39, 187500.00, 187500.00, 187500.00, -187500.02, -187500.02, -187500.02, 0.000, 0.000, 0.000, 16:24:12.682
94, 41479.76, 62270.95, 187500.00, 187500.00, 187500.00, -187500.02, -187500.02, -187500.02, 0.000, 0.000, 0.000, 16:24:12.682
95, 41323.21, 62171.04, 187500.00, 187500.00, 187500.00, -187500.02, -187500.02, -187500.02, 0.000, 0.000, 0.000, 16:24:12.683
96, 41204.16, 62082.66, 187500.00, 187500.00, 187500.00, -187500.02, -187500.02, -187500.02, 0.008, -0.018, 1.026, 16:24:12.684
97, 41325.18, 62155.91, 187500.00, 187500.00, 187500.00, -187500.02, -187500.02, -187500.02, 0.000, 0.000, 0.000, 16:24:12.684
98, 41494.05, 62273.93, 187500.00, 187500.00, 187500.00, -187500.02, -187500.02, -187500.02, 0.000, 0.000, 0.000, 16:24:12.685
99, 41484.55, 62277.57, 187500.00, 187500.00, 187500.00, -187500.02, -187500.02, -187500.02, 0.000, 0.000, 0.000, 16:24:12.686
100, 41303.21, 62159.15, 187500.00, 187500.00, 187500.00, -187500.02, -187500.02, -187500.02, 0.000, 0.000, 0.000, 16:24:12.686
101, 41193.86, 62076.69, 187500.00, 187500.00, 187500.00, -187500.02, -187500.02, -187500.02, 0.000, 0.000, 0.000, 16:24:12.687
102, 41318.25, 62143.43, 187500.00, 187500.00, 187500.00, -187500.02, -187500.02, -187500.02, 0.000, 0.000, 0.000, 16:24:12.688
103, 41503.93, 62279.82, 187500.00, 187500.00, 187500.00, -187500.02, -187500.02, -187500.02, 0.000, 0.000, 0.000, 16:24:12.689
104, 41502.23, 62298.85, 187500.00, 187500.00, 187500.00, -187500.02, -187500.02, -187500.02, 0.000, 0.000, 0.000, 16:24:12.689
105, 41312.75, 62173.99, 187500.00, 187500.00, 187500.00, -187500.02, -187500.02, -187500.02, 0.000, 0.000, 0.000, 16:24:12.690
106, 41200.77, 62085.97, 187500.00, 187500.00, 187500.00, -187500.02, -187500.02, -187500.02, 0.010, -0.022, 1.030, 16:24:12.691
107, 41331.64, 62158.50, 187500.00, 187500.00, 187500.00, -187500.02, -187500.02, -187500.02, 0.000, 0.000, 0.000, 16:24:12.691
108, 41501.55, 62281.30, 187500.00, 187500.00, 187500.00, -187500.02, -187500.02, -187500.02, 0.000, 0.000, 0.000, 16:24:12.692
109, 41492.35, 62291.14, 187500.00, 187500.00, 187500.00, -187500.02, -187500.02, -187500.02, 0.000, 0.000, 0.000, 16:24:12.693
110, 41326.77, 62177.01, 187500.00, 187500.00, 187500.00, -187500.02, -187500.02, -187500.02, 0.000, 0.000, 0.000, 16:24:12.693
111, 41198.24, 62073.77, 187500.00, 187500.00, 187500.00, -187500.02, -187500.02, -187500.02, 0.000, 0.000, 0.000, 16:24:12.694
112, 41308.53, 62129.22, 187500.00, 187500.00, 187500.00, -187500.02, -187500.02, -187500.02, 0.000, 0.000, 0.000, 16:24:12.695
113, 41486.65, 62252.73, 187500.00, 187500.00, 187500.00, -187500.02, -187500.02, -187500.02, 0.000, 0.000, 0.000, 16:24:12.695
114, 41474.06, 62258.84, 187500.00, 187500.00, 187500.00, -187500.02, -187500.02, -187500.02, 0.000, 0.000, 0.000, 16:24:12.696
115, 41264.09, 62114.33, 187500.00, 187500.00, 187500.00, -187500.02, -187500.02, -187500.02, 0.000, 0.000, 0.000, 16:24:12.697
116, 41161.63, 62032.05, 187500.00, 187500.00, 187500.00, -187500.02, -187500.02, -187500.02, 0.004, -0.024, 1.030, 16:24:12.698
117, 41276.88, 62093.34, 187500.00, 187500.00, 187500.00, -187500.02, -187500.02, -187500.02, 0.000, 0.000, 0.000, 16:24:12.698
118, 41449.86, 62213.53, 187500.00, 187500.00, 187500.00, -187500.02, -187500.02, -187500.02, 0.000, 0.000, 0.000, 16:24:12.699
119, 41423.28, 62213.38, 187500.00, 187500.00, 187500.00, -187500.02, -187500.02, -187500.02, 0.000, 0.000, 0.000, 16:24:12.700
120, 41223.23, 62077.88, 187500.00, 187500.00, 187500.00, -187500.02, -187500.02, -187500.02, 0.000, 0.000, 0.000, 16:24:13.105
121, 41095.00, 61967.06, 187500.00, 187500.00, 187500.00, -187500.02, -187500.02, -187500.02, 0.000, 0.000, 0.000, 16:24:13.106
122, 41199.38, 62016.86, 187500.00, 187500.00, 187500.00, -187500.02, -187500.02, -187500.02, 0.000, 0.000, 0.000, 16:24:13.107
123, 41376.25, 62138.00, 187500.00, 187500.00, 187500.00, -187500.02, -187500.02, -187500.02, 0.000, 0.000, 0.000, 16:24:13.107
124, 41366.62, 62145.27, 187500.00, 187500.00, 187500.00, -187500.02, -187500.02, -187500.02, 0.000, 0.000, 0.000, 16:24:13.108
125, 41172.05, 62007.00, 187500.00, 187500.00, 187500.00, -187500.02, -187500.02, -187500.02, 0.000, 0.000, 0.000, 16:24:13.108
126, 41044.04, 61908.21, 187500.00, 187500.00, 187500.00, -187500.02, -187500.02, -187500.02, 0.004, -0.024, 1.028, 16:24:13.109
127, 41181.93, 62000.68, 187500.00, 187500.00, 187500.00, -187500.02, -187500.02, -187500.02, 0.000, 0.000, 0.000, 16:24:13.109
128, 41360.54, 62129.53, 187500.00, 187500.00, 187500.00, -187500.02, -187500.02, -187500.02, 0.000, 0.000, 0.000, 16:24:13.110
129, 41365.84, 62149.16, 187500.00, 187500.00, 187500.00, -187500.02, -187500.02, -187500.02, 0.000, 0.000, 0.000, 16:24:13.111
130, 41173.57, 62017.95, 187500.00, 187500.00, 187500.00, -187500.02, -187500.02, -187500.02, 0.000, 0.000, 0.000, 16:24:13.111
131, 41054.66, 61922.13, 187500.00, 187500.00, 187500.00, -187500.02, -187500.02, -187500.02, 0.000, 0.000, 0.000, 16:24:13.112
132, 41180.43, 61996.50, 187500.00, 187500.00, 187500.00, -187500.02, -187500.02, -187500.02, 0.000, 0.000, 0.000, 16:24:13.113
133, 41366.39, 62137.98, 187500.00, 187500.00, 187500.00, -187500.02, -187500.02, -187500.02, 0.000, 0.000, 0.000, 16:24:13.113
134, 41366.11, 62160.42, 187500.00, 187500.00, 187500.00, -187500.02, -187500.02, -187500.02, 0.000, 0.000, 0.000, 16:24:13.114
135, 41176.02, 62021.55, 187500.00, 187500.00, 187500.00, -187500.02, -187500.02, -187500.02, 0.000, 0.000, 0.000, 16:24:13.114
136, 41071.02, 61940.50, 187500.00, 187500.00, 187500.00, -187500.02, -187500.02, -187500.02, 0.002, -0.024, 1.036, 16:24:13.115
137, 41212.61, 62039.90, 187500.00, 187500.00, 187500.00, -187500.02, -187500.02, -187500.02, 0.000, 0.000, 0.000, 16:24:13.116
138, 41404.68, 62188.14, 187500.00, 187500.00, 187500.00, -187500.02, -187500.02, -187500.02, 0.000, 0.000, 0.000, 16:24:13.116
139, 41387.85, 62193.14, 187500.00, 187500.00, 187500.00, -187500.02, -187500.02, -187500.02, 0.000, 0.000, 0.000, 16:24:13.117
140, 41219.77, 62089.68, 187500.00, 187500.00, 187500.00, -187500.02, -187500.02, -187500.02, 0.000, 0.000, 0.000, 16:24:13.118
141, 41108.30, 62003.65, 187500.00, 187500.00, 187500.00, -187500.02, -187500.02, -187500.02, 0.000, 0.000, 0.000, 16:24:13.118
142, 41228.33, 62074.32, 187500.00, 187500.00, 187500.00, -187500.02, -187500.02, -187500.02, 0.000, 0.000, 0.000, 16:24:13.119
143, 41413.33, 62208.95, 187500.00, 187500.00, 187500.00, -187500.02, -187500.02, -187500.02, 0.000, 0.000, 0.000, 16:24:13.119
144, 41422.88, 62231.03, 187500.00, 187500.00, 187500.00, -187500.02, -187500.02, -187500.02, 0.000, 0.000, 0.000, 16:24:13.120
145, 41256.51, 62124.23, 187500.00, 187500.00, 187500.00, -187500.02, -187500.02, -187500.02, 0.000, 0.000, 0.000, 16:24:13.121
146, 41150.03, 62042.63, 187500.00, 187500.00, 187500.00, -187500.02, -187500.02, -187500.02, 0.010, -0.024, 1.034, 16:24:13.122
147, 41252.58, 62096.23, 187500.00, 187500.00, 187500.00, -187500.02, -187500.02, -187500.02, 0.000, 0.000, 0.000, 16:24:13.122
148, 41455.64, 62250.30, 187500.00, 187500.00, 187500.00, -187500.02, -187500.02, -187500.02, 0.000, 0.000, 0.000, 16:24:13.123
149, 41448.58, 62260.07, 187500.00, 187500.00, 187500.00, -187500.02, -187500.02, -187500.02, 0.000, 0.000, 0.000, 16:24:13.124
150, 41263.84, 62131.81, 187500.00, 187500.00, 187500.00, -187500.02, -187500.02, -187500.02, 0.000, 0.000, 0.000, 16:24:13.125
151, 41155.73, 62046.90, 187500.00, 187500.00, 187500.00, -187500.02, -187500.02, -187500.02, 0.000, 0.000, 0.000, 16:24:13.125
152, 41279.20, 62121.55, 187500.00, 187500.00, 187500.00, -187500.02, -187500.02, -187500.02, 0.000, 0.000, 0.000, 16:24:13.126
153, 41472.72, 62266.86, 187500.00, 187500.00, 187500.00, -187500.02, -187500.02, -187500.02, 0.000, 0.000, 0.000, 16:24:13.126
154, 41467.02, 62285.35, 187500.00, 187500.00, 187500.00, -187500.02, -187500.02, -187500.02, 0.000, 0.000, 0.000, 16:24:13.127
155, 41288.43, 62166.55, 187500.00, 187500.00, 187500.00, -187500.02, -187500.02, -187500.02, 0.012, -0.018, 1.036, 16:24:13.128
156, 41174.95, 62069.03, 187500.00, 187500.00, 187500.00, -187500.02, -187500.02, -187500.02, 0.000, 0.000, 0.000, 16:24:13.128
157, 41295.74, 62139.77, 187500.00, 187500.00, 187500.00, -187500.02, -187500.02, -187500.02, 0.000, 0.000, 0.000, 16:24:13.129
158, 41478.13, 62276.14, 187500.00, 187500.00, 187500.00, -187500.02, -187500.02, -187500.02, 0.000, 0.000, 0.000, 16:24:13.130
159, 41476.21, 62291.54, 187500.00, 187500.00, 187500.00, -187500.02, -187500.02, -187500.02, 0.000, 0.000, 0.000, 16:24:13.130
160, 41300.93, 62174.95, 187500.00, 187500.00, 187500.00, -187500.02, -187500.02, -187500.02, 0.000, 0.000, 0.000, 16:24:13.131
161, 41174.91, 62073.83, 187500.00, 187500.00, 187500.00, -187500.02, -187500.02, -187500.02, 0.000, 0.000, 0.000, 16:24:13.131
162, 41301.24, 62146.41, 187500.00, 187500.00, 187500.00, -187500.02, -187500.02, -187500.02, 0.000, 0.000, 0.000, 16:24:13.132
163, 41483.92, 62272.32, 187500.00, 187500.00, 187500.00, -187500.02, -187500.02, -187500.02, 0.000, 0.000, 0.000, 16:24:13.133
164, 41481.86, 62287.92, 187500.00, 187500.00, 187500.00, -187500.02, -187500.02, -187500.02, 0.000, 0.000, 0.000, 16:24:13.133
165, 41316.28, 62184.65, 187500.00, 187500.00, 187500.00, -187500.02, -187500.02, -187500.02, 0.012, -0.018, 1.034, 16:24:13.134
166, 41204.88, 62098.44, 187500.00, 187500.00, 187500.00, -187500.02, -187500.02, -187500.02, 0.000, 0.000, 0.000, 16:24:13.135
167, 41297.55, 62141.47, 187500.00, 187500.00, 187500.00, -187500.02, -187500.02, -187500.02, 0.000, 0.000, 0.000, 16:24:13.135
168, 41481.62, 62275.60, 187500.00, 187500.00, 187500.00, -187500.02, -187500.02, -187500.02, 0.000, 0.000, 0.000, 16:24:13.136
169, 41491.09, 62307.05, 187500.00, 187500.00, 187500.00, -187500.02, -187500.02, -187500.02, 0.000, 0.000, 0.000, 16:24:13.137
170, 41317.40, 62193.61, 187500.00, 187500.00, 187500.00, -187500.02, -187500.02, -187500.02, 0.000, 0.000, 0.000, 16:24:13.137
171, 41182.51, 62083.84, 187500.00, 187500.00, 187500.00, -187500.02, -187500.02, -187500.02, 0.000, 0.000, 0.000, 16:24:13.138
172, 41295.05, 62143.35, 187500.00, 187500.00, 187500.00, -187500.02, -187500.02, -187500.02, 0.000, 0.000, 0.000, 16:24:13.139
173, 41507.75, 62298.76, 187500.00, 187500.00, 187500.00, -187500.02, -187500.02, -187500.02, 0.000, 0.000, 0.000, 16:24:13.139
174, 41496.17, 62310.70, 187500.00, 187500.00, 187500.00, -187500.02, -187500.02, -187500.02, 0.000, 0.000, 0.000, 16:24:13.140
175, 41321.63, 62197.95, 187500.00, 187500.00, 187500.00, -187500.02, -187500.02, -187500.02, 0.012, -0.020, 1.026, 16:24:13.141
176, 41192.48, 62084.34, 187500.00, 187500.00, 187500.00, -187500.02, -187500.02, -187500.02, 0.000, 0.000, 0.000, 16:24:13.141
177, 41303.14, 62148.26, 187500.00, 187500.00, 187500.00, -187500.02, -187500.02, -187500.02, 0.000, 0.000, 0.000, 16:24:13.142
178, 41490.98, 62282.84, 187500.00, 187500.00, 187500.00, -187500.02, -187500.02, -187500.02, 0.000, 0.000, 0.000, 16:24:13.143
179, 41486.20, 62292.99, 187500.00, 187500.00, 187500.00, -187500.02, -187500.02, -187500.02, 0.000, 0.000, 0.000, 16:24:13.143
180, 41322.09, 62188.09, 187500.00, 187500.00, 187500.00, -187500.02, -187500.02, -187500.02, 0.000, 0.000, 0.000, 16:24:13.144
181, 41188.16, 62084.63, 187500.00, 187500.00, 187500.00, -187500.02, -187500.02, -187500.02, 0.000, 0.000, 0.000, 16:24:13.145
182, 41310.63, 62167.64, 187500.00, 187500.00, 187500.00, -187500.02, -187500.02, -187500.02, 0.000, 0.000, 0.000, 16:24:13.146
183, 41506.92, 62312.10, 187500.00, 187500.00, 187500.00, -187500.02, -187500.02, -187500.02, 0.000, 0.000, 0.000, 16:24:13.147
184, 41496.59, 62312.39, 187500.00, 187500.00, 187500.00, -187500.02, -187500.02, -187500.02, 0.000, 0.000, 0.000, 16:24:13.148
185, 41306.02, 62182.84, 187500.00, 187500.00, 187500.00, -187500.02, -187500.02, -187500.02, 0.010, -0.014, 1.022, 16:24:13.149
186, 41185.97, 62085.14, 187500.00, 187500.00, 187500.00, -187500.02, -187500.02, -187500.02, 0.000, 0.000, 0.000, 16:24:13.149
187, 41316.91, 62165.05, 187500.00, 187500.00, 187500.00, -187500.02, -187500.02, -187500.02, 0.000, 0.000, 0.000, 16:24:13.151
188, 41498.83, 62296.21, 187500.00, 187500.00, 187500.00, -187500.02, -187500.02, -187500.02, 0.000, 0.000, 0.000, 16:24:13.152
189, 41478.15, 62297.68, 187500.00, 187500.00, 187500.00, -187500.02, -187500.02, -187500.02, 0.000, 0.000, 0.000, 16:24:13.152
190, 41290.55, 62170.01, 187500.00, 187500.00, 187500.00, -187500.02, -187500.02, -187500.02, 0.000, 0.000, 0.000, 16:24:13.153
191, 41174.13, 62072.91, 187500.00, 187500.00, 187500.00, -187500.02, -187500.02, -187500.02, 0.000, 0.000, 0.000, 16:24:13.154
192, 41301.75, 62153.88, 187500.00, 187500.00, 187500.00, -187500.02, -187500.02, -187500.02, 0.000, 0.000, 0.000, 16:24:13.155
193, 41492.59, 62298.98, 187500.00, 187500.00, 187500.00, -187500.02, -187500.02, -187500.02, 0.000, 0.000, 0.000, 16:24:13.156
194, 41491.61, 62311.92, 187500.00, 187500.00, 187500.00, -187500.02, -187500.02, -187500.02, 0.000, 0.000, 0.000, 16:24:13.157
195, 41310.52, 62193.19, 187500.00, 187500.00, 187500.00, -187500.02, -187500.02, -187500.02, 0.012, -0.020, 1.032, 16:24:13.157
196, 41174.80, 62079.29, 187500.00, 187500.00, 187500.00, -187500.02, -187500.02, -187500.02, 0.000, 0.000, 0.000, 16:24:13.158
197, 41305.75, 62159.57, 187500.00, 187500.00, 187500.00, -187500.02, -187500.02, -187500.02, 0.000, 0.000, 0.000, 16:24:13.159
198, 41497.49, 62302.67, 187500.00, 187500.00, 187500.00, -187500.02, -187500.02, -187500.02, 0.000, 0.000, 0.000, 16:24:13.160
199, 41501.15, 62318.29, 187500.00, 187500.00, 187500.00, -187500.02, -187500.02, -187500.02, 0.000, 0.000, 0.000, 16:24:13.161
200, 41322.07, 62196.01, 187500.00, 187500.00, 187500.00, -187500.02, -187500.02, -187500.02, 0.000, 0.000, 0.000, 16:24:13.162
201, 41192.77, 62094.24, 187500.00, 187500.00, 187500.00, -187500.02, -187500.02, -187500.02, 0.000, 0.000, 0.000, 16:24:13.163
202, 41296.46, 62152.62, 187500.00, 187500.00, 187500.00, -187500.02, -187500.02, -187500.02, 0.000, 0.000, 0.000, 16:24:13.164
203, 41486.45, 62289.48, 187500.00, 187500.00, 187500.00, -187500.02, -187500.02, -187500.02, 0.000, 0.000, 0.000, 16:24:13.165
204, 41494.58, 62313.78, 187500.00, 187500.00, 187500.00, -187500.02, -187500.02, -187500.02, 0.000, 0.000, 0.000, 16:24:13.166
205, 41307.79, 62187.31, 187500.00, 187500.00, 187500.00, -187500.02, -187500.02, -187500.02, 0.008, -0.024, 1.026, 16:24:13.166
206, 41175.00, 62079.11, 187500.00, 187500.00, 187500.00, -187500.02, -187500.02, -187500.02, 0.000, 0.000, 0.000, 16:24:13.168
207, 41292.59, 62147.77, 187500.00, 187500.00, 187500.00, -187500.02, -187500.02, -187500.02, 0.000, 0.000, 0.000, 16:24:13.170
208, 41488.59, 62291.70, 187500.00, 187500.00, 187500.00, -187500.02, -187500.02, -187500.02, 0.000, 0.000, 0.000, 16:24:13.171
209, 41501.13, 62322.20, 187500.00, 187500.00, 187500.00, -187500.02, -187500.02, -187500.02, 0.000, 0.000, 0.000, 16:24:13.172
210, 41319.86, 62201.75, 187500.00, 187500.00, 187500.00, -187500.02, -187500.02, -187500.02, 0.000, 0.000, 0.000, 16:24:13.172
211, 41194.60, 62093.34, 187500.00, 187500.00, 187500.00, -187500.02, -187500.02, -187500.02, 0.000, 0.000, 0.000, 16:24:13.173
212, 41303.07, 62149.63, 187500.00, 187500.00, 187500.00, -187500.02, -187500.02, -187500.02, 0.000, 0.000, 0.000, 16:24:13.174
213, 41484.46, 62277.86, 187500.00, 187500.00, 187500.00, -187500.02, -187500.02, -187500.02, 0.000, 0.000, 0.000, 16:24:13.174
214, 41492.86, 62301.71, 187500.00, 187500.00, 187500.00, -187500.02, -187500.02, -187500.02, 0.000, 0.000, 0.000, 16:24:13.175
215, 41326.68, 62192.03, 187500.00, 187500.00, 187500.00, -187500.02, -187500.02, -187500.02, 0.008, -0.026, 1.026, 16:24:13.176
216, 41195.40, 62093.99, 187500.00, 187500.00, 187500.00, -187500.02, -187500.02, -187500.02, 0.000, 0.000, 0.000, 16:24:13.176
217, 41311.90, 62167.31, 187500.00, 187500.00, 187500.00, -187500.02, -187500.02, -187500.02, 0.000, 0.000, 0.000, 16:24:13.177
218, 41496.82, 62296.72, 187500.00, 187500.00, 187500.00, -187500.02, -187500.02, -187500.02, 0.000, 0.000, 0.000, 16:24:13.178
219, 41498.27, 62313.64, 187500.00, 187500.00, 187500.00, -187500.02, -187500.02, -187500.02, 0.000, 0.000, 0.000, 16:24:13.178
220, 41319.61, 62195.07, 187500.00, 187500.00, 187500.00, -187500.02, -187500.02, -187500.02, 0.000, 0.000, 0.000, 16:24:13.179
221, 41190.78, 62092.85, 187500.00, 187500.00, 187500.00, -187500.02, -187500.02, -187500.02, 0.000, 0.000, 0.000, 16:24:13.180
222, 41303.52, 62158.03, 187500.00, 187500.00, 187500.00, -187500.02, -187500.02, -187500.02, 0.000, 0.000, 0.000, 16:24:13.180
223, 41505.82, 62313.53, 187500.00, 187500.00, 187500.00, -187500.02, -187500.02, -187500.02, 0.000, 0.000, 0.000, 16:24:13.181
224, 41507.30, 62332.89, 187500.00, 187500.00, 187500.00, -187500.02, -187500.02, -187500.02, 0.000, 0.000, 0.000, 16:24:13.182
225, 41323.61, 62207.90, 187500.00, 187500.00, 187500.00, -187500.02, -187500.02, -187500.02, 0.002, -0.026, 1.030, 16:24:13.182
226, 41195.45, 62106.49, 187500.00, 187500.00, 187500.00, -187500.02, -187500.02, -187500.02, 0.000, 0.000, 0.000, 16:24:13.183
227, 41308.10, 62167.51, 187500.00, 187500.00, 187500.00, -187500.02, -187500.02, -187500.02, 0.000, 0.000, 0.000, 16:24:13.184
228, 41497.18, 62299.29, 187500.00, 187500.00, 187500.00, -187500.02, -187500.02, -187500.02, 0.000, 0.000, 0.000, 16:24:13.184
229, 41496.66, 62312.57, 187500.00, 187500.00, 187500.00, -187500.02, -187500.02, -187500.02, 0.000, 0.000, 0.000, 16:24:13.185
230, 41324.64, 62198.89, 187500.00, 187500.00, 187500.00, -187500.02, -187500.02, -187500.02, 0.000, 0.000, 0.000, 16:24:13.186
231, 41188.52, 62088.05, 187500.00, 187500.00, 187500.00, -187500.02, -187500.02, -187500.02, 0.000, 0.000, 0.000, 16:24:13.187
232, 41304.28, 62159.17, 187500.00, 187500.00, 187500.00, -187500.02, -187500.02, -187500.02, 0.000, 0.000, 0.000, 16:24:13.187
233, 41505.36, 62311.88, 187500.00, 187500.00, 187500.00, -187500.02, -187500.02, -187500.02, 0.000, 0.000, 0.000, 16:24:13.188
234, 41509.29, 62331.04, 187500.00, 187500.00, 187500.00, -187500.02, -187500.02, -187500.02, 0.000, 0.000, 0.000, 16:24:13.189
235, 41323.39, 62204.48, 187500.00, 187500.00, 187500.00, -187500.02, -187500.02, -187500.02, 0.004, -0.024, 1.026, 16:24:13.189
236, 41182.17, 62094.26, 187500.00, 187500.00, 187500.00, -187500.02, -187500.02, -187500.02, 0.000, 0.000, 0.000, 16:24:13.190
237, 41294.69, 62162.57, 187500.00, 187500.00, 187500.00, -187500.02, -187500.02, -187500.02, 0.000, 0.000, 0.000, 16:24:13.191
238, 41478.76, 62284.50, 187500.00, 187500.00, 187500.00, -187500.02, -187500.02, -187500.02, 0.000, 0.000, 0.000, 16:24:13.191
239, 41487.43, 62301.98, 187500.00, 187500.00, 187500.00, -187500.02, -187500.02, -187500.02, 0.000, 0.000, 0.000, 16:24:13.192
240, 41317.36, 62187.54, 187500.00, 187500.00, 187500.00, -187500.02, -187500.02, -187500.02, 0.000, 0.000, 0.000, 16:24:13.585
241, 41192.54, 62087.89, 187500.00, 187500.00, 187500.00, -187500.02, -187500.02, -187500.02, 0.000, 0.000, 0.000, 16:24:13.586
242, 41298.22, 62152.02, 187500.00, 187500.00, 187500.00, -187500.02, -187500.02, -187500.02, 0.000, 0.000, 0.000, 16:24:13.587
243, 41484.61, 62289.28, 187500.00, 187500.00, 187500.00, -187500.02, -187500.02, -187500.02, 0.000, 0.000, 0.000, 16:24:13.587
244, 41489.57, 62304.39, 187500.00, 187500.00, 187500.00, -187500.02, -187500.02, -187500.02, 0.000, 0.000, 0.000, 16:24:13.588
245, 41320.17, 62191.25, 187500.00, 187500.00, 187500.00, -187500.02, -187500.02, -187500.02, 0.002, -0.020, 1.022, 16:24:13.588
246, 41204.32, 62100.36, 187500.00, 187500.00, 187500.00, -187500.02, -187500.02, -187500.02, 0.000, 0.000, 0.000, 16:24:13.589
247, 41299.23, 62146.81, 187500.00, 187500.00, 187500.00, -187500.02, -187500.02, -187500.02, 0.000, 0.000, 0.000, 16:24:13.589
248, 41481.71, 62276.56, 187500.00, 187500.00, 187500.00, -187500.02, -187500.02, -187500.02, 0.000, 0.000, 0.000, 16:24:13.590
249, 41491.95, 62304.37, 187500.00, 187500.00, 187500.00, -187500.02, -187500.02, -187500.02, 0.000, 0.000, 0.000, 16:24:13.590
250, 41338.66, 62209.91, 187500.00, 187500.00, 187500.00, -187500.02, -187500.02, -187500.02, 0.000, 0.000, 0.000, 16:24:13.591
251, 41206.51, 62099.43, 187500.00, 187500.00, 187500.00, -187500.02, -187500.02, -187500.02, 0.000, 0.000, 0.000, 16:24:13.591
252, 41313.11, 62157.23, 187500.00, 187500.00, 187500.00, -187500.02, -187500.02, -187500.02, 0.000, 0.000, 0.000, 16:24:13.592
253, 41493.91, 62281.30, 187500.00, 187500.00, 187500.00, -187500.02, -187500.02, -187500.02, 0.000, 0.000, 0.000, 16:24:13.593
254, 41505.49, 62311.03, 187500.00, 187500.00, 187500.00, -187500.02, -187500.02, -187500.02, 0.000, 0.000, 0.000, 16:24:13.593
255, 41331.35, 62198.64, 187500.00, 187500.00, 187500.00, -187500.02, -187500.02, -187500.02, 0.004, -0.014, 1.022, 16:24:13.594
0, 41204.86, 62095.42, 187500.00, 187500.00, 187500.00, -187500.02, -187500.02, -187500.02, 0.000, 0.000, 0.000, 16:24:13.594
1, 41305.26, 62152.33, 187500.00, 187500.00, 187500.00, -187500.02, -187500.02, -187500.02, 0.000, 0.000, 0.000, 16:24:13.595
2, 41491.23, 62283.00, 187500.00, 187500.00, 187500.00, -187500.02, -187500.02, -187500.02, 0.000, 0.000, 0.000, 16:24:13.595
3, 41505.29, 62306.54, 187500.00, 187500.00, 187500.00, -187500.02, -187500.02, -187500.02, 0.000, 0.000, 0.000, 16:24:13.596
4, 41337.89, 62196.63, 187500.00, 187500.00, 187500.00, -187500.02, -187500.02, -187500.02, 0.000, 0.000, 0.000, 16:24:13.596
5, 41198.04, 62087.55, 187500.00, 187500.00, 187500.00, -187500.02, -187500.02, -187500.02, 0.000, 0.000, 0.000, 16:24:13.597
6, 41305.98, 62149.40, 187500.00, 187500.00, 187500.00, -187500.02, -187500.02, -187500.02, 0.000, 0.000, 0.000, 16:24:13.598
7, 41498.88, 62293.77, 187500.00, 187500.00, 187500.00, -187500.02, -187500.02, -187500.02, 0.000, 0.000, 0.000, 16:24:13.598
8, 41523.71, 62333.29, 187500.00, 187500.00, 187500.00, -187500.02, -187500.02, -187500.02, 0.000, 0.000, 0.000, 16:24:13.599
9, 41347.66, 62212.64, 187500.00, 187500.00, 187500.00, -187500.02, -187500.02, -187500.02, 0.004, -0.014, 1.022, 16:24:13.600
10, 41199.25, 62089.57, 187500.00, 187500.00, 187500.00, -187500.02, -187500.02, -187500.02, 0.000, 0.000, 0.000, 16:24:13.601
11, 41302.87, 62147.05, 187500.00, 187500.00, 187500.00, -187500.02, -187500.02, -187500.02, 0.000, 0.000, 0.000, 16:24:13.601
12, 41494.85, 62285.84, 187500.00, 187500.00, 187500.00, -187500.02, -187500.02, -187500.02, 0.000, 0.000, 0.000, 16:24:13.602
13, 41512.80, 62317.69, 187500.00, 187500.00, 187500.00, -187500.02, -187500.02, -187500.02, 0.000, 0.000, 0.000, 16:24:13.602
14, 41338.10, 62208.88, 187500.00, 187500.00, 187500.00, -187500.02, -187500.02, -187500.02, 0.000, 0.000, 0.000, 16:24:13.603
15, 41205.06, 62106.11, 187500.00, 187500.00, 187500.00, -187500.02, -187500.02, -187500.02, 0.000, 0.000, 0.000, 16:24:13.604
16, 41304.17, 62158.19, 187500.00, 187500.00, 187500.00, -187500.02, -187500.02, -187500.02, 0.000, 0.000, 0.000, 16:24:13.604
17, 41495.97, 62291.83, 187500.00, 187500.00, 187500.00, -187500.02, -187500.02, -187500.02, 0.000, 0.000, 0.000, 16:24:13.605
18, 41521.29, 62325.22, 187500.00, 187500.00, 187500.00, -187500.02, -187500.02, -187500.02, 0.004, -0.020, 1.026, 16:24:13.606
19, 41344.82, 62206.87, 187500.00, 187500.00, 187500.00, -187500.02, -187500.02, -187500.02, 0.000, 0.000, 0.000, 16:24:13.607
20, 41193.57, 62085.57, 187500.00, 187500.00, 187500.00, -187500.02, -187500.02, -187500.02, 0.000, 0.000, 0.000, 16:24:13.607
21, 41297.26, 62141.56, 187500.00, 187500.00, 187500.00, -187500.02, -187500.02, -187500.02, 0.000, 0.000, 0.000, 16:24:13.608
22, 41505.00, 62302.20, 187500.00, 187500.00, 187500.00, -187500.02, -187500.02, -187500.02, 0.000, 0.000, 0.000, 16:24:13.609
23, 41518.50, 62328.80, 187500.00, 187500.00, 187500.00, -187500.02, -187500.02, -187500.02, 0.000, 0.000, 0.000, 16:24:13.610
24, 41343.11, 62210.80, 187500.00, 187500.00, 187500.00, -187500.02, -187500.02, -187500.02, 0.000, 0.000, 0.000, 16:24:13.611
25, 41208.08, 62104.52, 187500.00, 187500.00, 187500.00, -187500.02, -187500.02, -187500.02, 0.000, 0.000, 0.000, 16:24:13.612
26, 41311.95, 62162.61, 187500.00, 187500.00, 187500.00, -187500.02, -187500.02, -187500.02, 0.000, 0.000, 0.000, 16:24:13.613
27, 41502.36, 62301.46, 187500.00, 187500.00, 187500.00, -187500.02, -187500.02, -187500.02, 0.000, 0.000, 0.000, 16:24:13.614
28, 41516.87, 62319.88, 187500.00, 187500.00, 187500.00, -187500.02, -187500.02, -187500.02, 0.008, -0.020, 1.026, 16:24:13.616
29, 41340.40, 62199.09, 187500.00, 187500.00, 187500.00, -187500.02, -187500.02, -187500.02, 0.000, 0.000, 0.000, 16:24:13.617
30, 41212.70, 62099.16, 187500.00, 187500.00, 187500.00, -187500.02, -187500.02, -187500.02, 0.000, 0.000, 0.000, 16:24:13.618
31, 41316.10, 62160.27, 187500.00, 187500.00, 187500.00, -187500.02, -187500.02, -187500.02, 0.000, 0.000, 0.000, 16:24:13.618
32, 41506.47, 62295.79, 187500.00, 187500.00, 187500.00, -187500.02, -187500.02, -187500.02, 0.000, 0.000, 0.000, 16:24:13.619
33, 41533.81, 62335.10, 187500.00, 187500.00, 187500.00, -187500.02, -187500.02, -187500.02, 0.000, 0.000, 0.000, 16:24:13.620
34, 41350.37, 62215.41, 187500.00, 187500.00, 187500.00, -187500.02, -187500.02, -187500.02, 0.000, 0.000, 0.000, 16:24:13.620
35, 41202.78, 62099.36, 187500.00, 187500.00, 187500.00, -187500.02, -187500.02, -187500.02, 0.000, 0.000, 0.000, 16:24:13.621
36, 41294.36, 62144.80, 187500.00, 187500.00, 187500.00, -187500.02, -187500.02, -187500.02, 0.000, 0.000, 0.000, 16:24:13.622
37, 41482.69, 62281.37, 187500.00, 187500.00, 187500.00, -187500.02, -187500.02, -187500.02, 0.000, 0.000, 0.000, 16:24:13.623
38, 41503.97, 62314.18, 187500.00, 187500.00, 187500.00, -187500.02, -187500.02, -187500.02, 0.006, -0.024, 1.030, 16:24:13.624
39, 41340.13, 62209.44, 187500.00, 187500.00, 187500.00, -187500.02, -187500.02, -187500.02, 0.000, 0.000, 0.000, 16:24:13.625
40, 41207.81, 62110.31, 187500.00, 187500.00, 187500.00, -187500.02, -187500.02, -187500.02, 0.000, 0.000, 0.000, 16:24:13.625
41, 41305.89, 62160.07, 187500.00, 187500.00, 187500.00, -187500.02, -187500.02, -187500.02, 0.000, 0.000, 0.000, 16:24:13.626
42, 41503.37, 62300.43, 187500.00, 187500.00, 187500.00, -187500.02, -187500.02, -187500.02, 0.000, 0.000, 0.000, 16:24:13.627
43, 41501.38, 62311.70, 187500.00, 187500.00, 187500.00, -187500.02, -187500.02, -187500.02, 0.000, 0.000, 0.000, 16:24:13.627
44, 41346.90, 62218.67, 187500.00, 187500.00, 187500.00, -187500.02, -187500.02, -187500.02, 0.000, 0.000, 0.000, 16:24:13.628
45, 41213.55, 62111.74, 187500.00, 187500.00, 187500.00, -187500.02, -187500.02, -187500.02, 0.000, 0.000, 0.000, 16:24:13.628
46, 41309.84, 62161.34, 187500.00, 187500.00, 187500.00, -187500.02, -187500.02, -187500.02, 0.000, 0.000, 0.000, 16:24:13.629
47, 41494.76, 62296.97, 187500.00, 187500.00, 187500.00, -187500.02, -187500.02, -187500.02, 0.000, 0.000, 0.000, 16:24:13.629
48, 41526.46, 62341.96, 187500.00, 187500.00, 187500.00, -187500.02, -187500.02, -187500.02, 0.006, -0.026, 1.030, 16:24:13.630
49, 41339.10, 62213.66, 187500.00, 187500.00, 187500.00, -187500.02, -187500.02, -187500.02, 0.000, 0.000, 0.000, 16:24:13.631
50, 41207.38, 62107.47, 187500.00, 187500.00, 187500.00, -187500.02, -187500.02, -187500.02, 0.000, 0.000, 0.000, 16:24:13.631
51, 41304.84, 62155.93, 187500.00, 187500.00, 187500.00, -187500.02, -187500.02, -187500.02, 0.000, 0.000, 0.000, 16:24:13.632
52, 41499.25, 62299.81, 187500.00, 187500.00, 187500.00, -187500.02, -187500.02, -187500.02, 0.000, 0.000, 0.000, 16:24:13.632
53, 41515.79, 62324.13, 187500.00, 187500.00, 187500.00, -187500.02, -187500.02, -187500.02, 0.000, 0.000, 0.000, 16:24:13.633
54, 41346.48, 62207.88, 187500.00, 187500.00, 187500.00, -187500.02, -187500.02, -187500.02, 0.000, 0.000, 0.000, 16:24:13.633
55, 41209.22, 62099.61, 187500.00, 187500.00, 187500.00, -187500.02, -187500.02, -187500.02, 0.000, 0.000, 0.000, 16:24:13.634
56, 41302.65, 62149.71, 187500.00, 187500.00, 187500.00, -187500.02, -187500.02, -187500.02, 0.000, 0.000, 0.000, 16:24:13.635
57, 41493.75, 62285.70, 187500.00, 187500.00, 187500.00, -187500.02, -187500.02, -187500.02, 0.000, 0.000, 0.000, 16:24:13.636
58, 41521.85, 62328.46, 187500.00, 187500.00, 187500.00, -187500.02, -187500.02, -187500.02, 0.004, -0.020, 1.030, 16:24:13.636
59, 41352.60, 62222.47, 187500.00, 187500.00, 187500.00, -187500.02, -187500.02, -187500.02, 0.000, 0.000, 0.000, 16:24:13.637
60, 41221.64, 62115.61, 187500.00, 187500.00, 187500.00, -187500.02, -187500.02, -187500.02, 0.000, 0.000, 0.000, 16:24:13.638
61, 41309.84, 62153.96, 187500.00, 187500.00, 187500.00, -187500.02, -187500.02, -187500.02, 0.000, 0.000, 0.000, 16:24:13.639
62, 41496.37, 62282.22, 187500.00, 187500.00, 187500.00, -187500.02, -187500.02, -187500.02, 0.000, 0.000, 0.000, 16:24:13.639
63, 41512.53, 62316.13, 187500.00, 187500.00, 187500.00, -187500.02, -187500.02, -187500.02, 0.000, 0.000, 0.000, 16:24:13.640
64, 41342.88, 62207.56, 187500.00, 187500.00, 187500.00, -187500.02, -187500.02, -187500.02, 0.000, 0.000, 0.000, 16:24:13.641
65, 41210.11, 62100.95, 187500.00, 187500.00, 187500.00, -187500.02, -187500.02, -187500.02, 0.000, 0.000, 0.000, 16:24:13.642
66, 41302.60, 62150.05, 187500.00, 187500.00, 187500.00, -187500.02, -187500.02, -187500.02, 0.000, 0.000, 0.000, 16:24:13.643
67, 41504.59, 62292.05, 187500.00, 187500.00, 187500.00, -187500.02, -187500.02, -187500.02, 0.000, 0.000, 0.000, 16:24:13.643
68, 41532.13, 62330.36, 187500.00, 187500.00, 187500.00, -187500.02, -187500.02, -187500.02, 0.004, -0.020, 1.026, 16:24:13.644
69, 41370.13, 62231.50, 187500.00, 187500.00, 187500.00, -187500.02, -187500.02, -187500.02, 0.000, 0.000, 0.000, 16:24:13.645
70, 41218.36, 62114.47, 187500.00, 187500.00, 187500.00, -187500.02, -187500.02, -187500.02, 0.000, 0.000, 0.000, 16:24:13.645
71, 41308.28, 62157.50, 187500.00, 187500.00, 187500.00, -187500.02, -187500.02, -187500.02, 0.000, 0.000, 0.000, 16:24:13.646
72, 41501.33, 62296.12, 187500.00, 187500.00, 187500.00, -187500.02, -187500.02, -187500.02, 0.000, 0.000, 0.000, 16:24:13.647
73, 41511.12, 62323.68, 187500.00, 187500.00, 187500.00, -187500.02, -187500.02, -187500.02, 0.000, 0.000, 0.000, 16:24:13.647
74, 41355.91, 62225.64, 187500.00, 187500.00, 187500.00, -187500.02, -187500.02, -187500.02, 0.000, 0.000, 0.000, 16:24:13.648
75, 41218.25, 62115.25, 187500.00, 187500.00, 187500.00, -187500.02, -187500.02, -187500.02, 0.000, 0.000, 0.000, 16:24:13.649
76, 41304.01, 62149.85, 187500.00, 187500.00, 187500.00, -187500.02, -187500.02, -187500.02, 0.000, 0.000, 0.000, 16:24:13.649
77, 41498.05, 62284.56, 187500.00, 187500.00, 187500.00, -187500.02, -187500.02, -187500.02, 0.000, 0.000, 0.000, 16:24:13.650
78, 41519.01, 62319.19, 187500.00, 187500.00, 187500.00, -187500.02, -187500.02, -187500.02, 0.004, -0.016, 1.028, 16:24:13.650
79, 41347.77, 62209.66, 187500.00, 187500.00, 187500.00, -187500.02, -187500.02, -187500.02, 0.000, 0.000, 0.000, 16:24:13.651
80, 41199.45, 62091.04, 187500.00, 187500.00, 187500.00, -187500.02, -187500.02, -187500.02, 0.000, 0.000, 0.000, 16:24:13.652
81, 41305.98, 62150.05, 187500.00, 187500.00, 187500.00, -187500.02, -187500.02, -187500.02, 0.000, 0.000, 0.000, 16:24:13.653
82, 41497.98, 62287.13, 187500.00, 187500.00, 187500.00, -187500.02, -187500.02, -187500.02, 0.000, 0.000, 0.000, 16:24:13.653
83, 41520.20, 62320.26, 187500.00, 187500.00, 187500.00, -187500.02, -187500.02, -187500.02, 0.000, 0.000, 0.000, 16:24:13.654
84, 41347.80, 62205.15, 187500.00, 187500.00, 187500.00, -187500.02, -187500.02, -187500.02, 0.000, 0.000, 0.000, 16:24:13.655
85, 41215.01, 62103.79, 187500.00, 187500.00, 187500.00, -187500.02, -187500.02, -187500.02, 0.000, 0.000, 0.000, 16:24:13.656
86, 41306.20, 62150.72, 187500.00, 187500.00, 187500.00, -187500.02, -187500.02, -187500.02, 0.000, 0.000, 0.000, 16:24:13.656
87, 41498.89, 62284.68, 187500.00, 187500.00, 187500.00, -187500.02, -187500.02, -187500.02, 0.000, 0.000, 0.000, 16:24:13.657
88, 41530.34, 62324.06, 187500.00, 187500.00, 187500.00, -187500.02, -187500.02, -187500.02, 0.004, -0.018, 1.022, 16:24:13.658
89, 41359.58, 62214.04, 187500.00, 187500.00, 187500.00, -187500.02, -187500.02, -187500.02, 0.000, 0.000, 0.000, 16:24:13.658
90, 41215.36, 62105.01, 187500.00, 187500.00, 187500.00, -187500.02, -187500.02, -187500.02, 0.000, 0.000, 0.000, 16:24:13.659
91, 41299.27, 62146.92, 187500.00, 187500.00, 187500.00, -187500.02, -187500.02, -187500.02, 0.000, 0.000, 0.000, 16:24:13.660
92, 41494.18, 62282.60, 187500.00, 187500.00, 187500.00, -187500.02, -187500.02, -187500.02, 0.000, 0.000, 0.000, 16:24:13.660
93, 41525.81, 62318.47, 187500.00, 187500.00, 187500.00, -187500.02, -187500.02, -187500.02, 0.000, 0.000, 0.000, 16:24:13.661
94, 41369.05, 62218.89, 187500.00, 187500.00, 187500.00, -187500.02, -187500.02, -187500.02, 0.000, 0.000, 0.000, 16:24:13.662
95, 41217.35, 62111.38, 187500.00, 187500.00, 187500.00, -187500.02, -187500.02, -187500.02, 0.000, 0.000, 0.000, 16:24:13.663
96, 41301.78, 62156.24, 187500.00, 187500.00, 187500.00, -187500.02, -187500.02, -187500.02, 0.000, 0.000, 0.000, 16:24:13.663
97, 41513.63, 62301.98, 187500.00, 187500.00, 187500.00, -187500.02, -187500.02, -187500.02, 0.000, 0.000, 0.000, 16:24:13.664
98, 41543.46, 62335.17, 187500.00, 187500.00, 187500.00, -187500.02, -187500.02, -187500.02, 0.008, -0.020, 1.022, 16:24:13.665
99, 41369.66, 62222.98, 187500.00, 187500.00, 187500.00, -187500.02, -187500.02, -187500.02, 0.000, 0.000, 0.000, 16:24:13.665
100, 41230.79, 62118.49, 187500.00, 187500.00, 187500.00, -187500.02, -187500.02, -187500.02, 0.000, 0.000, 0.000, 16:24:13.666
101, 41307.03, 62147.73, 187500.00, 187500.00, 187500.00, -187500.02, -187500.02, -187500.02, 0.000, 0.000, 0.000, 16:24:13.666
102, 41494.58, 62276.74, 187500.00, 187500.00, 187500.00, -187500.02, -187500.02, -187500.02, 0.000, 0.000, 0.000, 16:24:13.667
103, 41528.00, 62320.82, 187500.00, 187500.00, 187500.00, -187500.02, -187500.02, -187500.02, 0.000, 0.000, 0.000, 16:24:13.668
104, 41364.56, 62223.19, 187500.00, 187500.00, 187500.00, -187500.02, -187500.02, -187500.02, 0.000, 0.000, 0.000, 16:24:14.065
105, 41224.91, 62118.27, 187500.00, 187500.00, 187500.00, -187500.02, -187500.02, -187500.02, 0.000, 0.000, 0.000, 16:24:14.066
106, 41322.52, 62166.86, 187500.00, 187500.00, 187500.00, -187500.02, -187500.02, -187500.02, 0.000, 0.000, 0.000, 16:24:14.068
107, 41513.69, 62300.21, 187500.00, 187500.00, 187500.00, -187500.02, -187500.02, -187500.02, 0.000, 0.000, 0.000, 16:24:14.068
108, 41522.16, 62318.02, 187500.00, 187500.00, 187500.00, -187500.02, -187500.02, -187500.02, 0.008, -0.016, 1.028, 16:24:14.069
109, 41345.16, 62198.82, 187500.00, 187500.00, 187500.00, -187500.02, -187500.02, -187500.02, 0.000, 0.000, 0.000, 16:24:14.070
110, 41200.90, 62085.16, 187500.00, 187500.00, 187500.00, -187500.02, -187500.02, -187500.02, 0.000, 0.000, 0.000, 16:24:14.070
111, 41287.61, 62126.98, 187500.00, 187500.00, 187500.00, -187500.02, -187500.02, -187500.02, 0.000, 0.000, 0.000, 16:24:14.071
112, 41485.91, 62264.43, 187500.00, 187500.00, 187500.00, -187500.02, -187500.02, -187500.02, 0.000, 0.000, 0.000, 16:24:14.072
113, 41533.16, 62325.56, 187500.00, 187500.00, 187500.00, -187500.02, -187500.02, -187500.02, 0.000, 0.000, 0.000, 16:24:14.073
114, 41351.89, 62204.21, 187500.00, 187500.00, 187500.00, -187500.02, -187500.02, -187500.02, 0.000, 0.000, 0.000, 16:24:14.074
115, 41196.68, 62078.08, 187500.00, 187500.00, 187500.00, -187500.02, -187500.02, -187500.02, 0.000, 0.000, 0.000, 16:24:14.074
116, 41293.37, 62133.91, 187500.00, 187500.00, 187500.00, -187500.02, -187500.02, -187500.02, 0.000, 0.000, 0.000, 16:24:14.075
117, 41491.45, 62281.77, 187500.00, 187500.00, 187500.00, -187500.02, -187500.02, -187500.02, 0.000, 0.000, 0.000, 16:24:14.076
118, 41509.45, 62311.34, 187500.00, 187500.00, 187500.00, -187500.02, -187500.02, -187500.02, 0.008, -0.016, 1.028, 16:24:14.076
119, 41340.51, 62204.75, 187500.00, 187500.00, 187500.00, -187500.02, -187500.02, -187500.02, 0.000, 0.000, 0.000, 16:24:14.077
120, 41203.94, 62094.46, 187500.00, 187500.00, 187500.00, -187500.02, -187500.02, -187500.02, 0.000, 0.000, 0.000, 16:24:14.078
121, 41281.21, 62122.38, 187500.00, 187500.00, 187500.00, -187500.02, -187500.02, -187500.02, 0.000, 0.000, 0.000, 16:24:14.079
122, 41480.16, 62268.29, 187500.00, 187500.00, 187500.00, -187500.02, -187500.02, -187500.02, 0.000, 0.000, 0.000, 16:24:14.080
123, 41506.41, 62307.56, 187500.00, 187500.00, 187500.00, -187500.02, -187500.02, -187500.02, 0.000, 0.000, 0.000, 16:24:14.081
124, 41354.44, 62211.68, 187500.00, 187500.00, 187500.00, -187500.02, -187500.02, -187500.02, 0.000, 0.000, 0.000, 16:24:14.082
125, 41208.10, 62091.80, 187500.00, 187500.00, 187500.00, -187500.02, -187500.02, -187500.02, 0.000, 0.000, 0.000, 16:24:14.083
126, 41301.75, 62140.02, 187500.00, 187500.00, 187500.00, -187500.02, -187500.02, -187500.02, 0.000, 0.000, 0.000, 16:24:14.084
127, 41492.59, 62275.15, 187500.00, 187500.00, 187500.00, -187500.02, -187500.02, -187500.02, 0.000, 0.000, 0.000, 16:24:14.086
128, 41536.67, 62328.39, 187500.00, 187500.00, 187500.00, -187500.02, -187500.02, -187500.02, 0.000, -0.016, 1.024, 16:24:14.086
129, 41363.22, 62211.90, 187500.00, 187500.00, 187500.00, -187500.02, -187500.02, -187500.02, 0.000, 0.000, 0.000, 16:24:14.087
130, 41199.11, 62080.20, 187500.00, 187500.00, 187500.00, -187500.02, -187500.02, -187500.02, 0.000, 0.000, 0.000, 16:24:14.087
131, 41279.56, 62117.73, 187500.00, 187500.00, 187500.00, -187500.02, -187500.02, -187500.02, 0.000, 0.000, 0.000, 16:24:14.088
132, 41463.73, 62246.84, 187500.00, 187500.00, 187500.00, -187500.02, -187500.02, -187500.02, 0.000, 0.000, 0.000, 16:24:14.088
133, 41501.91, 62288.68, 187500.00, 187500.00, 187500.00, -187500.02, -187500.02, -187500.02, 0.000, 0.000, 0.000, 16:24:14.089
134, 41337.23, 62179.40, 187500.00, 187500.00, 187500.00, -187500.02, -187500.02, -187500.02, 0.000, 0.000, 0.000, 16:24:14.090
135, 41202.87, 62076.54, 187500.00, 187500.00, 187500.00, -187500.02, -187500.02, -187500.02, 0.000, 0.000, 0.000, 16:24:14.091
136, 41294.33, 62129.62, 187500.00, 187500.00, 187500.00, -187500.02, -187500.02, -187500.02, 0.000, 0.000, 0.000, 16:24:14.092
137, 41485.89, 62262.41, 187500.00, 187500.00, 187500.00, -187500.02, -187500.02, -187500.02, 0.000, 0.000, 0.000, 16:24:14.093
138, 41512.33, 62292.50, 187500.00, 187500.00, 187500.00, -187500.02, -187500.02, -187500.02, 0.006, -0.016, 1.028, 16:24:14.093
139, 41340.76, 62186.66, 187500.00, 187500.00, 187500.00, -187500.02, -187500.02, -187500.02, 0.000, 0.000, 0.000, 16:24:14.094
140, 41208.19, 62086.95, 187500.00, 187500.00, 187500.00, -187500.02, -187500.02, -187500.02, 0.000, 0.000, 0.000, 16:24:14.094
141, 41279.00, 62113.68, 187500.00, 187500.00, 187500.00, -187500.02, -187500.02, -187500.02, 0.000, 0.000, 0.000, 16:24:14.095
142, 41472.57, 62248.27, 187500.00, 187500.00, 187500.00, -187500.02, -187500.02, -187500.02, 0.000, 0.000, 0.000, 16:24:14.095
143, 41503.03, 62291.02, 187500.00, 187500.00, 187500.00, -187500.02, -187500.02, -187500.02, 0.000, 0.000, 0.000, 16:24:14.096
144, 41343.75, 62197.88, 187500.00, 187500.00, 187500.00, -187500.02, -187500.02, -187500.02, 0.000, 0.000, 0.000, 16:24:14.096
145, 41197.53, 62087.80, 187500.00, 187500.00, 187500.00, -187500.02, -187500.02, -187500.02, 0.000, 0.000, 0.000, 16:24:14.097
146, 41283.63, 62128.21, 187500.00, 187500.00, 187500.00, -187500.02, -187500.02, -187500.02, 0.000, 0.000, 0.000, 16:24:14.098
147, 41474.62, 62258.41, 187500.00, 187500.00, 187500.00, -187500.02, -187500.02, -187500.02, 0.010, -0.016, 1.024, 16:24:14.098
148, 41504.64, 62297.35, 187500.00, 187500.00, 187500.00, -187500.02, -187500.02, -187500.02, 0.000, 0.000, 0.000, 16:24:14.099
149, 41340.00, 62190.71, 187500.00, 187500.00, 187500.00, -187500.02, -187500.02, -187500.02, 0.000, 0.000, 0.000, 16:24:14.099
150, 41192.45, 62074.17, 187500.00, 187500.00, 187500.00, -187500.02, -187500.02, -187500.02, 0.000, 0.000, 0.000, 16:24:14.100
151, 41276.27, 62112.84, 187500.00, 187500.00, 187500.00, -187500.02, -187500.02, -187500.02, 0.000, 0.000, 0.000, 16:24:14.101
152, 41472.50, 62255.71, 187500.00, 187500.00, 187500.00, -187500.02, -187500.02, -187500.02, 0.000, 0.000, 0.000, 16:24:14.101
153, 41514.07, 62305.75, 187500.00, 187500.00, 187500.00, -187500.02, -187500.02, -187500.02, 0.000, 0.000, 0.000, 16:24:14.102
154, 41356.52, 62200.36, 187500.00, 187500.00, 187500.00, -187500.02, -187500.02, -187500.02, 0.000, 0.000, 0.000, 16:24:14.103
155, 41205.08, 62082.30, 187500.00, 187500.00, 187500.00, -187500.02, -187500.02, -187500.02, 0.000, 0.000, 0.000, 16:24:14.103
156, 41277.70, 62121.06, 187500.00, 187500.00, 187500.00, -187500.02, -187500.02, -187500.02, 0.000, 0.000, 0.000, 16:24:14.104
157, 41476.21, 62266.23, 187500.00, 187500.00, 187500.00, -187500.02, -187500.02, -187500.02, 0.014, -0.016, 1.028, 16:24:14.104
158, 41519.10, 62315.45, 187500.00, 187500.00, 187500.00, -187500.02, -187500.02, -187500.02, 0.000, 0.000, 0.000, 16:24:14.105
159, 41350.99, 62209.80, 187500.00, 187500.00, 187500.00, -187500.02, -187500.02, -187500.02, 0.000, 0.000, 0.000, 16:24:14.106
160, 41205.98, 62096.65, 187500.00, 187500.00, 187500.00, -187500.02, -187500.02, -187500.02, 0.000, 0.000, 0.000, 16:24:14.106
161, 41285.88, 62131.05, 187500.00, 187500.00, 187500.00, -187500.02, -187500.02, -187500.02, 0.000, 0.000, 0.000, 16:24:14.107
162, 41483.14, 62268.56, 187500.00, 187500.00, 187500.00, -187500.02, -187500.02, -187500.02, 0.000, 0.000, 0.000, 16:24:14.107
163, 41524.24, 62313.00, 187500.00, 187500.00, 187500.00, -187500.02, -187500.02, -187500.02, 0.000, 0.000, 0.000, 16:24:14.108
164, 41357.34, 62205.93, 187500.00, 187500.00, 187500.00, -187500.02, -187500.02, -187500.02, 0.000, 0.000, 0.000, 16:24:14.109
165, 41209.84, 62098.87, 187500.00, 187500.00, 187500.00, -187500.02, -187500.02, -187500.02, 0.000, 0.000, 0.000, 16:24:14.109
166, 41290.42, 62142.30, 187500.00, 187500.00, 187500.00, -187500.02, -187500.02, -187500.02, 0.000, 0.000, 0.000, 16:24:14.110
167, 41484.34, 62275.20, 187500.00, 187500.00, 187500.00, -187500.02, -187500.02, -187500.02, 0.012, -0.020, 1.030, 16:24:14.111
168, 41529.32, 62322.38, 187500.00, 187500.00, 187500.00, -187500.02, -187500.02, -187500.02, 0.000, 0.000, 0.000, 16:24:14.111
169, 41357.05, 62206.71, 187500.00, 187500.00, 187500.00, -187500.02, -187500.02, -187500.02, 0.000, 0.000, 0.000, 16:24:14.112
170, 41195.02, 62078.64, 187500.00, 187500.00, 187500.00, -187500.02, -187500.02, -187500.02, 0.000, 0.000, 0.000, 16:24:14.113
171, 41280.12, 62122.11, 187500.00, 187500.00, 187500.00, -187500.02, -187500.02, -187500.02, 0.000, 0.000, 0.000, 16:24:14.114
172, 41471.07, 62261.86, 187500.00, 187500.00, 187500.00, -187500.02, -187500.02, -187500.02, 0.000, 0.000, 0.000, 16:24:14.114
173, 41513.36, 62303.34, 187500.00, 187500.00, 187500.00, -187500.02, -187500.02, -187500.02, 0.000, 0.000, 0.000, 16:24:14.115
174, 41359.89, 62202.02, 187500.00, 187500.00, 187500.00, -187500.02, -187500.02, -187500.02, 0.000, 0.000, 0.000, 16:24:14.116
175, 41220.93, 62100.14, 187500.00, 187500.00, 187500.00, -187500.02, -187500.02, -187500.02, 0.000, 0.000, 0.000, 16:24:14.117
176, 41304.77, 62142.25, 187500.00, 187500.00, 187500.00, -187500.02, -187500.02, -187500.02, 0.000, 0.000, 0.000, 16:24:14.117
177, 41504.06, 62277.32, 187500.00, 187500.00, 187500.00, -187500.02, -187500.02, -187500.02, 0.006, -0.020, 1.024, 16:24:14.118
178, 41541.14, 62321.94, 187500.00, 187500.00, 187500.00, -187500.02, -187500.02, -187500.02, 0.000, 0.000, 0.000, 16:24:14.120
179, 41368.74, 62214.94, 187500.00, 187500.00, 187500.00, -187500.02, -187500.02, -187500.02, 0.000, 0.000, 0.000, 16:24:14.121
180, 41212.14, 62098.31, 187500.00, 187500.00, 187500.00, -187500.02, -187500.02, -187500.02, 0.000, 0.000, 0.000, 16:24:14.122
181, 41301.02, 62150.18, 187500.00, 187500.00, 187500.00, -187500.02, -187500.02, -187500.02, 0.000, 0.000, 0.000, 16:24:14.123
182, 41496.44, 62285.39, 187500.00, 187500.00, 187500.00, -187500.02, -187500.02, -187500.02, 0.000, 0.000, 0.000, 16:24:14.124
183, 41509.71, 62301.37, 187500.00, 187500.00, 187500.00, -187500.02, -187500.02, -187500.02, 0.000, 0.000, 0.000, 16:24:14.125
184, 41350.50, 62200.77, 187500.00, 187500.00, 187500.00, -187500.02, -187500.02, -187500.02, 0.000, 0.000, 0.000, 16:24:14.126
185, 41204.34, 62088.67, 187500.00, 187500.00, 187500.00, -187500.02, -187500.02, -187500.02, 0.000, 0.000, 0.000, 16:24:14.127
186, 41278.29, 62123.27, 187500.00, 187500.00, 187500.00, -187500.02, -187500.02, -187500.02, 0.000, 0.000, 0.000, 16:24:14.127
187, 41465.75, 62253.96, 187500.00, 187500.00, 187500.00, -187500.02, -187500.02, -187500.02, 0.004, -0.020, 1.026, 16:24:14.128
188, 41505.64, 62300.95, 187500.00, 187500.00, 187500.00, -187500.02, -187500.02, -187500.02, 0.000, 0.000, 0.000, 16:24:14.128
189, 41361.59, 62211.25, 187500.00, 187500.00, 187500.00, -187500.02, -187500.02, -187500.02, 0.000, 0.000, 0.000, 16:24:14.129
190, 41211.07, 62098.02, 187500.00, 187500.00, 187500.00, -187500.02, -187500.02, -187500.02, 0.000, 0.000, 0.000, 16:24:14.130
191, 41284.68, 62132.73, 187500.00, 187500.00, 187500.00, -187500.02, -187500.02, -187500.02, 0.000, 0.000, 0.000, 16:24:14.131
192, 41487.79, 62279.36, 187500.00, 187500.00, 187500.00, -187500.02, -187500.02, -187500.02, 0.000, 0.000, 0.000, 16:24:14.132
193, 41523.91, 62321.82, 187500.00, 187500.00, 187500.00, -187500.02, -187500.02, -187500.02, 0.000, 0.000, 0.000, 16:24:14.133
194, 41364.76, 62221.38, 187500.00, 187500.00, 187500.00, -187500.02, -187500.02, -187500.02, 0.000, 0.000, 0.000, 16:24:14.134
195, 41210.38, 62088.96, 187500.00, 187500.00, 187500.00, -187500.02, -187500.02, -187500.02, 0.000, 0.000, 0.000, 16:24:14.135
196, 41279.67, 62112.66, 187500.00, 187500.00, 187500.00, -187500.02, -187500.02, -187500.02, 0.000, 0.000, 0.000, 16:24:14.135
197, 41486.98, 62263.55, 187500.00, 187500.00, 187500.00, -187500.02, -187500.02, -187500.02, 0.002, -0.016, 1.024, 16:24:14.136
198, 41543.35, 62323.19, 187500.00, 187500.00, 187500.00, -187500.02, -187500.02, -187500.02, 0.000, 0.000, 0.000, 16:24:14.137
199, 41373.79, 62210.29, 187500.00, 187500.00, 187500.00, -187500.02, -187500.02, -187500.02, 0.000, 0.000, 0.000, 16:24:14.138
200, 41214.78, 62089.55, 187500.00, 187500.00, 187500.00, -187500.02, -187500.02, -187500.02, 0.000, 0.000, 0.000, 16:24:14.138
201, 41282.46, 62120.70, 187500.00, 187500.00, 187500.00, -187500.02, -187500.02, -187500.02, 0.000, 0.000, 0.000, 16:24:14.139
202, 41482.91, 62263.93, 187500.00, 187500.00, 187500.00, -187500.02, -187500.02, -187500.02, 0.000, 0.000, 0.000, 16:24:14.139
203, 41528.82, 62313.29, 187500.00, 187500.00, 187500.00, -187500.02, -187500.02, -187500.02, 0.000, 0.000, 0.000, 16:24:14.140
204, 41355.31, 62198.33, 187500.00, 187500.00, 187500.00, -187500.02, -187500.02, -187500.02, 0.000, 0.000, 0.000, 16:24:14.140
205, 41200.70, 62079.69, 187500.00, 187500.00, 187500.00, -187500.02, -187500.02, -187500.02, 0.000, 0.000, 0.000, 16:24:14.141
206, 41283.56, 62122.04, 187500.00, 187500.00, 187500.00, -187500.02, -187500.02, -187500.02, 0.000, 0.000, 0.000, 16:24:14.142
207, 41482.91, 62262.57, 187500.00, 187500.00, 187500.00, -187500.02, -187500.02, -187500.02, 0.008, -0.018, 1.026, 16:24:14.142
208, 41516.42, 62305.35, 187500.00, 187500.00, 187500.00, -187500.02, -187500.02, -187500.02, 0.000, 0.000, 0.000, 16:24:14.143
209, 41357.41, 62206.04, 187500.00, 187500.00, 187500.00, -187500.02, -187500.02, -187500.02, 0.000, 0.000, 0.000, 16:24:14.143
210, 41212.55, 62089.07, 187500.00, 187500.00, 187500.00, -187500.02, -187500.02, -187500.02, 0.000, 0.000, 0.000, 16:24:14.144
211, 41289.26, 62119.74, 187500.00, 187500.00, 187500.00, -187500.02, -187500.02, -187500.02, 0.000, 0.000, 0.000, 16:24:14.144
212, 41480.05, 62261.32, 187500.00, 187500.00, 187500.00, -187500.02, -187500.02, -187500.02, 0.000, 0.000, 0.000, 16:24:14.145
213, 41516.06, 62309.64, 187500.00, 187500.00, 187500.00, -187500.02, -187500.02, -187500.02, 0.000, 0.000, 0.000, 16:24:14.145
214, 41354.70, 62205.42, 187500.00, 187500.00, 187500.00, -187500.02, -187500.02, -187500.02, 0.000, 0.000, 0.000, 16:24:14.146
215, 41195.18, 62081.81, 187500.00, 187500.00, 187500.00, -187500.02, -187500.02, -187500.02, 0.000, 0.000, 0.000, 16:24:14.146
216, 41284.21, 62137.58, 187500.00, 187500.00, 187500.00, -187500.02, -187500.02, -187500.02, 0.000, 0.000, 0.000, 16:24:14.147
217, 41474.60, 62270.46, 187500.00, 187500.00, 187500.00, -187500.02, -187500.02, -187500.02, 0.002, -0.022, 1.028, 16:24:14.147
218, 41510.09, 62313.84, 187500.00, 187500.00, 187500.00, -187500.02, -187500.02, -187500.02, 0.000, 0.000, 0.000, 16:24:14.148
219, 41353.09, 62217.26, 187500.00, 187500.00, 187500.00, -187500.02, -187500.02, -187500.02, 0.000, 0.000, 0.000, 16:24:14.148
220, 41195.31, 62099.36, 187500.00, 187500.00, 187500.00, -187500.02, -187500.02, -187500.02, 0.000, 0.000, 0.000, 16:24:14.149
221, 41261.63, 62122.18, 187500.00, 187500.00, 187500.00, -187500.02, -187500.02, -187500.02, 0.000, 0.000, 0.000, 16:24:14.149
222, 41464.21, 62255.71, 187500.00, 187500.00, 187500.00, -187500.02, -187500.02, -187500.02, 0.000, 0.000, 0.000, 16:24:14.150
223, 41515.10, 62305.53, 187500.00, 187500.00, 187500.00, -187500.02, -187500.02, -187500.02, 0.000, 0.000, 0.000, 16:24:14.150
224, 41360.02, 62210.34, 187500.00, 187500.00, 187500.00, -187500.02, -187500.02, -187500.02, 0.000, 0.000, 0.000, 16:24:14.546
225, 41195.43, 62083.84, 187500.00, 187500.00, 187500.00, -187500.02, -187500.02, -187500.02, 0.000, 0.000, 0.000, 16:24:14.547
226, 41260.16, 62113.62, 187500.00, 187500.00, 187500.00, -187500.02, -187500.02, -187500.02, 0.000, 0.000, 0.000, 16:24:14.548
227, 41446.68, 62242.01, 187500.00, 187500.00, 187500.00, -187500.02, -187500.02, -187500.02, 0.004, -0.020, 1.022, 16:24:14.548
228, 41501.40, 62297.04, 187500.00, 187500.00, 187500.00, -187500.02, -187500.02, -187500.02, 0.000, 0.000, 0.000, 16:24:14.549
229, 41351.02, 62200.45, 187500.00, 187500.00, 187500.00, -187500.02, -187500.02, -187500.02, 0.000, 0.000, 0.000, 16:24:14.549
230, 41199.20, 62086.53, 187500.00, 187500.00, 187500.00, -187500.02, -187500.02, -187500.02, 0.000, 0.000, 0.000, 16:24:14.550
231, 41270.89, 62127.32, 187500.00, 187500.00, 187500.00, -187500.02, -187500.02, -187500.02, 0.000, 0.000, 0.000, 16:24:14.550
232, 41461.72, 62255.37, 187500.00, 187500.00, 187500.00, -187500.02, -187500.02, -187500.02, 0.000, 0.000, 0.000, 16:24:14.551
233, 41533.54, 62322.34, 187500.00, 187500.00, 187500.00, -187500.02, -187500.02, -187500.02, 0.000, 0.000, 0.000, 16:24:14.551
234, 41368.29, 62216.04, 187500.00, 187500.00, 187500.00, -187500.02, -187500.02, -187500.02, 0.000, 0.000, 0.000, 16:24:14.552
235, 41195.67, 62088.92, 187500.00, 187500.00, 187500.00, -187500.02, -187500.02, -187500.02, 0.000, 0.000, 0.000, 16:24:14.553
236, 41263.60, 62122.40, 187500.00, 187500.00, 187500.00, -187500.02, -187500.02, -187500.02, 0.000, 0.000, 0.000, 16:24:14.553
237, 41457.72, 62256.51, 187500.00, 187500.00, 187500.00, -187500.02, -187500.02, -187500.02, 0.008, -0.016, 1.022, 16:24:14.554
238, 41505.67, 62302.33, 187500.00, 187500.00, 187500.00, -187500.02, -187500.02, -187500.02, 0.000, 0.000, 0.000, 16:24:14.554
239, 41355.40, 62208.25, 187500.00, 187500.00, 187500.00, -187500.02, -187500.02, -187500.02, 0.000, 0.000, 0.000, 16:24:14.555
240, 41187.63, 62077.39, 187500.00, 187500.00, 187500.00, -187500.02, -187500.02, -187500.02, 0.000, 0.000, 0.000, 16:24:14.555
241, 41266.77, 62119.72, 187500.00, 187500.00, 187500.00, -187500.02, -187500.02, -187500.02, 0.000, 0.000, 0.000, 16:24:14.556
242, 41465.93, 62260.78, 187500.00, 187500.00, 187500.00, -187500.02, -187500.02, -187500.02, 0.000, 0.000, 0.000, 16:24:14.556
243, 41498.54, 62301.24, 187500.00, 187500.00, 187500.00, -187500.02, -187500.02, -187500.02, 0.000, 0.000, 0.000, 16:24:14.557
244, 41342.46, 62206.04, 187500.00, 187500.00, 187500.00, -187500.02, -187500.02, -187500.02, 0.000, 0.000, 0.000, 16:24:14.557
245, 41195.92, 62093.88, 187500.00, 187500.00, 187500.00, -187500.02, -187500.02, -187500.02, 0.000, 0.000, 0.000, 16:24:14.558
246, 41254.39, 62115.56, 187500.00, 187500.00, 187500.00, -187500.02, -187500.02, -187500.02, 0.000, 0.000, 0.000, 16:24:14.558
247, 41453.19, 62255.15, 187500.00, 187500.00, 187500.00, -187500.02, -187500.02, -187500.02, 0.008, -0.018, 1.034, 16:24:14.559
248, 41522.63, 62326.38, 187500.00, 187500.00, 187500.00, -187500.02, -187500.02, -187500.02, 0.000, 0.000, 0.000, 16:24:14.559
249, 41365.25, 62222.96, 187500.00, 187500.00, 187500.00, -187500.02, -187500.02, -187500.02, 0.000, 0.000, 0.000, 16:24:14.560
250, 41198.09, 62091.82, 187500.00, 187500.00, 187500.00, -187500.02, -187500.02, -187500.02, 0.000, 0.000, 0.000, 16:24:14.560
251, 41260.54, 62122.34, 187500.00, 187500.00, 187500.00, -187500.02, -187500.02, -187500.02, 0.000, 0.000, 0.000, 16:24:14.561
252, 41465.12, 62268.38, 187500.00, 187500.00, 187500.00, -187500.02, -187500.02, -187500.02, 0.000, 0.000, 0.000, 16:24:14.562
253, 41509.98, 62314.96, 187500.00, 187500.00, 187500.00, -187500.02, -187500.02, -187500.02, 0.000, 0.000, 0.000, 16:24:14.562
254, 41353.32, 62212.32, 187500.00, 187500.00, 187500.00, -187500.02, -187500.02, -187500.02, 0.000, 0.000, 0.000, 16:24:14.563
255, 41195.58, 62096.30, 187500.00, 187500.00, 187500.00, -187500.02, -187500.02, -187500.02, 0.000, 0.000, 0.000, 16:24:14.564
0, 41277.48, 62145.96, 187500.00, 187500.00, 187500.00, -187500.02, -187500.02, -187500.02, 0.000, 0.000, 0.000, 16:24:14.564
1, 41477.26, 62282.89, 187500.00, 187500.00, 187500.00, -187500.02, -187500.02, -187500.02, 0.004, -0.016, 1.038, 16:24:14.565
2, 41532.80, 62337.98, 187500.00, 187500.00, 187500.00, -187500.02, -187500.02, -187500.02, 0.000, 0.000, 0.000, 16:24:14.565
3, 41370.53, 62237.98, 187500.00, 187500.00, 187500.00, -187500.02, -187500.02, -187500.02, 0.000, 0.000, 0.000, 16:24:14.566
4, 41200.07, 62107.20, 187500.00, 187500.00, 187500.00, -187500.02, -187500.02, -187500.02, 0.000, 0.000, 0.000, 16:24:14.567
5, 41255.57, 62120.39, 187500.00, 187500.00, 187500.00, -187500.02, -187500.02, -187500.02, 0.000, 0.000, 0.000, 16:24:14.567
6, 41452.40, 62255.66, 187500.00, 187500.00, 187500.00, -187500.02, -187500.02, -187500.02, 0.000, 0.000, 0.000, 16:24:14.568
7, 41507.46, 62313.04, 187500.00, 187500.00, 187500.00, -187500.02, -187500.02, -187500.02, 0.000, 0.000, 0.000, 16:24:14.569
8, 41359.87, 62224.75, 187500.00, 187500.00, 187500.00, -187500.02, -187500.02, -187500.02, 0.000, 0.000, 0.000, 16:24:14.569
9, 41208.68, 62113.75, 187500.00, 187500.00, 187500.00, -187500.02, -187500.02, -187500.02, 0.000, 0.000, 0.000, 16:24:14.570
10, 41279.91, 62141.38, 187500.00, 187500.00, 187500.00, -187500.02, -187500.02, -187500.02, 0.002, -0.018, 1.034, 16:24:14.571
11, 41469.28, 62265.01, 187500.00, 187500.00, 187500.00, -187500.02, -187500.02, -187500.02, 0.000, 0.000, 0.000, 16:24:14.572
12, 41515.48, 62315.79, 187500.00, 187500.00, 187500.00, -187500.02, -187500.02, -187500.02, 0.000, 0.000, 0.000, 16:24:14.572
13, 41365.32, 62226.98, 187500.00, 187500.00, 187500.00, -187500.02, -187500.02, -187500.02, 0.000, 0.000, 0.000, 16:24:14.573
14, 41204.21, 62108.07, 187500.00, 187500.00, 187500.00, -187500.02, -187500.02, -187500.02, 0.000, 0.000, 0.000, 16:24:14.574
15, 41249.36, 62119.39, 187500.00, 187500.00, 187500.00, -187500.02, -187500.02, -187500.02, 0.000, 0.000, 0.000, 16:24:14.575
16, 41459.36, 62266.50, 187500.00, 187500.00, 187500.00, -187500.02, -187500.02, -187500.02, 0.000, 0.000, 0.000, 16:24:14.576
17, 41537.05, 62335.39, 187500.00, 187500.00, 187500.00, -187500.02, -187500.02, -187500.02, 0.000, 0.000, 0.000, 16:24:14.577
18, 41373.14, 62226.98, 187500.00, 187500.00, 187500.00, -187500.02, -187500.02, -187500.02, 0.000, 0.000, 0.000, 16:24:14.578
19, 41207.14, 62099.16, 187500.00, 187500.00, 187500.00, -187500.02, -187500.02, -187500.02, 0.000, 0.000, 0.000, 16:24:14.579
20, 41259.35, 62108.81, 187500.00, 187500.00, 187500.00, -187500.02, -187500.02, -187500.02, 0.000, -0.026, 1.028, 16:24:14.580
21, 41449.39, 62249.50, 187500.00, 187500.00, 187500.00, -187500.02, -187500.02, -187500.02, 0.000, 0.000, 0.000, 16:24:14.581
22, 41510.63, 62318.14, 187500.00, 187500.00, 187500.00, -187500.02, -187500.02, -187500.02, 0.000, 0.000, 0.000, 16:24:14.582
23, 41353.48, 62222.34, 187500.00, 187500.00, 187500.00, -187500.02, -187500.02, -187500.02, 0.000, 0.000, 0.000, 16:24:14.583
24, 41211.21, 62111.52, 187500.00, 187500.00, 187500.00, -187500.02, -187500.02, -187500.02, 0.000, 0.000, 0.000, 16:24:14.584
25, 41271.51, 62130.16, 187500.00, 187500.00, 187500.00, -187500.02, -187500.02, -187500.02, 0.000, 0.000, 0.000, 16:24:14.585
26, 41465.48, 62265.23, 187500.00, 187500.00, 187500.00, -187500.02, -187500.02, -187500.02, 0.000, 0.000, 0.000, 16:24:14.586
27, 41524.60, 62320.19, 187500.00, 187500.00, 187500.00, -187500.02, -187500.02, -187500.02, 0.000, 0.000, 0.000, 16:24:14.587
28, 41367.63, 62216.66, 187500.00, 187500.00, 187500.00, -187500.02, -187500.02, -187500.02, 0.000, 0.000, 0.000, 16:24:14.587
29, 41201.77, 62095.54, 187500.00, 187500.00, 187500.00, -187500.02, -187500.02, -187500.02, 0.000, 0.000, 0.000, 16:24:14.588
30, 41252.24, 62115.68, 187500.00, 187500.00, 187500.00, -187500.02, -187500.02, -187500.02, 0.008, -0.024, 1.026, 16:24:14.589
31, 41455.22, 62253.76, 187500.00, 187500.00, 187500.00, -187500.02, -187500.02, -187500.02, 0.000, 0.000, 0.000, 16:24:14.589
32, 41514.63, 62307.81, 187500.00, 187500.00, 187500.00, -187500.02, -187500.02, -187500.02, 0.000, 0.000, 0.000, 16:24:14.590
33, 41365.07, 62219.95, 187500.00, 187500.00, 187500.00, -187500.02, -187500.02, -187500.02, 0.000, 0.000, 0.000, 16:24:14.591
34, 41209.91, 62108.19, 187500.00, 187500.00, 187500.00, -187500.02, -187500.02, -187500.02, 0.000, 0.000, 0.000, 16:24:14.591
35, 41268.36, 62131.59, 187500.00, 187500.00, 187500.00, -187500.02, -187500.02, -187500.02, 0.000, 0.000, 0.000, 16:24:14.592
36, 41452.80, 62255.39, 187500.00, 187500.00, 187500.00, -187500.02, -187500.02, -187500.02, 0.000, 0.000, 0.000, 16:24:14.593
37, 41500.21, 62301.48, 187500.00, 187500.00, 187500.00, -187500.02, -187500.02, -187500.02, 0.000, 0.000, 0.000, 16:24:14.593
38, 41351.15, 62205.55, 187500.00, 187500.00, 187500.00, -187500.02, -187500.02, -187500.02, 0.000, 0.000, 0.000, 16:24:14.594
39, 41192.61, 62086.15, 187500.00, 187500.00, 187500.00, -187500.02, -187500.02, -187500.02, 0.000, 0.000, 0.000, 16:24:14.594
40, 41249.41, 62108.75, 187500.00, 187500.00, 187500.00, -187500.02, -187500.02, -187500.02, 0.002, -0.024, 1.026, 16:24:14.595
41, 41440.22, 62236.71, 187500.00, 187500.00, 187500.00, -187500.02, -187500.02, -187500.02, 0.000, 0.000, 0.000, 16:24:14.595
42, 41505.38, 62298.47, 187500.00, 187500.00, 187500.00, -187500.02, -187500.02, -187500.02, 0.000, 0.000, 0.000, 16:24:14.596
43, 41363.45, 62216.41, 187500.00, 187500.00, 187500.00, -187500.02, -187500.02, -187500.02, 0.000, 0.000, 0.000, 16:24:14.596
44, 41199.14, 62093.95, 187500.00, 187500.00, 187500.00, -187500.02, -187500.02, -187500.02, 0.000, 0.000, 0.000, 16:24:14.597
45, 41269.45, 62120.48, 187500.00, 187500.00, 187500.00, -187500.02, -187500.02, -187500.02, 0.000, 0.000, 0.000, 16:24:14.597
46, 41458.53, 62248.40, 187500.00, 187500.00, 187500.00, -187500.02, -187500.02, -187500.02, 0.000, 0.000, 0.000, 16:24:14.598
47, 41508.30, 62300.41, 187500.00, 187500.00, 187500.00, -187500.02, -187500.02, -187500.02, 0.000, 0.000, 0.000, 16:24:14.599
48, 41350.23, 62202.54, 187500.00, 187500.00, 187500.00, -187500.02, -187500.02, -187500.02, 0.000, 0.000, 0.000, 16:24:14.599
49, 41202.80, 62092.09, 187500.00, 187500.00, 187500.00, -187500.02, -187500.02, -187500.02, 0.000, 0.000, 0.000, 16:24:14.600
50, 41272.14, 62123.61, 187500.00, 187500.00, 187500.00, -187500.02, -187500.02, -187500.02, 0.000, -0.024, 1.026, 16:24:14.600
51, 41462.33, 62267.55, 187500.00, 187500.00, 187500.00, -187500.02, -187500.02, -187500.02, 0.000, 0.000, 0.000, 16:24:14.601
52, 41522.30, 62333.11, 187500.00, 187500.00, 187500.00, -187500.02, -187500.02, -187500.02, 0.000, 0.000, 0.000, 16:24:14.602
53, 41352.60, 62215.36, 187500.00, 187500.00, 187500.00, -187500.02, -187500.02, -187500.02, 0.000, 0.000, 0.000, 16:24:14.602
54, 41186.60, 62088.29, 187500.00, 187500.00, 187500.00, -187500.02, -187500.02, -187500.02, 0.000, 0.000, 0.000, 16:24:14.603
55, 41267.00, 62134.07, 187500.00, 187500.00, 187500.00, -187500.02, -187500.02, -187500.02, 0.000, 0.000, 0.000, 16:24:14.604
56, 41460.65, 62258.61, 187500.00, 187500.00, 187500.00, -187500.02, -187500.02, -187500.02, 0.000, 0.000, 0.000, 16:24:14.605
57, 41521.85, 62313.27, 187500.00, 187500.00, 187500.00, -187500.02, -187500.02, -187500.02, 0.000, 0.000, 0.000, 16:24:14.605
58, 41370.30, 62222.32, 187500.00, 187500.00, 187500.00, -187500.02, -187500.02, -187500.02, 0.000, 0.000, 0.000, 16:24:14.606
59, 41206.56, 62105.15, 187500.00, 187500.00, 187500.00, -187500.02, -187500.02, -187500.02, 0.000, 0.000, 0.000, 16:24:14.606
60, 41264.54, 62127.59, 187500.00, 187500.00, 187500.00, -187500.02, -187500.02, -187500.02, 0.006, -0.022, 1.032, 16:24:14.607
61, 41468.65, 62267.80, 187500.00, 187500.00, 187500.00, -187500.02, -187500.02, -187500.02, 0.000, 0.000, 0.000, 16:24:14.607
62, 41527.91, 62330.61, 187500.00, 187500.00, 187500.00, -187500.02, -187500.02, -187500.02, 0.000, 0.000, 0.000, 16:24:14.608
63, 41372.38, 62235.26, 187500.00, 187500.00, 187500.00, -187500.02, -187500.02, -187500.02, 0.000, 0.000, 0.000, 16:24:14.609
64, 41210.18, 62110.40, 187500.00, 187500.00, 187500.00, -187500.02, -187500.02, -187500.02, 0.000, 0.000, 0.000, 16:24:14.609
65, 41254.03, 62119.54, 187500.00, 187500.00, 187500.00, -187500.02, -187500.02, -187500.02, 0.000, 0.000, 0.000, 16:24:14.610
66, 41456.74, 62260.63, 187500.00, 187500.00, 187500.00, -187500.02, -187500.02, -187500.02, 0.000, 0.000, 0.000, 16:24:14.610
67, 41516.40, 62321.80, 187500.00, 187500.00, 187500.00, -187500.02, -187500.02, -187500.02, 0.000, 0.000, 0.000, 16:24:14.611
68, 41378.40, 62243.59, 187500.00, 187500.00, 187500.00, -187500.02, -187500.02, -187500.02, 0.000, 0.000, 0.000, 16:24:14.611
69, 41226.27, 62129.44, 187500.00, 187500.00, 187500.00, -187500.02, -187500.02, -187500.02, 0.000, 0.000, 0.000, 16:24:14.612
70, 41265.54, 62133.45, 187500.00, 187500.00, 187500.00, -187500.02, -187500.02, -187500.02, 0.008, -0.026, 1.026, 16:24:14.612
71, 41457.39, 62266.06, 187500.00, 187500.00, 187500.00, -187500.02, -187500.02, -187500.02, 0.000, 0.000, 0.000, 16:24:14.613
72, 41519.73, 62327.84, 187500.00, 187500.00, 187500.00, -187500.02, -187500.02, -187500.02, 0.000, 0.000, 0.000, 16:24:14.613
73, 41369.66, 62232.35, 187500.00, 187500.00, 187500.00, -187500.02, -187500.02, -187500.02, 0.000, 0.000, 0.000, 16:24:14.614
74, 41214.63, 62120.64, 187500.00, 187500.00, 187500.00, -187500.02, -187500.02, -187500.02, 0.000, 0.000, 0.000, 16:24:14.615
75, 41267.96, 62145.96, 187500.00, 187500.00, 187500.00, -187500.02, -187500.02, -187500.02, 0.000, 0.000, 0.000, 16:24:14.615
76, 41461.52, 62270.19, 187500.00, 187500.00, 187500.00, -187500.02, -187500.02, -187500.02, 0.000, 0.000, 0.000, 16:24:14.616
77, 41522.05, 62324.35, 187500.00, 187500.00, 187500.00, -187500.02, -187500.02, -187500.02, 0.000, 0.000, 0.000, 16:24:14.616
78, 41356.71, 62216.88, 187500.00, 187500.00, 187500.00, -187500.02, -187500.02, -187500.02, 0.000, 0.000, 0.000, 16:24:14.617
79, 41205.04, 62106.69, 187500.00, 187500.00, 187500.00, -187500.02, -187500.02, -187500.02, 0.000, 0.000, 0.000, 16:24:14.617
80, 41272.34, 62147.14, 187500.00, 187500.00, 187500.00, -187500.02, -187500.02, -187500.02, 0.002, -0.024, 1.028, 16:24:14.618
81, 41452.61, 62267.33, 187500.00, 187500.00, 187500.00, -187500.02, -187500.02, -187500.02, 0.000, 0.000, 0.000, 16:24:14.619
82, 41496.82, 62306.07, 187500.00, 187500.00, 187500.00, -187500.02, -187500.02, -187500.02, 0.000, 0.000, 0.000, 16:24:14.619
83, 41350.84, 62216.01, 187500.00, 187500.00, 187500.00, -187500.02, -187500.02, -187500.02, 0.000, 0.000, 0.000, 16:24:14.620
84, 41192.18, 62102.31, 187500.00, 187500.00, 187500.00, -187500.02, -187500.02, -187500.02, 0.000, 0.000, 0.000, 16:24:14.621
85, 41256.34, 62131.01, 187500.00, 187500.00, 187500.00, -187500.02, -187500.02, -187500.02, 0.000, 0.000, 0.000, 16:24:14.621
86, 41455.06, 62267.55, 187500.00, 187500.00, 187500.00, -187500.02, -187500.02, -187500.02, 0.000, 0.000, 0.000, 16:24:14.622
87, 41516.91, 62328.60, 187500.00, 187500.00, 187500.00, -187500.02, -187500.02, -187500.02, 0.000, 0.000, 0.000, 16:24:14.623
88, 41365.30, 62231.19, 187500.00, 187500.00, 187500.00, -187500.02, -187500.02, -187500.02, 0.000, 0.000, 0.000, 16:24:14.624
89, 41199.54, 62114.73, 187500.00, 187500.00, 187500.00, -187500.02, -187500.02, -187500.02, 0.000, 0.000, 0.000, 16:24:15.028
90, 41254.17, 62140.13, 187500.00, 187500.00, 187500.00, -187500.02, -187500.02, -187500.02, 0.006, -0.024, 1.026, 16:24:15.029
91, 41449.54, 62268.43, 187500.00, 187500.00, 187500.00, -187500.02, -187500.02, -187500.02, 0.000, 0.000, 0.000, 16:24:15.029
92, 41507.77, 62318.52, 187500.00, 187500.00, 187500.00, -187500.02, -187500.02, -187500.02, 0.000, 0.000, 0.000, 16:24:15.030
93, 41360.74, 62227.90, 187500.00, 187500.00, 187500.00, -187500.02, -187500.02, -187500.02, 0.000, 0.000, 0.000, 16:24:15.031
94, 41195.31, 62109.59, 187500.00, 187500.00, 187500.00, -187500.02, -187500.02, -187500.02, 0.000, 0.000, 0.000, 16:24:15.031
95, 41261.90, 62146.83, 187500.00, 187500.00, 187500.00, -187500.02, -187500.02, -187500.02, 0.000, 0.000, 0.000, 16:24:15.032
96, 41463.69, 62284.99, 187500.00, 187500.00, 187500.00, -187500.02, -187500.02, -187500.02, 0.000, 0.000, 0.000, 16:24:15.033
97, 41517.98, 62331.84, 187500.00, 187500.00, 187500.00, -187500.02, -187500.02, -187500.02, 0.000, 0.000, 0.000, 16:24:15.033
98, 41368.85, 62238.68, 187500.00, 187500.00, 187500.00, -187500.02, -187500.02, -187500.02, 0.000, 0.000, 0.000, 16:24:15.034
99, 41203.85, 62116.57, 187500.00, 187500.00, 187500.00, -187500.02, -187500.02, -187500.02, 0.000, 0.000, 0.000, 16:24:15.035
100, 41251.55, 62132.73, 187500.00, 187500.00, 187500.00, -187500.02, -187500.02, -187500.02, 0.006, -0.026, 1.026, 16:24:15.036
101, 41455.82, 62273.90, 187500.00, 187500.00, 187500.00, -187500.02, -187500.02, -187500.02, 0.000, 0.000, 0.000, 16:24:15.037
102, 41530.97, 62336.35, 187500.00, 187500.00, 187500.00, -187500.02, -187500.02, -187500.02, 0.000, 0.000, 0.000, 16:24:15.038
103, 41377.64, 62246.84, 187500.00, 187500.00, 187500.00, -187500.02, -187500.02, -187500.02, 0.000, 0.000, 0.000, 16:24:15.038
104, 41201.48, 62122.69, 187500.00, 187500.00, 187500.00, -187500.02, -187500.02, -187500.02, 0.000, 0.000, 0.000, 16:24:15.039
105, 41239.95, 62126.85, 187500.00, 187500.00, 187500.00, -187500.02, -187500.02, -187500.02, 0.000, 0.000, 0.000, 16:24:15.040
106, 41443.87, 62264.78, 187500.00, 187500.00, 187500.00, -187500.02, -187500.02, -187500.02, 0.000, 0.000, 0.000, 16:24:15.041
107, 41518.99, 62334.72, 187500.00, 187500.00, 187500.00, -187500.02, -187500.02, -187500.02, 0.000, 0.000, 0.000, 16:24:15.041
108, 41365.12, 62233.82, 187500.00, 187500.00, 187500.00, -187500.02, -187500.02, -187500.02, 0.000, 0.000, 0.000, 16:24:15.042
109, 41201.44, 62107.34, 187500.00, 187500.00, 187500.00, -187500.02, -187500.02, -187500.02, 0.000, 0.000, 0.000, 16:24:15.043
110, 41256.13, 62128.13, 187500.00, 187500.00, 187500.00, -187500.02, -187500.02, -187500.02, 0.008, -0.024, 1.032, 16:24:15.043
111, 41456.02, 62269.01, 187500.00, 187500.00, 187500.00, -187500.02, -187500.02, -187500.02, 0.000, 0.000, 0.000, 16:24:15.044
112, 41513.85, 62324.35, 187500.00, 187500.00, 187500.00, -187500.02, -187500.02, -187500.02, 0.000, 0.000, 0.000, 16:24:15.045
113, 41368.29, 62230.07, 187500.00, 187500.00, 187500.00, -187500.02, -187500.02, -187500.02, 0.000, 0.000, 0.000, 16:24:15.045
114, 41201.19, 62108.66, 187500.00, 187500.00, 187500.00, -187500.02, -187500.02, -187500.02, 0.000, 0.000, 0.000, 16:24:15.047
115, 41265.45, 62144.13, 187500.00, 187500.00, 187500.00, -187500.02, -187500.02, -187500.02, 0.000, 0.000, 0.000, 16:24:15.048
116, 41467.27, 62279.20, 187500.00, 187500.00, 187500.00, -187500.02, -187500.02, -187500.02, 0.000, 0.000, 0.000, 16:24:15.050
117, 41526.95, 62335.86, 187500.00, 187500.00, 187500.00, -187500.02, -187500.02, -187500.02, 0.000, 0.000, 0.000, 16:24:15.057
118, 41384.28, 62247.17, 187500.00, 187500.00, 187500.00, -187500.02, -187500.02, -187500.02, 0.000, 0.000, 0.000, 16:24:15.058
119, 41211.68, 62121.64, 187500.00, 187500.00, 187500.00, -187500.02, -187500.02, -187500.02, 0.000, 0.000, 0.000, 16:24:15.059
120, 41257.25, 62135.61, 187500.00, 187500.00, 187500.00, -187500.02, -187500.02, -187500.02, 0.004, -0.018, 1.030, 16:24:15.060
121, 41445.52, 62262.86, 187500.00, 187500.00, 187500.00, -187500.02, -187500.02, -187500.02, 0.000, 0.000, 0.000, 16:24:15.061
122, 41512.02, 62323.57, 187500.00, 187500.00, 187500.00, -187500.02, -187500.02, -187500.02, 0.000, 0.000, 0.000, 16:24:15.062
123, 41380.16, 62237.40, 187500.00, 187500.00, 187500.00, -187500.02, -187500.02, -187500.02, 0.000, 0.000, 0.000, 16:24:15.062
124, 41213.02, 62116.90, 187500.00, 187500.00, 187500.00, -187500.02, -187500.02, -187500.02, 0.000, 0.000, 0.000, 16:24:15.063
125, 41241.49, 62121.06, 187500.00, 187500.00, 187500.00, -187500.02, -187500.02, -187500.02, 0.000, 0.000, 0.000, 16:24:15.064
126, 41450.37, 62270.15, 187500.00, 187500.00, 187500.00, -187500.02, -187500.02, -187500.02, 0.000, 0.000, 0.000, 16:24:15.065
127, 41533.52, 62346.75, 187500.00, 187500.00, 187500.00, -187500.02, -187500.02, -187500.02, 0.000, 0.000, 0.000, 16:24:15.065
128, 41385.80, 62253.27, 187500.00, 187500.00, 187500.00, -187500.02, -187500.02, -187500.02, 0.000, 0.000, 0.000, 16:24:15.066
129, 41209.89, 62118.85, 187500.00, 187500.00, 187500.00, -187500.02, -187500.02, -187500.02, 0.000, -0.014, 1.032, 16:24:15.067
130, 41246.48, 62122.22, 187500.00, 187500.00, 187500.00, -187500.02, -187500.02, -187500.02, 0.000, 0.000, 0.000, 16:24:15.067
131, 41446.73, 62262.52, 187500.00, 187500.00, 187500.00, -187500.02, -187500.02, -187500.02, 0.000, 0.000, 0.000, 16:24:15.068
132, 41516.62, 62327.08, 187500.00, 187500.00, 187500.00, -187500.02, -187500.02, -187500.02, 0.000, 0.000, 0.000, 16:24:15.069
133, 41378.96, 62245.38, 187500.00, 187500.00, 187500.00, -187500.02, -187500.02, -187500.02, 0.000, 0.000, 0.000, 16:24:15.070
134, 41201.44, 62113.06, 187500.00, 187500.00, 187500.00, -187500.02, -187500.02, -187500.02, 0.000, 0.000, 0.000, 16:24:15.070
135, 41250.37, 62133.78, 187500.00, 187500.00, 187500.00, -187500.02, -187500.02, -187500.02, 0.000, 0.000, 0.000, 16:24:15.071
136, 41442.68, 62261.99, 187500.00, 187500.00, 187500.00, -187500.02, -187500.02, -187500.02, 0.000, 0.000, 0.000, 16:24:15.072
137, 41518.99, 62330.07, 187500.00, 187500.00, 187500.00, -187500.02, -187500.02, -187500.02, 0.000, 0.000, 0.000, 16:24:15.072
138, 41384.30, 62244.38, 187500.00, 187500.00, 187500.00, -187500.02, -187500.02, -187500.02, 0.000, 0.000, 0.000, 16:24:15.073
139, 41209.44, 62116.73, 187500.00, 187500.00, 187500.00, -187500.02, -187500.02, -187500.02, 0.004, -0.016, 1.026, 16:24:15.074
140, 41240.15, 62125.84, 187500.00, 187500.00, 187500.00, -187500.02, -187500.02, -187500.02, 0.000, 0.000, 0.000, 16:24:15.074
141, 41448.96, 62268.47, 187500.00, 187500.00, 187500.00, -187500.02, -187500.02, -187500.02, 0.000, 0.000, 0.000, 16:24:15.075
142, 41527.62, 62341.23, 187500.00, 187500.00, 187500.00, -187500.02, -187500.02, -187500.02, 0.000, 0.000, 0.000, 16:24:15.076
143, 41385.17, 62260.40, 187500.00, 187500.00, 187500.00, -187500.02, -187500.02, -187500.02, 0.000, 0.000, 0.000, 16:24:15.076
144, 41203.00, 62125.02, 187500.00, 187500.00, 187500.00, -187500.02, -187500.02, -187500.02, 0.000, 0.000, 0.000, 16:24:15.077
145, 41239.05, 62128.32, 187500.00, 187500.00, 187500.00, -187500.02, -187500.02, -187500.02, 0.000, 0.000, 0.000, 16:24:15.078
146, 41453.54, 62274.33, 187500.00, 187500.00, 187500.00, -187500.02, -187500.02, -187500.02, 0.000, 0.000, 0.000, 16:24:15.078
147, 41523.24, 62338.01, 187500.00, 187500.00, 187500.00, -187500.02, -187500.02, -187500.02, 0.000, 0.000, 0.000, 16:24:15.079
148, 41380.54, 62252.76, 187500.00, 187500.00, 187500.00, -187500.02, -187500.02, -187500.02, 0.000, 0.000, 0.000, 16:24:15.080
149, 41201.15, 62114.82, 187500.00, 187500.00, 187500.00, -187500.02, -187500.02, -187500.02, 0.006, -0.026, 1.030, 16:24:15.080
150, 41247.86, 62128.44, 187500.00, 187500.00, 187500.00, -187500.02, -187500.02, -187500.02, 0.000, 0.000, 0.000, 16:24:15.081
151, 41443.73, 62262.91, 187500.00, 187500.00, 187500.00, -187500.02, -187500.02, -187500.02, 0.000, 0.000, 0.000, 16:24:15.081
152, 41513.27, 62335.50, 187500.00, 187500.00, 187500.00, -187500.02, -187500.02, -187500.02, 0.000, 0.000, 0.000, 16:24:15.082
153, 41374.48, 62254.10, 187500.00, 187500.00, 187500.00, -187500.02, -187500.02, -187500.02, 0.000, 0.000, 0.000, 16:24:15.083
154, 41205.02, 62123.30, 187500.00, 187500.00, 187500.00, -187500.02, -187500.02, -187500.02, 0.000, 0.000, 0.000, 16:24:15.083
155, 41238.39, 62126.74, 187500.00, 187500.00, 187500.00, -187500.02, -187500.02, -187500.02, 0.000, 0.000, 0.000, 16:24:15.084
156, 41432.15, 62259.11, 187500.00, 187500.00, 187500.00, -187500.02, -187500.02, -187500.02, 0.000, 0.000, 0.000, 16:24:15.085
157, 41513.89, 62330.88, 187500.00, 187500.00, 187500.00, -187500.02, -187500.02, -187500.02, 0.000, 0.000, 0.000, 16:24:15.086
158, 41367.02, 62238.03, 187500.00, 187500.00, 187500.00, -187500.02, -187500.02, -187500.02, 0.000, 0.000, 0.000, 16:24:15.086
159, 41200.19, 62112.41, 187500.00, 187500.00, 187500.00, -187500.02, -187500.02, -187500.02, 0.008, -0.020, 1.030, 16:24:15.087
160, 41247.71, 62128.59, 187500.00, 187500.00, 187500.00, -187500.02, -187500.02, -187500.02, 0.000, 0.000, 0.000, 16:24:15.088
161, 41435.64, 62260.02, 187500.00, 187500.00, 187500.00, -187500.02, -187500.02, -187500.02, 0.000, 0.000, 0.000, 16:24:15.089
162, 41514.77, 62338.54, 187500.00, 187500.00, 187500.00, -187500.02, -187500.02, -187500.02, 0.000, 0.000, 0.000, 16:24:15.090
163, 41381.06, 62258.50, 187500.00, 187500.00, 187500.00, -187500.02, -187500.02, -187500.02, 0.000, 0.000, 0.000, 16:24:15.090
164, 41197.64, 62117.69, 187500.00, 187500.00, 187500.00, -187500.02, -187500.02, -187500.02, 0.000, 0.000, 0.000, 16:24:15.091
165, 41232.38, 62124.14, 187500.00, 187500.00, 187500.00, -187500.02, -187500.02, -187500.02, 0.000, 0.000, 0.000, 16:24:15.094
166, 41446.05, 62278.20, 187500.00, 187500.00, 187500.00, -187500.02, -187500.02, -187500.02, 0.000, 0.000, 0.000, 16:24:15.095
167, 41522.19, 62345.76, 187500.00, 187500.00, 187500.00, -187500.02, -187500.02, -187500.02, 0.000, 0.000, 0.000, 16:24:15.096
168, 41368.41, 62237.52, 187500.00, 187500.00, 187500.00, -187500.02, -187500.02, -187500.02, 0.000, 0.000, 0.000, 16:24:15.097
169, 41181.23, 62095.25, 187500.00, 187500.00, 187500.00, -187500.02, -187500.02, -187500.02, 0.002, -0.018, 1.034, 16:24:15.097
170, 41227.30, 62114.33, 187500.00, 187500.00, 187500.00, -187500.02, -187500.02, -187500.02, 0.000, 0.000, 0.000, 16:24:15.098
171, 41444.18, 62263.02, 187500.00, 187500.00, 187500.00, -187500.02, -187500.02, -187500.02, 0.000, 0.000, 0.000, 16:24:15.098
172, 41521.02, 62338.28, 187500.00, 187500.00, 187500.00, -187500.02, -187500.02, -187500.02, 0.000, 0.000, 0.000, 16:24:15.099
173, 41366.75, 62245.20, 187500.00, 187500.00, 187500.00, -187500.02, -187500.02, -187500.02, 0.000, 0.000, 0.000, 16:24:15.100
174, 41188.45, 62111.81, 187500.00, 187500.00, 187500.00, -187500.02, -187500.02, -187500.02, 0.000, 0.000, 0.000, 16:24:15.101
175, 41231.70, 62125.18, 187500.00, 187500.00, 187500.00, -187500.02, -187500.02, -187500.02, 0.000, 0.000, 0.000, 16:24:15.101
176, 41429.49, 62256.27, 187500.00, 187500.00, 187500.00, -187500.02, -187500.02, -187500.02, 0.000, 0.000, 0.000, 16:24:15.102
177, 41505.27, 62324.21, 187500.00, 187500.00, 187500.00, -187500.02, -187500.02, -187500.02, 0.000, 0.000, 0.000, 16:24:15.103
178, 41369.41, 62245.43, 187500.00, 187500.00, 187500.00, -187500.02, -187500.02, -187500.02, 0.000, 0.000, 0.000, 16:24:15.103
179, 41192.97, 62111.00, 187500.00, 187500.00, 187500.00, -187500.02, -187500.02, -187500.02, 0.010, -0.016, 1.024, 16:24:15.104
180, 41225.02, 62110.04, 187500.00, 187500.00, 187500.00, -187500.02, -187500.02, -187500.02, 0.000, 0.000, 0.000, 16:24:15.105
181, 41433.27, 62252.07, 187500.00, 187500.00, 187500.00, -187500.02, -187500.02, -187500.02, 0.000, 0.000, 0.000, 16:24:15.106
182, 41500.71, 62313.24, 187500.00, 187500.00, 187500.00, -187500.02, -187500.02, -187500.02, 0.000, 0.000, 0.000, 16:24:15.106
183, 41362.97, 62236.69, 187500.00, 187500.00, 187500.00, -187500.02, -187500.02, -187500.02, 0.000, 0.000, 0.000, 16:24:15.107
184, 41196.66, 62123.83, 187500.00, 187500.00, 187500.00, -187500.02, -187500.02, -187500.02, 0.000, 0.000, 0.000, 16:24:15.108
185, 41227.03, 62120.21, 187500.00, 187500.00, 187500.00, -187500.02, -187500.02, -187500.02, 0.000, 0.000, 0.000, 16:24:15.108
186, 41430.81, 62253.47, 187500.00, 187500.00, 187500.00, -187500.02, -187500.02, -187500.02, 0.000, 0.000, 0.000, 16:24:15.109
187, 41508.15, 62314.96, 187500.00, 187500.00, 187500.00, -187500.02, -187500.02, -187500.02, 0.000, 0.000, 0.000, 16:24:15.110
188, 41374.11, 62236.53, 187500.00, 187500.00, 187500.00, -187500.02, -187500.02, -187500.02, 0.000, 0.000, 0.000, 16:24:15.110
189, 41223.59, 62137.60, 187500.00, 187500.00, 187500.00, -187500.02, -187500.02, -187500.02, 0.008, -0.022, 1.026, 16:24:15.111
190, 41244.55, 62131.54, 187500.00, 187500.00, 187500.00, -187500.02, -187500.02, -187500.02, 0.000, 0.000, 0.000, 16:24:15.112
191, 41431.73, 62258.64, 187500.00, 187500.00, 187500.00, -187500.02, -187500.02, -187500.02, 0.000, 0.000, 0.000, 16:24:15.113
192, 41517.94, 62334.83, 187500.00, 187500.00, 187500.00, -187500.02, -187500.02, -187500.02, 0.000, 0.000, 0.000, 16:24:15.113
193, 41388.37, 62252.71, 187500.00, 187500.00, 187500.00, -187500.02, -187500.02, -187500.02, 0.000, 0.000, 0.000, 16:24:15.114
194, 41204.07, 62121.26, 187500.00, 187500.00, 187500.00, -187500.02, -187500.02, -187500.02, 0.000, 0.000, 0.000, 16:24:15.114
195, 41221.89, 62116.46, 187500.00, 187500.00, 187500.00, -187500.02, -187500.02, -187500.02, 0.000, 0.000, 0.000, 16:24:15.115
196, 41422.50, 62251.68, 187500.00, 187500.00, 187500.00, -187500.02, -187500.02, -187500.02, 0.000, 0.000, 0.000, 16:24:15.115
197, 41506.11, 62325.56, 187500.00, 187500.00, 187500.00, -187500.02, -187500.02, -187500.02, 0.000, 0.000, 0.000, 16:24:15.116
198, 41362.15, 62234.96, 187500.00, 187500.00, 187500.00, -187500.02, -187500.02, -187500.02, 0.000, 0.000, 0.000, 16:24:15.117
199, 41184.77, 62103.27, 187500.00, 187500.00, 187500.00, -187500.02, -187500.02, -187500.02, 0.008, -0.018, 1.020, 16:24:15.118
200, 41221.40, 62116.19, 187500.00, 187500.00, 187500.00, -187500.02, -187500.02, -187500.02, 0.000, 0.000, 0.000, 16:24:15.118
201, 41422.32, 62254.48, 187500.00, 187500.00, 187500.00, -187500.02, -187500.02, -187500.02, 0.000, 0.000, 0.000, 16:24:15.119
202, 41512.33, 62328.78, 187500.00, 187500.00, 187500.00, -187500.02, -187500.02, -187500.02, 0.000, 0.000, 0.000, 16:24:15.119
203, 41369.75, 62238.05, 187500.00, 187500.00, 187500.00, -187500.02, -187500.02, -187500.02, 0.000, 0.000, 0.000, 16:24:15.120
204, 41190.26, 62107.34, 187500.00, 187500.00, 187500.00, -187500.02, -187500.02, -187500.02, 0.000, 0.000, 0.000, 16:24:15.121
205, 41237.02, 62127.52, 187500.00, 187500.00, 187500.00, -187500.02, -187500.02, -187500.02, 0.000, 0.000, 0.000, 16:24:15.121
206, 41429.70, 62254.88, 187500.00, 187500.00, 187500.00, -187500.02, -187500.02, -187500.02, 0.000, 0.000, 0.000, 16:24:15.122
207, 41520.42, 62341.56, 187500.00, 187500.00, 187500.00, -187500.02, -187500.02, -187500.02, 0.000, 0.000, 0.000, 16:24:15.123
208, 41388.05, 62265.27, 187500.00, 187500.00, 187500.00, -187500.02, -187500.02, -187500.02, 0.000, 0.000, 0.000, 16:24:15.123
209, 41205.21, 62127.81, 187500.00, 187500.00, 187500.00, -187500.02, -187500.02, -187500.02, 0.004, -0.018, 1.022, 16:24:15.507
210, 41223.57, 62121.29, 187500.00, 187500.00, 187500.00, -187500.02, -187500.02, -187500.02, 0.000, 0.000, 0.000, 16:24:15.507
211, 41413.78, 62246.03, 187500.00, 187500.00, 187500.00, -187500.02, -187500.02, -187500.02, 0.000, 0.000, 0.000, 16:24:15.508
212, 41506.25, 62324.44, 187500.00, 187500.00, 187500.00, -187500.02, -187500.02, -187500.02, 0.000, 0.000, 0.000, 16:24:15.509
213, 41373.32, 62239.95, 187500.00, 187500.00, 187500.00, -187500.02, -187500.02, -187500.02, 0.000, 0.000, 0.000, 16:24:15.509
214, 41196.21, 62112.19, 187500.00, 187500.00, 187500.00, -187500.02, -187500.02, -187500.02, 0.000, 0.000, 0.000, 16:24:15.510
215, 41225.87, 62118.69, 187500.00, 187500.00, 187500.00, -187500.02, -187500.02, -187500.02, 0.000, 0.000, 0.000, 16:24:15.511
216, 41427.28, 62258.70, 187500.00, 187500.00, 187500.00, -187500.02, -187500.02, -187500.02, 0.000, 0.000, 0.000, 16:24:15.511
217, 41512.98, 62333.07, 187500.00, 187500.00, 187500.00, -187500.02, -187500.02, -187500.02, 0.000, 0.000, 0.000, 16:24:15.512
218, 41390.47, 62260.18, 187500.00, 187500.00, 187500.00, -187500.02, -187500.02, -187500.02, 0.000, 0.000, 0.000, 16:24:15.512
219, 41205.30, 62118.94, 187500.00, 187500.00, 187500.00, -187500.02, -187500.02, -187500.02, 0.008, -0.018, 1.026, 16:24:15.513
220, 41250.41, 62136.21, 187500.00, 187500.00, 187500.00, -187500.02, -187500.02, -187500.02, 0.000, 0.000, 0.000, 16:24:15.514
221, 41458.51, 62282.87, 187500.00, 187500.00, 187500.00, -187500.02, -187500.02, -187500.02, 0.000, 0.000, 0.000, 16:24:15.514
222, 41518.83, 62333.34, 187500.00, 187500.00, 187500.00, -187500.02, -187500.02, -187500.02, 0.000, 0.000, 0.000, 16:24:15.515
223, 41370.04, 62237.00, 187500.00, 187500.00, 187500.00, -187500.02, -187500.02, -187500.02, 0.000, 0.000, 0.000, 16:24:15.516
224, 41207.38, 62121.60, 187500.00, 187500.00, 187500.00, -187500.02, -187500.02, -187500.02, 0.000, 0.000, 0.000, 16:24:15.516
225, 41242.90, 62132.28, 187500.00, 187500.00, 187500.00, -187500.02, -187500.02, -187500.02, 0.000, 0.000, 0.000, 16:24:15.517
226, 41440.22, 62267.73, 187500.00, 187500.00, 187500.00, -187500.02, -187500.02, -187500.02, 0.000, 0.000, 0.000, 16:24:15.518
227, 41548.92, 62364.67, 187500.00, 187500.00, 187500.00, -187500.02, -187500.02, -187500.02, 0.000, 0.000, 0.000, 16:24:15.519
228, 41399.74, 62273.41, 187500.00, 187500.00, 187500.00, -187500.02, -187500.02, -187500.02, 0.000, 0.000, 0.000, 16:24:15.520
229, 41204.23, 62130.70, 187500.00, 187500.00, 187500.00, -187500.02, -187500.02, -187500.02, 0.006, -0.016, 1.028, 16:24:15.521
230, 41235.43, 62134.45, 187500.00, 187500.00, 187500.00, -187500.02, -187500.02, -187500.02, 0.000, 0.000, 0.000, 16:24:15.522
231, 41423.41, 62262.75, 187500.00, 187500.00, 187500.00, -187500.02, -187500.02, -187500.02, 0.000, 0.000, 0.000, 16:24:15.523
232, 41509.94, 62333.38, 187500.00, 187500.00, 187500.00, -187500.02, -187500.02, -187500.02, 0.000, 0.000, 0.000, 16:24:15.524
233, 41397.64, 62267.42, 187500.00, 187500.00, 187500.00, -187500.02, -187500.02, -187500.02, 0.000, 0.000, 0.000, 16:24:15.525
234, 41225.69, 62145.65, 187500.00, 187500.00, 187500.00, -187500.02, -187500.02, -187500.02, 0.000, 0.000, 0.000, 16:24:15.525
235, 41230.79, 62128.28, 187500.00, 187500.00, 187500.00, -187500.02, -187500.02, -187500.02, 0.000, 0.000, 0.000, 16:24:15.526
236, 41425.67, 62261.16, 187500.00, 187500.00, 187500.00, -187500.02, -187500.02, -187500.02, 0.000, 0.000, 0.000, 16:24:15.527
237, 41500.62, 62328.11, 187500.00, 187500.00, 187500.00, -187500.02, -187500.02, -187500.02, 0.000, 0.000, 0.000, 16:24:15.528
238, 41380.59, 62259.42, 187500.00, 187500.00, 187500.00, -187500.02, -187500.02, -187500.02, 0.000, 0.000, 0.000, 16:24:15.529
239, 41216.55, 62140.80, 187500.00, 187500.00, 187500.00, -187500.02, -187500.02, -187500.02, 0.008, -0.018, 1.028, 16:24:15.529
240, 41233.67, 62132.04, 187500.00, 187500.00, 187500.00, -187500.02, -187500.02, -187500.02, 0.000, 0.000, 0.000, 16:24:15.530
241, 41421.34, 62261.90, 187500.00, 187500.00, 187500.00, -187500.02, -187500.02, -187500.02, 0.000, 0.000, 0.000, 16:24:15.531
242, 41503.86, 62336.73, 187500.00, 187500.00, 187500.00, -187500.02, -187500.02, -187500.02, 0.000, 0.000, 0.000, 16:24:15.532
243, 41375.11, 62258.23, 187500.00, 187500.00, 187500.00, -187500.02, -187500.02, -187500.02, 0.000, 0.000, 0.000, 16:24:15.533
244, 41203.96, 62128.77, 187500.00, 187500.00, 187500.00, -187500.02, -187500.02, -187500.02, 0.000, 0.000, 0.000, 16:24:15.534
245, 41232.06, 62128.10, 187500.00, 187500.00, 187500.00, -187500.02, -187500.02, -187500.02, 0.000, 0.000, 0.000, 16:24:15.535
246, 41438.64, 62271.69, 187500.00, 187500.00, 187500.00, -187500.02, -187500.02, -187500.02, 0.000, 0.000, 0.000, 16:24:15.536
247, 41507.19, 62334.34, 187500.00, 187500.00, 187500.00, -187500.02, -187500.02, -187500.02, 0.000, 0.000, 0.000, 16:24:15.536
248, 41375.98, 62258.41, 187500.00, 187500.00, 187500.00, -187500.02, -187500.02, -187500.02, 0.008, -0.016, 1.024, 16:24:15.537
249, 41207.50, 62133.36, 187500.00, 187500.00, 187500.00, -187500.02, -187500.02, -187500.02, 0.000, 0.000, 0.000, 16:24:15.538
250, 41242.63, 62145.83, 187500.00, 187500.00, 187500.00, -187500.02, -187500.02, -187500.02, 0.000, 0.000, 0.000, 16:24:15.539
251, 41420.11, 62263.09, 187500.00, 187500.00, 187500.00, -187500.02, -187500.02, -187500.02, 0.000, 0.000, 0.000, 16:24:15.540
252, 41501.09, 62328.24, 187500.00, 187500.00, 187500.00, -187500.02, -187500.02, -187500.02, 0.000, 0.000, 0.000, 16:24:15.541
253, 41392.68, 62271.96, 187500.00, 187500.00, 187500.00, -187500.02, -187500.02, -187500.02, 0.000, 0.000, 0.000, 16:24:15.541
254, 41216.53, 62145.11, 187500.00, 187500.00, 187500.00, -187500.02, -187500.02, -187500.02, 0.000, 0.000, 0.000, 16:24:15.542
255, 41228.02, 62127.95, 187500.00, 187500.00, 187500.00, -187500.02, -187500.02, -187500.02, 0.000, 0.000, 0.000, 16:24:15.543
0, 41415.79, 62252.54, 187500.00, 187500.00, 187500.00, -187500.02, -187500.02, -187500.02, 0.000, 0.000, 0.000, 16:24:15.543
1, 41510.43, 62340.76, 187500.00, 187500.00, 187500.00, -187500.02, -187500.02, -187500.02, 0.000, 0.000, 0.000, 16:24:15.544
2, 41378.44, 62265.68, 187500.00, 187500.00, 187500.00, -187500.02, -187500.02, -187500.02, 0.008, -0.016, 1.032, 16:24:15.544
3, 41197.37, 62128.91, 187500.00, 187500.00, 187500.00, -187500.02, -187500.02, -187500.02, 0.000, 0.000, 0.000, 16:24:15.545
4, 41211.92, 62118.02, 187500.00, 187500.00, 187500.00, -187500.02, -187500.02, -187500.02, 0.000, 0.000, 0.000, 16:24:15.546
5, 41405.53, 62248.46, 187500.00, 187500.00, 187500.00, -187500.02, -187500.02, -187500.02, 0.000, 0.000, 0.000, 16:24:15.546
6, 41491.12, 62319.07, 187500.00, 187500.00, 187500.00, -187500.02, -187500.02, -187500.02, 0.000, 0.000, 0.000, 16:24:15.547
7, 41371.98, 62249.56, 187500.00, 187500.00, 187500.00, -187500.02, -187500.02, -187500.02, 0.000, 0.000, 0.000, 16:24:15.547
8, 41211.96, 62135.19, 187500.00, 187500.00, 187500.00, -187500.02, -187500.02, -187500.02, 0.000, 0.000, 0.000, 16:24:15.548
9, 41235.35, 62135.68, 187500.00, 187500.00, 187500.00, -187500.02, -187500.02, -187500.02, 0.000, 0.000, 0.000, 16:24:15.549
10, 41421.25, 62259.20, 187500.00, 187500.00, 187500.00, -187500.02, -187500.02, -187500.02, 0.000, 0.000, 0.000, 16:24:15.549
11, 41488.70, 62320.66, 187500.00, 187500.00, 187500.00, -187500.02, -187500.02, -187500.02, 0.000, 0.000, 0.000, 16:24:15.550
12, 41364.38, 62246.43, 187500.00, 187500.00, 187500.00, -187500.02, -187500.02, -187500.02, 0.004, -0.022, 1.028, 16:24:15.552
13, 41193.37, 62123.00, 187500.00, 187500.00, 187500.00, -187500.02, -187500.02, -187500.02, 0.000, 0.000, 0.000, 16:24:15.552
14, 41226.88, 62126.96, 187500.00, 187500.00, 187500.00, -187500.02, -187500.02, -187500.02, 0.000, 0.000, 0.000, 16:24:15.553
15, 41425.09, 62261.07, 187500.00, 187500.00, 187500.00, -187500.02, -187500.02, -187500.02, 0.000, 0.000, 0.000, 16:24:15.554
16, 41506.76, 62331.35, 187500.00, 187500.00, 187500.00, -187500.02, -187500.02, -187500.02, 0.000, 0.000, 0.000, 16:24:15.555
17, 41381.97, 62261.65, 187500.00, 187500.00, 187500.00, -187500.02, -187500.02, -187500.02, 0.000, 0.000, 0.000, 16:24:15.555
18, 41206.09, 62132.08, 187500.00, 187500.00, 187500.00, -187500.02, -187500.02, -187500.02, 0.000, 0.000, 0.000, 16:24:15.556
19, 41217.26, 62114.80, 187500.00, 187500.00, 187500.00, -187500.02, -187500.02, -187500.02, 0.000, 0.000, 0.000, 16:24:15.557
20, 41402.47, 62239.28, 187500.00, 187500.00, 187500.00, -187500.02, -187500.02, -187500.02, 0.000, 0.000, 0.000, 16:24:15.557
21, 41508.15, 62333.94, 187500.00, 187500.00, 187500.00, -187500.02, -187500.02, -187500.02, 0.000, 0.000, 0.000, 16:24:15.558
22, 41379.47, 62257.65, 187500.00, 187500.00, 187500.00, -187500.02, -187500.02, -187500.02, 0.006, -0.018, 1.024, 16:24:15.558
23, 41202.55, 62124.79, 187500.00, 187500.00, 187500.00, -187500.02, -187500.02, -187500.02, 0.000, 0.000, 0.000, 16:24:15.559
24, 41225.13, 62125.31, 187500.00, 187500.00, 187500.00, -187500.02, -187500.02, -187500.02, 0.000, 0.000, 0.000, 16:24:15.560
25, 41404.55, 62250.10, 187500.00, 187500.00, 187500.00, -187500.02, -187500.02, -187500.02, 0.000, 0.000, 0.000, 16:24:15.561
26, 41483.45, 62317.15, 187500.00, 187500.00, 187500.00, -187500.02, -187500.02, -187500.02, 0.000, 0.000, 0.000, 16:24:15.561
27, 41345.90, 62231.52, 187500.00, 187500.00, 187500.00, -187500.02, -187500.02, -187500.02, 0.000, 0.000, 0.000, 16:24:15.562
28, 41162.82, 62089.75, 187500.00, 187500.00, 187500.00, -187500.02, -187500.02, -187500.02, 0.000, 0.000, 0.000, 16:24:15.562
29, 41190.31, 62091.29, 187500.00, 187500.00, 187500.00, -187500.02, -187500.02, -187500.02, 0.000, 0.000, 0.000, 16:24:15.563
30, 41371.74, 62208.12, 187500.00, 187500.00, 187500.00, -187500.02, -187500.02, -187500.02, 0.000, 0.000, 0.000, 16:24:15.564
31, 41444.63, 62269.63, 187500.00, 187500.00, 187500.00, -187500.02, -187500.02, -187500.02, 0.000, 0.000, 0.000, 16:24:15.564
32, 41309.35, 62183.22, 187500.00, 187500.00, 187500.00, -187500.02, -187500.02, -187500.02, 0.010, -0.018, 1.024, 16:24:15.565
33, 41127.86, 62046.32, 187500.00, 187500.00, 187500.00, -187500.02, -187500.02, -187500.02, 0.000, 0.000, 0.000, 16:24:15.565
34, 41139.46, 62036.01, 187500.00, 187500.00, 187500.00, -187500.02, -187500.02, -187500.02, 0.000, 0.000, 0.000, 16:24:15.566
35, 41323.43, 62157.09, 187500.00, 187500.00, 187500.00, -187500.02, -187500.02, -187500.02, 0.000, 0.000, 0.000, 16:24:15.566
36, 41392.28, 62211.86, 187500.00, 187500.00, 187500.00, -187500.02, -187500.02, -187500.02, 0.000, 0.000, 0.000, 16:24:15.567
37, 41249.56, 62118.65, 187500.00, 187500.00, 187500.00, -187500.02, -187500.02, -187500.02, 0.000, 0.000, 0.000, 16:24:15.568
38, 41068.36, 61980.78, 187500.00, 187500.00, 187500.00, -187500.02, -187500.02, -187500.02, 0.000, 0.000, 0.000, 16:24:15.568
39, 41081.66, 61972.27, 187500.00, 187500.00, 187500.00, -187500.02, -187500.02, -187500.02, 0.000, 0.000, 0.000, 16:24:15.569
40, 41262.30, 62094.80, 187500.00, 187500.00, 187500.00, -187500.02, -187500.02, -187500.02, 0.000, 0.000, 0.000, 16:24:15.570
41, 41366.26, 62183.69, 187500.00, 187500.00, 187500.00, -187500.02, -187500.02, -187500.02, 0.000, 0.000, 0.000, 16:24:15.571
42, 41245.72, 62108.48, 187500.00, 187500.00, 187500.00, -187500.02, -187500.02, -187500.02, 0.008, -0.020, 1.026, 16:24:15.572
43, 41041.42, 61956.57, 187500.00, 187500.00, 187500.00, -187500.02, -187500.02, -187500.02, 0.000, 0.000, 0.000, 16:24:15.572
44, 41072.76, 61968.89, 187500.00, 187500.00, 187500.00, -187500.02, -187500.02, -187500.02, 0.000, 0.000, 0.000, 16:24:15.573
45, 41278.69, 62105.57, 187500.00, 187500.00, 187500.00, -187500.02, -187500.02, -187500.02, 0.000, 0.000, 0.000, 16:24:15.574
46, 41357.05, 62173.07, 187500.00, 187500.00, 187500.00, -187500.02, -187500.02, -187500.02, 0.000, 0.000, 0.000, 16:24:15.575
47, 41232.48, 62112.50, 187500.00, 187500.00, 187500.00, -187500.02, -187500.02, -187500.02, 0.000, 0.000, 0.000, 16:24:15.575
48, 41052.57, 61977.43, 187500.00, 187500.00, 187500.00, -187500.02, -187500.02, -187500.02, 0.000, 0.000, 0.000, 16:24:15.576
49, 41078.82, 61971.06, 187500.00, 187500.00, 187500.00, -187500.02, -187500.02, -187500.02, 0.000, 0.000, 0.000, 16:24:15.578
50, 41286.93, 62112.90, 187500.00, 187500.00, 187500.00, -187500.02, -187500.02, -187500.02, 0.000, 0.000, 0.000, 16:24:15.578
51, 41377.79, 62194.31, 187500.00, 187500.00, 187500.00, -187500.02, -187500.02, -187500.02, 0.000, 0.000, 0.000, 16:24:15.579
52, 41253.34, 62126.49, 187500.00, 187500.00, 187500.00, -187500.02, -187500.02, -187500.02, 0.004, -0.022, 1.026, 16:24:15.580
53, 41082.32, 62004.50, 187500.00, 187500.00, 187500.00, -187500.02, -187500.02, -187500.02, 0.000, 0.000, 0.000, 16:24:15.580
54, 41107.00, 62007.38, 187500.00, 187500.00, 187500.00, -187500.02, -187500.02, -187500.02, 0.000, 0.000, 0.000, 16:24:15.581
55, 41295.32, 62133.73, 187500.00, 187500.00, 187500.00, -187500.02, -187500.02, -187500.02, 0.000, 0.000, 0.000, 16:24:15.582
56, 41398.13, 62213.71, 187500.00, 187500.00, 187500.00, -187500.02, -187500.02, -187500.02, 0.000, 0.000, 0.000, 16:24:15.583
57, 41271.91, 62139.41, 187500.00, 187500.00, 187500.00, -187500.02, -187500.02, -187500.02, 0.000, 0.000, 0.000, 16:24:15.583
58, 41103.18, 62026.18, 187500.00, 187500.00, 187500.00, -187500.02, -187500.02, -187500.02, 0.000, 0.000, 0.000, 16:24:15.585
59, 41131.21, 62033.31, 187500.00, 187500.00, 187500.00, -187500.02, -187500.02, -187500.02, 0.000, 0.000, 0.000, 16:24:15.586
60, 41324.44, 62163.08, 187500.00, 187500.00, 187500.00, -187500.02, -187500.02, -187500.02, 0.000, 0.000, 0.000, 16:24:15.587
61, 41419.48, 62244.49, 187500.00, 187500.00, 187500.00, -187500.02, -187500.02, -187500.02, 0.000, 0.000, 0.000, 16:24:15.588
62, 41295.81, 62164.20, 187500.00, 187500.00, 187500.00, -187500.02, -187500.02, -187500.02, 0.010, -0.022, 1.022, 16:24:15.588
63, 41121.89, 62039.97, 187500.00, 187500.00, 187500.00, -187500.02, -187500.02, -187500.02, 0.000, 0.000, 0.000, 16:24:15.589
64, 41137.58, 62039.75, 187500.00, 187500.00, 187500.00, -187500.02, -187500.02, -187500.02, 0.000, 0.000, 0.000, 16:24:15.590
65, 41325.47, 62166.30, 187500.00, 187500.00, 187500.00, -187500.02, -187500.02, -187500.02, 0.000, 0.000, 0.000, 16:24:15.590
66, 41439.29, 62269.75, 187500.00, 187500.00, 187500.00, -187500.02, -187500.02, -187500.02, 0.000, 0.000, 0.000, 16:24:15.591
67, 41319.43, 62197.15, 187500.00, 187500.00, 187500.00, -187500.02, -187500.02, -187500.02, 0.000, 0.000, 0.000, 16:24:15.591
68, 41146.27, 62066.75, 187500.00, 187500.00, 187500.00, -187500.02, -187500.02, -187500.02, 0.000, 0.000, 0.000, 16:24:15.592
69, 41159.08, 62059.35, 187500.00, 187500.00, 187500.00, -187500.02, -187500.02, -187500.02, 0.000, 0.000, 0.000, 16:24:15.593
70, 41345.34, 62186.95, 187500.00, 187500.00, 187500.00, -187500.02, -187500.02, -187500.02, 0.000, 0.000, 0.000, 16:24:15.593
71, 41440.33, 62264.56, 187500.00, 187500.00, 187500.00, -187500.02, -187500.02, -187500.02, 0.000, 0.000, 0.000, 16:24:15.594
72, 41328.13, 62206.11, 187500.00, 187500.00, 187500.00, -187500.02, -187500.02, -187500.02, 0.006, -0.020, 1.026, 16:24:15.594
73, 41150.03, 62080.47, 187500.00, 187500.00, 187500.00, -187500.02, -187500.02, -187500.02, 0.000, 0.000, 0.000, 16:24:15.987
74, 41155.59, 62061.83, 187500.00, 187500.00, 187500.00, -187500.02, -187500.02, -187500.02, 0.000, 0.000, 0.000, 16:24:15.988
75, 41361.84, 62202.98, 187500.00, 187500.00, 187500.00, -187500.02, -187500.02, -187500.02, 0.000, 0.000, 0.000, 16:24:15.989
76, 41458.28, 62290.82, 187500.00, 187500.00, 187500.00, -187500.02, -187500.02, -187500.02, 0.000, 0.000, 0.000, 16:24:15.990
77, 41334.45, 62217.26, 187500.00, 187500.00, 187500.00, -187500.02, -187500.02, -187500.02, 0.000, 0.000, 0.000, 16:24:15.990
78, 41163.73, 62097.93, 187500.00, 187500.00, 187500.00, -187500.02, -187500.02, -187500.02, 0.000, 0.000, 0.000, 16:24:15.991
79, 41172.83, 62084.07, 187500.00, 187500.00, 187500.00, -187500.02, -187500.02, -187500.02, 0.000, 0.000, 0.000, 16:24:15.992
80, 41365.21, 62208.68, 187500.00, 187500.00, 187500.00, -187500.02, -187500.02, -187500.02, 0.000, 0.000, 0.000, 16:24:15.992
81, 41470.84, 62299.38, 187500.00, 187500.00, 187500.00, -187500.02, -187500.02, -187500.02, 0.000, 0.000, 0.000, 16:24:15.993
82, 41361.41, 62237.27, 187500.00, 187500.00, 187500.00, -187500.02, -187500.02, -187500.02, 0.006, -0.018, 1.024, 16:24:15.994
83, 41175.46, 62102.69, 187500.00, 187500.00, 187500.00, -187500.02, -187500.02, -187500.02, 0.000, 0.000, 0.000, 16:24:15.994
84, 41189.46, 62092.07, 187500.00, 187500.00, 187500.00, -187500.02, -187500.02, -187500.02, 0.000, 0.000, 0.000, 16:24:15.995
85, 41390.13, 62226.25, 187500.00, 187500.00, 187500.00, -187500.02, -187500.02, -187500.02, 0.000, 0.000, 0.000, 16:24:15.995
86, 41495.03, 62322.81, 187500.00, 187500.00, 187500.00, -187500.02, -187500.02, -187500.02, 0.000, 0.000, 0.000, 16:24:15.996
87, 41372.81, 62253.79, 187500.00, 187500.00, 187500.00, -187500.02, -187500.02, -187500.02, 0.000, 0.000, 0.000, 16:24:15.997
88, 41183.71, 62115.07, 187500.00, 187500.00, 187500.00, -187500.02, -187500.02, -187500.02, 0.000, 0.000, 0.000, 16:24:15.997
89, 41191.69, 62100.34, 187500.00, 187500.00, 187500.00, -187500.02, -187500.02, -187500.02, 0.000, 0.000, 0.000, 16:24:15.998
90, 41396.46, 62237.16, 187500.00, 187500.00, 187500.00, -187500.02, -187500.02, -187500.02, 0.000, 0.000, 0.000, 16:24:15.998
91, 41489.29, 62313.60, 187500.00, 187500.00, 187500.00, -187500.02, -187500.02, -187500.02, 0.000, 0.000, 0.000, 16:24:15.999
92, 41380.52, 62256.78, 187500.00, 187500.00, 187500.00, -187500.02, -187500.02, -187500.02, 0.006, -0.022, 1.022, 16:24:16.000
93, 41206.33, 62134.47, 187500.00, 187500.00, 187500.00, -187500.02, -187500.02, -187500.02, 0.000, 0.000, 0.000, 16:24:16.001
94, 41202.20, 62110.45, 187500.00, 187500.00, 187500.00, -187500.02, -187500.02, -187500.02, 0.000, 0.000, 0.000, 16:24:16.002
95, 41387.05, 62229.63, 187500.00, 187500.00, 187500.00, -187500.02, -187500.02, -187500.02, 0.000, 0.000, 0.000, 16:24:16.003
96, 41510.59, 62337.98, 187500.00, 187500.00, 187500.00, -187500.02, -187500.02, -187500.02, 0.000, 0.000, 0.000, 16:24:16.004
97, 41393.95, 62271.60, 187500.00, 187500.00, 187500.00, -187500.02, -187500.02, -187500.02, 0.000, 0.000, 0.000, 16:24:16.004
98, 41196.90, 62127.21, 187500.00, 187500.00, 187500.00, -187500.02, -187500.02, -187500.02, 0.000, 0.000, 0.000, 16:24:16.005
99, 41211.56, 62120.21, 187500.00, 187500.00, 187500.00, -187500.02, -187500.02, -187500.02, 0.000, 0.000, 0.000, 16:24:16.006
100, 41396.17, 62240.98, 187500.00, 187500.00, 187500.00, -187500.02, -187500.02, -187500.02, 0.000, 0.000, 0.000, 16:24:16.006
101, 41490.09, 62318.54, 187500.00, 187500.00, 187500.00, -187500.02, -187500.02, -187500.02, 0.000, 0.000, 0.000, 16:24:16.007
102, 41380.88, 62259.73, 187500.00, 187500.00, 187500.00, -187500.02, -187500.02, -187500.02, 0.006, -0.022, 1.026, 16:24:16.008
103, 41199.98, 62134.18, 187500.00, 187500.00, 187500.00, -187500.02, -187500.02, -187500.02, 0.000, 0.000, 0.000, 16:24:16.008
104, 41211.21, 62123.48, 187500.00, 187500.00, 187500.00, -187500.02, -187500.02, -187500.02, 0.000, 0.000, 0.000, 16:24:16.009
105, 41392.50, 62246.43, 187500.00, 187500.00, 187500.00, -187500.02, -187500.02, -187500.02, 0.000, 0.000, 0.000, 16:24:16.010
106, 41491.61, 62328.38, 187500.00, 187500.00, 187500.00, -187500.02, -187500.02, -187500.02, 0.000, 0.000, 0.000, 16:24:16.010
107, 41379.49, 62262.64, 187500.00, 187500.00, 187500.00, -187500.02, -187500.02, -187500.02, 0.000, 0.000, 0.000, 16:24:16.011
108, 41194.04, 62127.36, 187500.00, 187500.00, 187500.00, -187500.02, -187500.02, -187500.02, 0.000, 0.000, 0.000, 16:24:16.012
109, 41204.50, 62119.23, 187500.00, 187500.00, 187500.00, -187500.02, -187500.02, -187500.02, 0.000, 0.000, 0.000, 16:24:16.012
110, 41397.87, 62254.19, 187500.00, 187500.00, 187500.00, -187500.02, -187500.02, -187500.02, 0.000, 0.000, 0.000, 16:24:16.013
111, 41505.60, 62339.59, 187500.00, 187500.00, 187500.00, -187500.02, -187500.02, -187500.02, 0.000, 0.000, 0.000, 16:24:16.013
112, 41400.13, 62282.78, 187500.00, 187500.00, 187500.00, -187500.02, -187500.02, -187500.02, 0.010, -0.018, 1.030, 16:24:16.014
113, 41224.80, 62163.29, 187500.00, 187500.00, 187500.00, -187500.02, -187500.02, -187500.02, 0.000, 0.000, 0.000, 16:24:16.015
114, 41218.18, 62129.67, 187500.00, 187500.00, 187500.00, -187500.02, -187500.02, -187500.02, 0.000, 0.000, 0.000, 16:24:16.015
115, 41412.48, 62256.56, 187500.00, 187500.00, 187500.00, -187500.02, -187500.02, -187500.02, 0.000, 0.000, 0.000, 16:24:16.016
116, 41505.15, 62339.89, 187500.00, 187500.00, 187500.00, -187500.02, -187500.02, -187500.02, 0.000, 0.000, 0.000, 16:24:16.017
117, 41380.63, 62269.12, 187500.00, 187500.00, 187500.00, -187500.02, -187500.02, -187500.02, 0.000, 0.000, 0.000, 16:24:16.018
118, 41189.88, 62129.33, 187500.00, 187500.00, 187500.00, -187500.02, -187500.02, -187500.02, 0.000, 0.000, 0.000, 16:24:16.018
119, 41190.82, 62114.76, 187500.00, 187500.00, 187500.00, -187500.02, -187500.02, -187500.02, 0.000, 0.000, 0.000, 16:24:16.019
120, 41386.02, 62246.41, 187500.00, 187500.00, 187500.00, -187500.02, -187500.02, -187500.02, 0.000, 0.000, 0.000, 16:24:16.020
121, 41486.09, 62327.75, 187500.00, 187500.00, 187500.00, -187500.02, -187500.02, -187500.02, 0.008, -0.016, 1.028, 16:24:16.021
122, 41378.55, 62262.88, 187500.00, 187500.00, 187500.00, -187500.02, -187500.02, -187500.02, 0.000, 0.000, 0.000, 16:24:16.021
123, 41201.39, 62137.00, 187500.00, 187500.00, 187500.00, -187500.02, -187500.02, -187500.02, 0.000, 0.000, 0.000, 16:24:16.022
124, 41202.29, 62121.78, 187500.00, 187500.00, 187500.00, -187500.02, -187500.02, -187500.02, 0.000, 0.000, 0.000, 16:24:16.023
125, 41386.02, 62244.96, 187500.00, 187500.00, 187500.00, -187500.02, -187500.02, -187500.02, 0.000, 0.000, 0.000, 16:24:16.024
126, 41480.97, 62321.87, 187500.00, 187500.00, 187500.00, -187500.02, -187500.02, -187500.02, 0.000, 0.000, 0.000, 16:24:16.025
127, 41368.96, 62255.04, 187500.00, 187500.00, 187500.00, -187500.02, -187500.02, -187500.02, 0.000, 0.000, 0.000, 16:24:16.026
128, 41197.53, 62130.43, 187500.00, 187500.00, 187500.00, -187500.02, -187500.02, -187500.02, 0.000, 0.000, 0.000, 16:24:16.026
129, 41201.50, 62116.25, 187500.00, 187500.00, 187500.00, -187500.02, -187500.02, -187500.02, 0.000, 0.000, 0.000, 16:24:16.027
130, 41392.14, 62247.46, 187500.00, 187500.00, 187500.00, -187500.02, -187500.02, -187500.02, 0.000, 0.000, 0.000, 16:24:16.028
131, 41495.63, 62335.41, 187500.00, 187500.00, 187500.00, -187500.02, -187500.02, -187500.02, 0.002, -0.020, 1.030, 16:24:16.029
132, 41384.75, 62271.78, 187500.00, 187500.00, 187500.00, -187500.02, -187500.02, -187500.02, 0.000, 0.000, 0.000, 16:24:16.030
133, 41199.81, 62135.93, 187500.00, 187500.00, 187500.00, -187500.02, -187500.02, -187500.02, 0.000, 0.000, 0.000, 16:24:16.031
134, 41197.77, 62109.57, 187500.00, 187500.00, 187500.00, -187500.02, -187500.02, -187500.02, 0.000, 0.000, 0.000, 16:24:16.031
135, 41379.92, 62231.48, 187500.00, 187500.00, 187500.00, -187500.02, -187500.02, -187500.02, 0.000, 0.000, 0.000, 16:24:16.032
136, 41485.35, 62325.73, 187500.00, 187500.00, 187500.00, -187500.02, -187500.02, -187500.02, 0.000, 0.000, 0.000, 16:24:16.033
137, 41375.52, 62262.30, 187500.00, 187500.00, 187500.00, -187500.02, -187500.02, -187500.02, 0.000, 0.000, 0.000, 16:24:16.035
138, 41192.23, 62129.15, 187500.00, 187500.00, 187500.00, -187500.02, -187500.02, -187500.02, 0.000, 0.000, 0.000, 16:24:16.035
139, 41195.61, 62114.20, 187500.00, 187500.00, 187500.00, -187500.02, -187500.02, -187500.02, 0.000, 0.000, 0.000, 16:24:16.036
140, 41383.98, 62238.90, 187500.00, 187500.00, 187500.00, -187500.02, -187500.02, -187500.02, 0.000, 0.000, 0.000, 16:24:16.037
141, 41491.56, 62331.59, 187500.00, 187500.00, 187500.00, -187500.02, -187500.02, -187500.02, 0.000, -0.024, 1.034, 16:24:16.038
142, 41397.44, 62285.01, 187500.00, 187500.00, 187500.00, -187500.02, -187500.02, -187500.02, 0.000, 0.000, 0.000, 16:24:16.039
143, 41199.23, 62135.84, 187500.00, 187500.00, 187500.00, -187500.02, -187500.02, -187500.02, 0.000, 0.000, 0.000, 16:24:16.039
144, 41190.38, 62107.27, 187500.00, 187500.00, 187500.00, -187500.02, -187500.02, -187500.02, 0.000, 0.000, 0.000, 16:24:16.040
145, 41395.32, 62245.16, 187500.00, 187500.00, 187500.00, -187500.02, -187500.02, -187500.02, 0.000, 0.000, 0.000, 16:24:16.041
146, 41497.20, 62326.70, 187500.00, 187500.00, 187500.00, -187500.02, -187500.02, -187500.02, 0.000, 0.000, 0.000, 16:24:16.041
147, 41385.33, 62264.83, 187500.00, 187500.00, 187500.00, -187500.02, -187500.02, -187500.02, 0.000, 0.000, 0.000, 16:24:16.042
148, 41186.02, 62115.45, 187500.00, 187500.00, 187500.00, -187500.02, -187500.02, -187500.02, 0.000, 0.000, 0.000, 16:24:16.044
149, 41179.31, 62090.30, 187500.00, 187500.00, 187500.00, -187500.02, -187500.02, -187500.02, 0.000, 0.000, 0.000, 16:24:16.045
150, 41371.42, 62220.28, 187500.00, 187500.00, 187500.00, -187500.02, -187500.02, -187500.02, 0.000, 0.000, 0.000, 16:24:16.046
151, 41484.90, 62317.73, 187500.00, 187500.00, 187500.00, -187500.02, -187500.02, -187500.02, -0.002, -0.028, 1.028, 16:24:16.048
152, 41358.64, 62235.08, 187500.00, 187500.00, 187500.00, -187500.02, -187500.02, -187500.02, 0.000, 0.000, 0.000, 16:24:16.049
153, 41163.95, 62094.55, 187500.00, 187500.00, 187500.00, -187500.02, -187500.02, -187500.02, 0.000, 0.000, 0.000, 16:24:16.051
154, 41151.71, 62062.99, 187500.00, 187500.00, 187500.00, -187500.02, -187500.02, -187500.02, 0.000, 0.000, 0.000, 16:24:16.053
155, 41352.89, 62197.95, 187500.00, 187500.00, 187500.00, -187500.02, -187500.02, -187500.02, 0.000, 0.000, 0.000, 16:24:16.054
156, 41462.98, 62288.05, 187500.00, 187500.00, 187500.00, -187500.02, -187500.02, -187500.02, 0.000, 0.000, 0.000, 16:24:16.054
157, 41346.73, 62217.44, 187500.00, 187500.00, 187500.00, -187500.02, -187500.02, -187500.02, 0.000, 0.000, 0.000, 16:24:16.055
158, 41145.02, 62068.94, 187500.00, 187500.00, 187500.00, -187500.02, -187500.02, -187500.02, 0.000, 0.000, 0.000, 16:24:16.056
159, 41109.46, 62018.11, 187500.00, 187500.00, 187500.00, -187500.02, -187500.02, -187500.02, 0.000, 0.000, 0.000, 16:24:16.056
160, 41278.38, 62125.73, 187500.00, 187500.00, 187500.00, -187500.02, -187500.02, -187500.02, 0.000, 0.000, 0.000, 16:24:16.057
161, 41380.90, 62209.24, 187500.00, 187500.00, 187500.00, -187500.02, -187500.02, -187500.02, 0.004, -0.028, 1.032, 16:24:16.058
162, 41266.37, 62137.02, 187500.00, 187500.00, 187500.00, -187500.02, -187500.02, -187500.02, 0.000, 0.000, 0.000, 16:24:16.059
