%OpenBCI Raw EEG Data
%
%Sample Rate = 250.0 Hz
%First Column = SampleIndex
%Last Column = Timestamp 
%Other Columns = EEG data in microvolts followed by Accel Data (in G) interleaved with Aux Data
0, 69029.88, 16474.31, -187500.02, -187500.02, -187500.02, -179575.45, -187500.02, -187500.02, 0.042, -0.004, 0.968, 14:00:14.909
1, 65818.35, 13295.67, -187500.02, -187500.02, -187500.02, -179496.08, -187500.02, -187500.02, 0.000, 0.000, 0.000, 14:00:14.909
2, 66089.05, 13309.08, -187500.02, -187500.02, -187500.02, -179372.86, -187500.02, -187500.02, 0.000, 0.000, 0.000, 14:00:14.909
3, 69760.10, 17016.96, -187500.02, -187500.02, -187500.02, -179289.97, -187500.02, -187500.02, 0.000, 0.000, 0.000, 14:00:14.909
4, 70322.63, 17710.70, -187500.02, -187500.02, -187500.02, -179520.78, -187500.02, -187500.02, 0.000, 0.000, 0.000, 14:00:14.909
5, 69068.43, 16513.16, -187500.02, -187500.02, -187500.02, -179672.17, -187500.02, -187500.02, 0.000, 0.000, 0.000, 14:00:14.909
6, 65835.45, 13317.53, -187500.02, -187500.02, -187500.02, -179567.30, -187500.02, -187500.02, 0.000, 0.000, 0.000, 14:00:14.909
7, 66067.75, 13295.35, -187500.02, -187500.02, -187500.02, -179370.16, -187500.02, -187500.02, 0.008, -0.020, 1.028, 14:00:14.909
8, 69749.64, 17009.65, -187500.02, -187500.02, -187500.02, -179291.22, -187500.02, -187500.02, 0.000, 0.000, 0.000, 14:00:14.910
9, 70317.71, 17703.83, -187500.02, -187500.02, -187500.02, -179550.42, -187500.02, -187500.02, 0.000, 0.000, 0.000, 14:00:14.910
10, 69050.23, 16497.35, -187500.02, -187500.02, -187500.02, -179633.55, -187500.02, -187500.02, 0.000, 0.000, 0.000, 14:00:14.910
11, 65840.59, 13323.23, -187500.02, -187500.02, -187500.02, -179550.23, -187500.02, -187500.02, 0.000, 0.000, 0.000, 14:00:14.910
12, 66053.63, 13285.47, -187500.02, -187500.02, -187500.02, -179396.64, -187500.02, -187500.02, 0.000, 0.000, 0.000, 14:00:14.910
13, 69745.84, 17005.83, -187500.02, -187500.02, -187500.02, -179343.81, -187500.02, -187500.02, 0.000, 0.000, 0.000, 14:00:14.910
14, 70324.87, 17715.14, -187500.02, -187500.02, -187500.02, -179587.61, -187500.02, -187500.02, 0.000, 0.000, 0.000, 14:00:14.910
15, 69072.01, 16522.52, -187500.02, -187500.02, -187500.02, -179678.66, -187500.02, -187500.02, 0.000, 0.000, 0.000, 14:00:14.910
16, 65862.07, 13348.95, -187500.02, -187500.02, -187500.02, -179595.20, -187500.02, -187500.02, 0.000, 0.000, 0.000, 14:00:14.911
17, 66036.35, 13263.61, -187500.02, -187500.02, -187500.02, -179423.61, -187500.02, -187500.02, 0.010, -0.020, 1.032, 14:00:14.911
18, 69715.58, 16970.83, -187500.02, -187500.02, -187500.02, -179306.97, -187500.02, -187500.02, 0.000, 0.000, 0.000, 14:00:14.911
19, 70316.75, 17698.45, -187500.02, -187500.02, -187500.02, -179514.36, -187500.02, -187500.02, 0.000, 0.000, 0.000, 14:00:14.911
20, 69082.65, 16524.64, -187500.02, -187500.02, -187500.02, -179652.34, -187500.02, -187500.02, 0.000, 0.000, 0.000, 14:00:14.911
21, 65864.62, 13356.02, -187500.02, -187500.02, -187500.02, -179555.33, -187500.02, -187500.02, 0.000, 0.000, 0.000, 14:00:14.911
22, 66026.73, 13257.47, -187500.02, -187500.02, -187500.02, -179416.27, -187500.02, -187500.02, 0.000, 0.000, 0.000, 14:00:14.911
23, 69713.84, 16968.91, -187500.02, -187500.02, -187500.02, -179350.81, -187500.02, -187500.02, 0.000, 0.000, 0.000, 14:00:14.911
24, 70320.69, 17711.77, -187500.02, -187500.02, -187500.02, -179555.58, -187500.02, -187500.02, 0.000, 0.000, 0.000, 14:00:14.912
25, 69095.12, 16539.26, -187500.02, -187500.02, -187500.02, -179666.13, -187500.02, -187500.02, 0.000, 0.000, 0.000, 14:00:14.912
26, 65896.41, 13385.90, -187500.02, -187500.02, -187500.02, -179613.88, -187500.02, -187500.02, 0.000, 0.000, 0.000, 14:00:14.912
27, 66008.34, 13246.18, -187500.02, -187500.02, -187500.02, -179458.58, -187500.02, -187500.02, 0.014, -0.022, 1.030, 14:00:14.912
28, 69699.17, 16958.40, -187500.02, -187500.02, -187500.02, -179345.63, -187500.02, -187500.02, 0.000, 0.000, 0.000, 14:00:14.912
29, 70334.05, 17730.21, -187500.02, -187500.02, -187500.02, -179564.00, -187500.02, -187500.02, 0.000, 0.000, 0.000, 14:00:14.912
30, 69106.98, 16558.80, -187500.02, -187500.02, -187500.02, -179675.00, -187500.02, -187500.02, 0.000, 0.000, 0.000, 14:00:14.912
31, 65912.72, 13397.66, -187500.02, -187500.02, -187500.02, -179631.80, -187500.02, -187500.02, 0.000, 0.000, 0.000, 14:00:14.912
32, 65999.78, 13237.82, -187500.02, -187500.02, -187500.02, -179532.84, -187500.02, -187500.02, 0.000, 0.000, 0.000, 14:00:14.913
33, 69692.20, 16956.39, -187500.02, -187500.02, -187500.02, -179440.05, -187500.02, -187500.02, 0.000, 0.000, 0.000, 14:00:14.913
34, 70335.98, 17722.85, -187500.02, -187500.02, -187500.02, -179647.94, -187500.02, -187500.02, 0.000, 0.000, 0.000, 14:00:14.913
35, 69109.67, 16559.60, -187500.02, -187500.02, -187500.02, -179725.83, -187500.02, -187500.02, 0.000, 0.000, 0.000, 14:00:14.913
36, 65906.13, 13399.56, -187500.02, -187500.02, -187500.02, -179622.66, -187500.02, -187500.02, 0.000, 0.000, 0.000, 14:00:14.913
37, 65971.59, 13202.68, -187500.02, -187500.02, -187500.02, -179491.30, -187500.02, -187500.02, 0.008, -0.022, 1.028, 14:00:14.913
38, 69677.67, 16934.62, -187500.02, -187500.02, -187500.02, -179431.19, -187500.02, -187500.02, 0.000, 0.000, 0.000, 14:00:14.913
39, 70325.29, 17725.25, -187500.02, -187500.02, -187500.02, -179633.09, -187500.02, -187500.02, 0.000, 0.000, 0.000, 14:00:14.913
40, 69116.38, 16568.79, -187500.02, -187500.02, -187500.02, -179723.53, -187500.02, -187500.02, 0.000, 0.000, 0.000, 14:00:14.913
41, 65922.24, 13422.18, -187500.02, -187500.02, -187500.02, -179641.45, -187500.02, -187500.02, 0.000, 0.000, 0.000, 14:00:14.914
42, 65960.66, 13204.38, -187500.02, -187500.02, -187500.02, -179533.83, -187500.02, -187500.02, 0.000, 0.000, 0.000, 14:00:14.914
43, 69670.05, 16927.04, -187500.02, -187500.02, -187500.02, -179428.20, -187500.02, -187500.02, 0.000, 0.000, 0.000, 14:00:14.914
44, 70356.43, 17750.14, -187500.02, -187500.02, -187500.02, -179652.72, -187500.02, -187500.02, 0.000, 0.000, 0.000, 14:00:14.914
45, 69144.63, 16596.93, -187500.02, -187500.02, -187500.02, -179734.30, -187500.02, -187500.02, 0.000, 0.000, 0.000, 14:00:14.914
46, 65947.44, 13443.30, -187500.02, -187500.02, -187500.02, -179653.38, -187500.02, -187500.02, -0.004, -0.026, 1.004, 14:00:14.914
47, 65942.74, 13193.61, -187500.02, -187500.02, -187500.02, -179498.84, -187500.02, -187500.02, 0.000, 0.000, 0.000, 14:00:14.914
48, 69670.97, 16935.85, -187500.02, -187500.02, -187500.02, -179435.95, -187500.02, -187500.02, 0.000, 0.000, 0.000, 14:00:14.914
49, 70360.88, 17758.39, -187500.02, -187500.02, -187500.02, -179667.86, -187500.02, -187500.02, 0.000, 0.000, 0.000, 14:00:14.915
50, 69166.66, 16617.98, -187500.02, -187500.02, -187500.02, -179794.66, -187500.02, -187500.02, 0.000, 0.000, 0.000, 14:00:14.915
51, 65960.17, 13462.68, -187500.02, -187500.02, -187500.02, -179693.83, -187500.02, -187500.02, 0.000, 0.000, 0.000, 14:00:14.915
52, 65926.78, 13169.29, -187500.02, -187500.02, -187500.02, -179555.58, -187500.02, -187500.02, 0.000, 0.000, 0.000, 14:00:14.915
53, 69651.68, 16901.58, -187500.02, -187500.02, -187500.02, -179480.61, -187500.02, -187500.02, 0.000, 0.000, 0.000, 14:00:14.915
54, 70354.86, 17747.49, -187500.02, -187500.02, -187500.02, -179673.94, -187500.02, -187500.02, 0.000, 0.000, 0.000, 14:00:14.915
55, 69168.68, 16616.38, -187500.02, -187500.02, -187500.02, -179772.91, -187500.02, -187500.02, 0.000, 0.000, 0.000, 14:00:14.915
56, 65973.83, 13465.54, -187500.02, -187500.02, -187500.02, -179654.06, -187500.02, -187500.02, 0.004, -0.028, 1.022, 14:00:14.915
57, 65920.01, 13158.92, -187500.02, -187500.02, -187500.02, -179512.58, -187500.02, -187500.02, 0.000, 0.000, 0.000, 14:00:14.915
58, 69663.99, 16912.38, -187500.02, -187500.02, -187500.02, -179500.73, -187500.02, -187500.02, 0.000, 0.000, 0.000, 14:00:14.916
59, 70380.55, 17765.79, -187500.02, -187500.02, -187500.02, -179721.11, -187500.02, -187500.02, 0.000, 0.000, 0.000, 14:00:14.916
60, 69192.84, 16631.89, -187500.02, -187500.02, -187500.02, -179830.33, -187500.02, -187500.02, 0.000, 0.000, 0.000, 14:00:14.916
61, 66005.66, 13502.31, -187500.02, -187500.02, -187500.02, -179756.39, -187500.02, -187500.02, 0.000, 0.000, 0.000, 14:00:14.916
62, 65916.48, 13160.68, -187500.02, -187500.02, -187500.02, -179652.88, -187500.02, -187500.02, 0.000, 0.000, 0.000, 14:00:14.916
63, 69634.84, 16885.71, -187500.02, -187500.02, -187500.02, -179561.61, -187500.02, -187500.02, 0.000, 0.000, 0.000, 14:00:14.917
64, 70365.48, 17760.23, -187500.02, -187500.02, -187500.02, -179744.50, -187500.02, -187500.02, 0.000, 0.000, 0.000, 14:00:14.917
65, 69191.81, 16633.14, -187500.02, -187500.02, -187500.02, -179833.19, -187500.02, -187500.02, 0.000, 0.000, 0.000, 14:00:14.917
66, 66015.16, 13507.14, -187500.02, -187500.02, -187500.02, -179751.77, -187500.02, -187500.02, 0.008, -0.020, 1.034, 14:00:14.917
67, 65891.71, 13139.96, -187500.02, -187500.02, -187500.02, -179598.05, -187500.02, -187500.02, 0.000, 0.000, 0.000, 14:00:14.918
68, 69625.64, 16878.00, -187500.02, -187500.02, -187500.02, -179537.52, -187500.02, -187500.02, 0.000, 0.000, 0.000, 14:00:14.918
69, 70378.53, 17780.23, -187500.02, -187500.02, -187500.02, -179738.58, -187500.02, -187500.02, 0.000, 0.000, 0.000, 14:00:14.918
70, 69211.82, 16660.39, -187500.02, -187500.02, -187500.02, -179831.67, -187500.02, -187500.02, 0.000, 0.000, 0.000, 14:00:14.918
71, 66041.87, 13532.82, -187500.02, -187500.02, -187500.02, -179757.70, -187500.02, -187500.02, 0.000, 0.000, 0.000, 14:00:14.918
72, 65892.25, 13134.17, -187500.02, -187500.02, -187500.02, -179627.08, -187500.02, -187500.02, 0.000, 0.000, 0.000, 14:00:14.919
73, 69605.70, 16850.51, -187500.02, -187500.02, -187500.02, -179514.16, -187500.02, -187500.02, 0.000, 0.000, 0.000, 14:00:14.919
74, 70386.71, 17763.65, -187500.02, -187500.02, -187500.02, -179719.02, -187500.02, -187500.02, 0.000, 0.000, 0.000, 14:00:14.919
75, 69235.17, 16663.09, -187500.02, -187500.02, -187500.02, -179856.61, -187500.02, -187500.02, 0.000, 0.000, 0.000, 14:00:14.919
76, 66053.90, 13547.35, -187500.02, -187500.02, -187500.02, -179762.73, -187500.02, -187500.02, 0.010, -0.016, 1.028, 14:00:14.919
77, 65867.03, 13111.85, -187500.02, -187500.02, -187500.02, -179608.44, -187500.02, -187500.02, 0.000, 0.000, 0.000, 14:00:14.920
78, 69595.75, 16842.98, -187500.02, -187500.02, -187500.02, -179503.08, -187500.02, -187500.02, 0.000, 0.000, 0.000, 14:00:14.920
79, 70389.30, 17776.81, -187500.02, -187500.02, -187500.02, -179718.09, -187500.02, -187500.02, 0.000, 0.000, 0.000, 14:00:14.920
80, 69247.67, 16680.68, -187500.02, -187500.02, -187500.02, -179862.92, -187500.02, -187500.02, 0.000, 0.000, 0.000, 14:00:14.920
81, 66075.29, 13556.58, -187500.02, -187500.02, -187500.02, -179770.36, -187500.02, -187500.02, 0.000, 0.000, 0.000, 14:00:14.920
82, 65865.00, 13101.92, -187500.02, -187500.02, -187500.02, -179644.30, -187500.02, -187500.02, 0.000, 0.000, 0.000, 14:00:14.920
83, 69582.99, 16828.54, -187500.02, -187500.02, -187500.02, -179520.58, -187500.02, -187500.02, 0.000, 0.000, 0.000, 14:00:14.921
84, 70397.66, 17786.94, -187500.02, -187500.02, -187500.02, -179723.75, -187500.02, -187500.02, 0.000, 0.000, 0.000, 14:00:14.921
85, 69270.42, 16706.50, -187500.02, -187500.02, -187500.02, -179904.33, -187500.02, -187500.02, 0.000, 0.000, 0.000, 14:00:14.921
86, 66105.77, 13595.43, -187500.02, -187500.02, -187500.02, -179860.61, -187500.02, -187500.02, 0.006, -0.010, 1.024, 14:00:14.921
87, 65857.11, 13105.68, -187500.02, -187500.02, -187500.02, -179739.11, -187500.02, -187500.02, 0.000, 0.000, 0.000, 14:00:14.921
88, 69581.00, 16831.33, -187500.02, -187500.02, -187500.02, -179647.58, -187500.02, -187500.02, 0.000, 0.000, 0.000, 14:00:14.921
89, 70385.95, 17773.95, -187500.02, -187500.02, -187500.02, -179817.14, -187500.02, -187500.02, 0.000, 0.000, 0.000, 14:00:14.922
90, 69259.00, 16697.56, -187500.02, -187500.02, -187500.02, -179959.56, -187500.02, -187500.02, 0.000, 0.000, 0.000, 14:00:14.922
91, 66094.58, 13590.22, -187500.02, -187500.02, -187500.02, -179861.67, -187500.02, -187500.02, 0.000, 0.000, 0.000, 14:00:14.922
92, 65827.52, 13076.17, -187500.02, -187500.02, -187500.02, -179711.30, -187500.02, -187500.02, 0.000, 0.000, 0.000, 14:00:14.922
93, 69562.38, 16808.38, -187500.02, -187500.02, -187500.02, -179615.61, -187500.02, -187500.02, 0.000, 0.000, 0.000, 14:00:14.922
94, 70392.66, 17779.76, -187500.02, -187500.02, -187500.02, -179806.09, -187500.02, -187500.02, 0.000, 0.000, 0.000, 14:00:14.923
95, 69266.73, 16709.47, -187500.02, -187500.02, -187500.02, -179935.42, -187500.02, -187500.02, 0.000, 0.000, 0.000, 14:00:14.923
96, 66113.73, 13614.40, -187500.02, -187500.02, -187500.02, -179868.92, -187500.02, -187500.02, 0.008, -0.012, 1.024, 14:00:14.923
97, 65819.56, 13071.14, -187500.02, -187500.02, -187500.02, -179763.56, -187500.02, -187500.02, 0.000, 0.000, 0.000, 14:00:14.923
98, 69546.73, 16793.67, -187500.02, -187500.02, -187500.02, -179669.69, -187500.02, -187500.02, 0.000, 0.000, 0.000, 14:00:14.923
99, 70393.02, 17783.00, -187500.02, -187500.02, -187500.02, -179864.92, -187500.02, -187500.02, 0.000, 0.000, 0.000, 14:00:14.923
100, 69257.75, 16699.39, -187500.02, -187500.02, -187500.02, -179936.61, -187500.02, -187500.02, 0.000, 0.000, 0.000, 14:00:14.924
101, 66111.18, 13615.88, -187500.02, -187500.02, -187500.02, -179826.73, -187500.02, -187500.02, 0.000, 0.000, 0.000, 14:00:14.924
102, 65793.27, 13053.40, -187500.02, -187500.02, -187500.02, -179700.84, -187500.02, -187500.02, 0.000, 0.000, 0.000, 14:00:14.924
103, 69530.22, 16784.97, -187500.02, -187500.02, -187500.02, -179631.52, -187500.02, -187500.02, 0.000, 0.000, 0.000, 14:00:14.924
104, 70394.42, 17786.69, -187500.02, -187500.02, -187500.02, -179811.47, -187500.02, -187500.02, 0.000, 0.000, 0.000, 14:00:14.924
105, 69283.55, 16724.47, -187500.02, -187500.02, -187500.02, -179935.25, -187500.02, -187500.02, 0.000, 0.000, 0.000, 14:00:14.925
106, 66140.28, 13638.90, -187500.02, -187500.02, -187500.02, -179856.13, -187500.02, -187500.02, 0.006, -0.014, 1.028, 14:00:14.925
107, 65782.43, 13036.81, -187500.02, -187500.02, -187500.02, -179706.03, -187500.02, -187500.02, 0.000, 0.000, 0.000, 14:00:14.925
108, 69522.59, 16772.77, -187500.02, -187500.02, -187500.02, -179611.75, -187500.02, -187500.02, 0.000, 0.000, 0.000, 14:00:14.925
109, 70418.90, 17817.13, -187500.02, -187500.02, -187500.02, -179851.42, -187500.02, -187500.02, 0.000, 0.000, 0.000, 14:00:14.925
110, 69310.12, 16757.06, -187500.02, -187500.02, -187500.02, -180007.27, -187500.02, -187500.02, 0.000, 0.000, 0.000, 14:00:14.925
111, 66162.19, 13672.74, -187500.02, -187500.02, -187500.02, -179918.94, -187500.02, -187500.02, 0.000, 0.000, 0.000, 14:00:14.926
112, 65780.31, 13046.33, -187500.02, -187500.02, -187500.02, -179806.72, -187500.02, -187500.02, 0.000, 0.000, 0.000, 14:00:14.926
113, 69509.85, 16763.56, -187500.02, -187500.02, -187500.02, -179705.72, -187500.02, -187500.02, 0.000, 0.000, 0.000, 14:00:14.926
114, 70402.45, 17804.53, -187500.02, -187500.02, -187500.02, -179880.47, -187500.02, -187500.02, 0.000, 0.000, 0.000, 14:00:14.926
115, 69299.15, 16757.88, -187500.02, -187500.02, -187500.02, -179989.30, -187500.02, -187500.02, 0.000, 0.000, 0.000, 14:00:14.926
116, 66168.16, 13681.90, -187500.02, -187500.02, -187500.02, -179924.58, -187500.02, -187500.02, 0.004, -0.010, 1.022, 14:00:14.927
117, 65752.73, 13014.30, -187500.02, -187500.02, -187500.02, -179782.50, -187500.02, -187500.02, 0.000, 0.000, 0.000, 14:00:14.927
118, 69485.16, 16741.79, -187500.02, -187500.02, -187500.02, -179672.23, -187500.02, -187500.02, 0.000, 0.000, 0.000, 14:00:14.927
119, 70404.69, 17810.25, -187500.02, -187500.02, -187500.02, -179886.70, -187500.02, -187500.02, 0.000, 0.000, 0.000, 14:00:14.927
120, 69309.80, 16756.41, -187500.02, -187500.02, -187500.02, -180001.20, -187500.02, -187500.02, 0.000, 0.000, 0.000, 14:00:15.389
121, 66179.34, 13682.69, -187500.02, -187500.02, -187500.02, -179915.56, -187500.02, -187500.02, 0.000, 0.000, 0.000, 14:00:15.389
122, 65748.64, 13024.41, -187500.02, -187500.02, -187500.02, -179802.66, -187500.02, -187500.02, 0.000, 0.000, 0.000, 14:00:15.389
123, 69470.59, 16729.25, -187500.02, -187500.02, -187500.02, -179694.19, -187500.02, -187500.02, 0.000, 0.000, 0.000, 14:00:15.389
124, 70393.06, 17797.98, -187500.02, -187500.02, -187500.02, -179858.47, -187500.02, -187500.02, 0.000, 0.000, 0.000, 14:00:15.389
125, 69307.86, 16763.47, -187500.02, -187500.02, -187500.02, -179989.41, -187500.02, -187500.02, 0.000, 0.000, 0.000, 14:00:15.389
126, 66190.22, 13707.97, -187500.02, -187500.02, -187500.02, -179907.22, -187500.02, -187500.02, 0.010, -0.008, 1.018, 14:00:15.390
127, 65727.80, 13007.20, -187500.02, -187500.02, -187500.02, -179787.66, -187500.02, -187500.02, 0.000, 0.000, 0.000, 14:00:15.390
128, 69464.26, 16736.70, -187500.02, -187500.02, -187500.02, -179706.95, -187500.02, -187500.02, 0.000, 0.000, 0.000, 14:00:15.390
129, 70410.41, 17826.32, -187500.02, -187500.02, -187500.02, -179897.05, -187500.02, -187500.02, 0.000, 0.000, 0.000, 14:00:15.390
130, 69332.23, 16788.82, -187500.02, -187500.02, -187500.02, -180046.64, -187500.02, -187500.02, 0.000, 0.000, 0.000, 14:00:15.390
131, 66218.31, 13740.67, -187500.02, -187500.02, -187500.02, -180001.66, -187500.02, -187500.02, 0.000, 0.000, 0.000, 14:00:15.390
132, 65718.46, 13008.49, -187500.02, -187500.02, -187500.02, -179879.38, -187500.02, -187500.02, 0.000, 0.000, 0.000, 14:00:15.390
133, 69441.59, 16712.24, -187500.02, -187500.02, -187500.02, -179759.83, -187500.02, -187500.02, 0.000, 0.000, 0.000, 14:00:15.390
134, 70407.63, 17817.60, -187500.02, -187500.02, -187500.02, -179962.98, -187500.02, -187500.02, 0.000, 0.000, 0.000, 14:00:15.391
135, 69330.86, 16792.26, -187500.02, -187500.02, -187500.02, -180085.98, -187500.02, -187500.02, 0.000, 0.000, 0.000, 14:00:15.391
136, 66216.39, 13748.09, -187500.02, -187500.02, -187500.02, -179986.80, -187500.02, -187500.02, 0.010, -0.004, 1.012, 14:00:15.391
137, 65693.52, 12979.23, -187500.02, -187500.02, -187500.02, -179859.72, -187500.02, -187500.02, 0.000, 0.000, 0.000, 14:00:15.391
138, 69422.91, 16688.55, -187500.02, -187500.02, -187500.02, -179727.78, -187500.02, -187500.02, 0.000, 0.000, 0.000, 14:00:15.391
139, 70414.43, 17824.89, -187500.02, -187500.02, -187500.02, -179938.58, -187500.02, -187500.02, 0.000, 0.000, 0.000, 14:00:15.391
140, 69347.29, 16801.61, -187500.02, -187500.02, -187500.02, -180095.83, -187500.02, -187500.02, 0.000, 0.000, 0.000, 14:00:15.391
141, 66236.09, 13764.83, -187500.02, -187500.02, -187500.02, -179992.72, -187500.02, -187500.02, 0.000, 0.000, 0.000, 14:00:15.392
142, 65690.95, 12979.01, -187500.02, -187500.02, -187500.02, -179840.63, -187500.02, -187500.02, 0.000, 0.000, 0.000, 14:00:15.392
143, 69419.29, 16678.69, -187500.02, -187500.02, -187500.02, -179732.42, -187500.02, -187500.02, 0.000, 0.000, 0.000, 14:00:15.392
144, 70412.71, 17820.11, -187500.02, -187500.02, -187500.02, -179923.84, -187500.02, -187500.02, 0.000, 0.000, 0.000, 14:00:15.392
145, 69353.73, 16821.19, -187500.02, -187500.02, -187500.02, -180049.98, -187500.02, -187500.02, 0.000, 0.000, 0.000, 14:00:15.392
146, 66256.73, 13784.95, -187500.02, -187500.02, -187500.02, -179961.48, -187500.02, -187500.02, 0.006, -0.004, 1.020, 14:00:15.392
147, 65672.46, 12959.45, -187500.02, -187500.02, -187500.02, -179801.50, -187500.02, -187500.02, 0.000, 0.000, 0.000, 14:00:15.392
148, 69401.09, 16673.87, -187500.02, -187500.02, -187500.02, -179683.41, -187500.02, -187500.02, 0.000, 0.000, 0.000, 14:00:15.392
149, 70422.81, 17842.12, -187500.02, -187500.02, -187500.02, -179926.48, -187500.02, -187500.02, 0.000, 0.000, 0.000, 14:00:15.393
150, 69364.81, 16832.38, -187500.02, -187500.02, -187500.02, -180066.23, -187500.02, -187500.02, 0.000, 0.000, 0.000, 14:00:15.393
151, 66285.68, 13816.84, -187500.02, -187500.02, -187500.02, -180019.98, -187500.02, -187500.02, 0.000, 0.000, 0.000, 14:00:15.393
152, 65675.97, 12968.62, -187500.02, -187500.02, -187500.02, -179882.66, -187500.02, -187500.02, 0.000, 0.000, 0.000, 14:00:15.393
153, 69397.41, 16663.85, -187500.02, -187500.02, -187500.02, -179758.67, -187500.02, -187500.02, 0.000, 0.000, 0.000, 14:00:15.393
154, 70428.76, 17845.88, -187500.02, -187500.02, -187500.02, -179960.89, -187500.02, -187500.02, 0.000, 0.000, 0.000, 14:00:15.393
155, 69381.29, 16847.47, -187500.02, -187500.02, -187500.02, -180096.25, -187500.02, -187500.02, 0.000, 0.000, 0.000, 14:00:15.393
156, 66298.20, 13827.77, -187500.02, -187500.02, -187500.02, -180013.59, -187500.02, -187500.02, 0.008, -0.012, 1.020, 14:00:15.394
157, 65663.74, 12959.97, -187500.02, -187500.02, -187500.02, -179887.77, -187500.02, -187500.02, 0.000, 0.000, 0.000, 14:00:15.394
158, 69386.09, 16653.86, -187500.02, -187500.02, -187500.02, -179784.91, -187500.02, -187500.02, 0.000, 0.000, 0.000, 14:00:15.394
159, 70431.77, 17845.32, -187500.02, -187500.02, -187500.02, -179985.89, -187500.02, -187500.02, 0.000, 0.000, 0.000, 14:00:15.394
160, 69395.52, 16857.57, -187500.02, -187500.02, -187500.02, -180129.38, -187500.02, -187500.02, 0.000, 0.000, 0.000, 14:00:15.394
161, 66321.27, 13857.10, -187500.02, -187500.02, -187500.02, -180056.73, -187500.02, -187500.02, 0.000, 0.000, 0.000, 14:00:15.394
162, 65654.88, 12966.67, -187500.02, -187500.02, -187500.02, -179914.48, -187500.02, -187500.02, 0.000, 0.000, 0.000, 14:00:15.395
163, 69375.09, 16659.78, -187500.02, -187500.02, -187500.02, -179813.03, -187500.02, -187500.02, 0.000, 0.000, 0.000, 14:00:15.395
164, 70425.20, 17850.97, -187500.02, -187500.02, -187500.02, -179998.70, -187500.02, -187500.02, 0.000, 0.000, 0.000, 14:00:15.395
165, 69388.38, 16857.66, -187500.02, -187500.02, -187500.02, -180119.78, -187500.02, -187500.02, 0.008, -0.014, 1.018, 14:00:15.395
166, 66320.46, 13852.02, -187500.02, -187500.02, -187500.02, -180030.27, -187500.02, -187500.02, 0.000, 0.000, 0.000, 14:00:15.395
167, 65633.55, 12935.58, -187500.02, -187500.02, -187500.02, -179895.73, -187500.02, -187500.02, 0.000, 0.000, 0.000, 14:00:15.395
168, 69352.52, 16620.13, -187500.02, -187500.02, -187500.02, -179777.47, -187500.02, -187500.02, 0.000, 0.000, 0.000, 14:00:15.395
169, 70435.69, 17853.92, -187500.02, -187500.02, -187500.02, -179978.25, -187500.02, -187500.02, 0.000, 0.000, 0.000, 14:00:15.395
170, 69403.02, 16876.21, -187500.02, -187500.02, -187500.02, -180123.73, -187500.02, -187500.02, 0.000, 0.000, 0.000, 14:00:15.396
171, 66342.75, 13888.66, -187500.02, -187500.02, -187500.02, -180043.20, -187500.02, -187500.02, 0.000, 0.000, 0.000, 14:00:15.396
172, 65628.61, 12941.10, -187500.02, -187500.02, -187500.02, -179891.28, -187500.02, -187500.02, 0.000, 0.000, 0.000, 14:00:15.396
173, 69354.04, 16630.12, -187500.02, -187500.02, -187500.02, -179818.59, -187500.02, -187500.02, 0.000, 0.000, 0.000, 14:00:15.396
174, 70433.45, 17857.32, -187500.02, -187500.02, -187500.02, -180009.08, -187500.02, -187500.02, 0.000, 0.000, 0.000, 14:00:15.396
175, 69408.67, 16878.49, -187500.02, -187500.02, -187500.02, -180119.42, -187500.02, -187500.02, 0.010, -0.016, 1.022, 14:00:15.396
176, 66364.05, 13900.28, -187500.02, -187500.02, -187500.02, -180047.16, -187500.02, -187500.02, 0.000, 0.000, 0.000, 14:00:15.396
177, 65621.95, 12932.70, -187500.02, -187500.02, -187500.02, -179933.64, -187500.02, -187500.02, 0.000, 0.000, 0.000, 14:00:15.396
178, 69332.02, 16600.95, -187500.02, -187500.02, -187500.02, -179797.89, -187500.02, -187500.02, 0.000, 0.000, 0.000, 14:00:15.397
179, 70450.38, 17868.10, -187500.02, -187500.02, -187500.02, -180008.30, -187500.02, -187500.02, 0.000, 0.000, 0.000, 14:00:15.397
180, 69443.20, 16912.07, -187500.02, -187500.02, -187500.02, -180167.03, -187500.02, -187500.02, 0.000, 0.000, 0.000, 14:00:15.397
181, 66390.31, 13932.60, -187500.02, -187500.02, -187500.02, -180093.03, -187500.02, -187500.02, 0.000, 0.000, 0.000, 14:00:15.397
182, 65623.02, 12927.89, -187500.02, -187500.02, -187500.02, -179989.22, -187500.02, -187500.02, 0.000, 0.000, 0.000, 14:00:15.397
183, 69318.97, 16600.95, -187500.02, -187500.02, -187500.02, -179857.22, -187500.02, -187500.02, 0.000, 0.000, 0.000, 14:00:15.397
184, 70436.23, 17873.55, -187500.02, -187500.02, -187500.02, -180028.52, -187500.02, -187500.02, 0.000, 0.000, 0.000, 14:00:15.397
185, 69428.63, 16906.03, -187500.02, -187500.02, -187500.02, -180165.36, -187500.02, -187500.02, 0.012, -0.016, 1.022, 14:00:15.397
186, 66395.36, 13937.12, -187500.02, -187500.02, -187500.02, -180102.80, -187500.02, -187500.02, 0.000, 0.000, 0.000, 14:00:15.397
187, 65598.45, 12905.34, -187500.02, -187500.02, -187500.02, -179983.28, -187500.02, -187500.02, 0.000, 0.000, 0.000, 14:00:15.398
188, 69309.07, 16583.50, -187500.02, -187500.02, -187500.02, -179879.80, -187500.02, -187500.02, 0.000, 0.000, 0.000, 14:00:15.398
189, 70450.98, 17870.69, -187500.02, -187500.02, -187500.02, -180081.05, -187500.02, -187500.02, 0.000, 0.000, 0.000, 14:00:15.398
190, 69449.53, 16913.45, -187500.02, -187500.02, -187500.02, -180202.59, -187500.02, -187500.02, 0.000, 0.000, 0.000, 14:00:15.398
191, 66414.72, 13963.49, -187500.02, -187500.02, -187500.02, -180107.72, -187500.02, -187500.02, 0.000, 0.000, 0.000, 14:00:15.398
192, 65585.73, 12909.58, -187500.02, -187500.02, -187500.02, -179982.78, -187500.02, -187500.02, 0.000, 0.000, 0.000, 14:00:15.398
193, 69291.37, 16566.40, -187500.02, -187500.02, -187500.02, -179856.38, -187500.02, -187500.02, 0.000, 0.000, 0.000, 14:00:15.398
194, 70453.61, 17881.91, -187500.02, -187500.02, -187500.02, -180025.33, -187500.02, -187500.02, 0.000, 0.000, 0.000, 14:00:15.398
195, 69459.18, 16939.92, -187500.02, -187500.02, -187500.02, -180158.00, -187500.02, -187500.02, 0.010, -0.012, 1.024, 14:00:15.399
196, 66437.23, 13993.98, -187500.02, -187500.02, -187500.02, -180090.95, -187500.02, -187500.02, 0.000, 0.000, 0.000, 14:00:15.399
197, 65587.19, 12909.90, -187500.02, -187500.02, -187500.02, -179964.23, -187500.02, -187500.02, 0.000, 0.000, 0.000, 14:00:15.399
198, 69282.09, 16561.37, -187500.02, -187500.02, -187500.02, -179819.58, -187500.02, -187500.02, 0.000, 0.000, 0.000, 14:00:15.399
199, 70469.30, 17904.71, -187500.02, -187500.02, -187500.02, -180013.45, -187500.02, -187500.02, 0.000, 0.000, 0.000, 14:00:15.399
200, 69487.62, 16965.00, -187500.02, -187500.02, -187500.02, -180190.70, -187500.02, -187500.02, 0.000, 0.000, 0.000, 14:00:15.399
201, 66463.98, 14012.49, -187500.02, -187500.02, -187500.02, -180150.67, -187500.02, -187500.02, 0.000, 0.000, 0.000, 14:00:15.399
202, 65581.07, 12896.08, -187500.02, -187500.02, -187500.02, -180034.05, -187500.02, -187500.02, 0.000, 0.000, 0.000, 14:00:15.399
203, 69273.66, 16544.85, -187500.02, -187500.02, -187500.02, -179888.20, -187500.02, -187500.02, 0.000, 0.000, 0.000, 14:00:15.400
204, 70461.46, 17895.10, -187500.02, -187500.02, -187500.02, -180036.39, -187500.02, -187500.02, 0.000, 0.000, 0.000, 14:00:15.400
205, 69492.66, 16976.66, -187500.02, -187500.02, -187500.02, -180220.88, -187500.02, -187500.02, 0.012, -0.014, 1.026, 14:00:15.400
206, 66477.82, 14031.82, -187500.02, -187500.02, -187500.02, -180142.47, -187500.02, -187500.02, 0.000, 0.000, 0.000, 14:00:15.400
207, 65572.62, 12894.52, -187500.02, -187500.02, -187500.02, -179991.73, -187500.02, -187500.02, 0.000, 0.000, 0.000, 14:00:15.400
208, 69269.02, 16546.75, -187500.02, -187500.02, -187500.02, -179870.31, -187500.02, -187500.02, 0.000, 0.000, 0.000, 14:00:15.400
209, 70471.02, 17906.79, -187500.02, -187500.02, -187500.02, -180044.30, -187500.02, -187500.02, 0.000, 0.000, 0.000, 14:00:15.400
210, 69488.82, 16967.16, -187500.02, -187500.02, -187500.02, -180154.05, -187500.02, -187500.02, 0.000, 0.000, 0.000, 14:00:15.400
211, 66500.21, 14059.16, -187500.02, -187500.02, -187500.02, -180111.48, -187500.02, -187500.02, 0.000, 0.000, 0.000, 14:00:15.400
212, 65570.77, 12908.06, -187500.02, -187500.02, -187500.02, -180030.17, -187500.02, -187500.02, 0.000, 0.000, 0.000, 14:00:15.401
213, 69258.06, 16548.90, -187500.02, -187500.02, -187500.02, -179924.27, -187500.02, -187500.02, 0.000, 0.000, 0.000, 14:00:15.401
214, 70466.45, 17908.57, -187500.02, -187500.02, -187500.02, -180078.70, -187500.02, -187500.02, 0.000, 0.000, 0.000, 14:00:15.401
215, 69495.30, 16989.40, -187500.02, -187500.02, -187500.02, -180204.16, -187500.02, -187500.02, 0.008, -0.014, 1.024, 14:00:15.401
216, 66505.91, 14088.28, -187500.02, -187500.02, -187500.02, -180120.88, -187500.02, -187500.02, 0.000, 0.000, 0.000, 14:00:15.401
217, 65556.62, 12901.40, -187500.02, -187500.02, -187500.02, -180025.38, -187500.02, -187500.02, 0.000, 0.000, 0.000, 14:00:15.401
218, 69235.42, 16529.36, -187500.02, -187500.02, -187500.02, -179902.28, -187500.02, -187500.02, 0.000, 0.000, 0.000, 14:00:15.401
219, 70469.88, 17921.61, -187500.02, -187500.02, -187500.02, -180045.52, -187500.02, -187500.02, 0.000, 0.000, 0.000, 14:00:15.401
220, 69509.48, 17010.19, -187500.02, -187500.02, -187500.02, -180191.73, -187500.02, -187500.02, 0.000, 0.000, 0.000, 14:00:15.402
221, 66528.53, 14109.61, -187500.02, -187500.02, -187500.02, -180119.22, -187500.02, -187500.02, 0.000, 0.000, 0.000, 14:00:15.402
222, 65546.29, 12895.68, -187500.02, -187500.02, -187500.02, -180016.09, -187500.02, -187500.02, 0.000, 0.000, 0.000, 14:00:15.402
223, 69218.74, 16519.71, -187500.02, -187500.02, -187500.02, -179879.50, -187500.02, -187500.02, 0.000, 0.000, 0.000, 14:00:15.402
224, 70481.10, 17939.38, -187500.02, -187500.02, -187500.02, -180064.47, -187500.02, -187500.02, 0.000, 0.000, 0.000, 14:00:15.402
225, 69538.51, 17036.25, -187500.02, -187500.02, -187500.02, -180265.50, -187500.02, -187500.02, 0.008, -0.014, 1.024, 14:00:15.402
226, 66554.38, 14135.18, -187500.02, -187500.02, -187500.02, -180191.13, -187500.02, -187500.02, 0.000, 0.000, 0.000, 14:00:15.402
227, 65541.84, 12901.25, -187500.02, -187500.02, -187500.02, -180075.13, -187500.02, -187500.02, 0.000, 0.000, 0.000, 14:00:15.402
228, 69215.30, 16513.09, -187500.02, -187500.02, -187500.02, -179979.80, -187500.02, -187500.02, 0.000, 0.000, 0.000, 14:00:15.402
229, 70479.36, 17925.99, -187500.02, -187500.02, -187500.02, -180146.98, -187500.02, -187500.02, 0.000, 0.000, 0.000, 14:00:15.403
230, 69525.26, 17019.71, -187500.02, -187500.02, -187500.02, -180296.81, -187500.02, -187500.02, 0.000, 0.000, 0.000, 14:00:15.403
231, 66553.45, 14134.66, -187500.02, -187500.02, -187500.02, -180218.05, -187500.02, -187500.02, 0.000, 0.000, 0.000, 14:00:15.403
232, 65516.11, 12873.55, -187500.02, -187500.02, -187500.02, -180090.50, -187500.02, -187500.02, 0.000, 0.000, 0.000, 14:00:15.403
233, 69182.52, 16484.81, -187500.02, -187500.02, -187500.02, -179954.36, -187500.02, -187500.02, 0.000, 0.000, 0.000, 14:00:15.403
234, 70469.93, 17926.81, -187500.02, -187500.02, -187500.02, -180126.00, -187500.02, -187500.02, 0.000, 0.000, 0.000, 14:00:15.403
235, 69529.70, 17036.21, -187500.02, -187500.02, -187500.02, -180293.23, -187500.02, -187500.02, 0.010, -0.016, 1.028, 14:00:15.403
236, 66567.65, 14163.74, -187500.02, -187500.02, -187500.02, -180218.63, -187500.02, -187500.02, 0.000, 0.000, 0.000, 14:00:15.403
237, 65504.20, 12863.99, -187500.02, -187500.02, -187500.02, -180065.38, -187500.02, -187500.02, 0.000, 0.000, 0.000, 14:00:15.404
238, 69175.34, 16473.48, -187500.02, -187500.02, -187500.02, -179924.08, -187500.02, -187500.02, 0.000, 0.000, 0.000, 14:00:15.404
239, 70484.44, 17953.57, -187500.02, -187500.02, -187500.02, -180128.97, -187500.02, -187500.02, 0.000, 0.000, 0.000, 14:00:15.404
240, 69539.38, 17060.28, -187500.02, -187500.02, -187500.02, -180261.03, -187500.02, -187500.02, 0.000, 0.000, 0.000, 14:00:15.869
241, 66586.20, 14183.14, -187500.02, -187500.02, -187500.02, -180193.80, -187500.02, -187500.02, 0.000, 0.000, 0.000, 14:00:15.870
242, 65496.96, 12868.21, -187500.02, -187500.02, -187500.02, -180081.27, -187500.02, -187500.02, 0.000, 0.000, 0.000, 14:00:15.870
243, 69153.59, 16468.36, -187500.02, -187500.02, -187500.02, -179945.53, -187500.02, -187500.02, 0.000, 0.000, 0.000, 14:00:15.870
244, 70464.50, 17943.71, -187500.02, -187500.02, -187500.02, -180102.89, -187500.02, -187500.02, 0.000, 0.000, 0.000, 14:00:15.870
245, 69537.26, 17063.41, -187500.02, -187500.02, -187500.02, -180285.61, -187500.02, -187500.02, 0.008, -0.014, 1.028, 14:00:15.870
246, 66592.69, 14199.91, -187500.02, -187500.02, -187500.02, -180200.14, -187500.02, -187500.02, 0.000, 0.000, 0.000, 14:00:15.870
247, 65478.29, 12854.13, -187500.02, -187500.02, -187500.02, -180057.25, -187500.02, -187500.02, 0.000, 0.000, 0.000, 14:00:15.871
248, 69134.26, 16451.02, -187500.02, -187500.02, -187500.02, -179946.58, -187500.02, -187500.02, 0.000, 0.000, 0.000, 14:00:15.871
249, 70475.07, 17952.54, -187500.02, -187500.02, -187500.02, -180116.50, -187500.02, -187500.02, 0.000, 0.000, 0.000, 14:00:15.871
250, 69565.96, 17089.56, -187500.02, -187500.02, -187500.02, -180314.44, -187500.02, -187500.02, 0.000, 0.000, 0.000, 14:00:15.871
251, 66624.91, 14229.66, -187500.02, -187500.02, -187500.02, -180288.19, -187500.02, -187500.02, 0.000, 0.000, 0.000, 14:00:15.871
252, 65464.99, 12853.35, -187500.02, -187500.02, -187500.02, -180117.69, -187500.02, -187500.02, 0.000, 0.000, 0.000, 14:00:15.872
253, 69116.22, 16443.75, -187500.02, -187500.02, -187500.02, -179995.97, -187500.02, -187500.02, 0.000, 0.000, 0.000, 14:00:15.872
254, 70470.38, 17957.59, -187500.02, -187500.02, -187500.02, -180162.61, -187500.02, -187500.02, 0.000, 0.000, 0.000, 14:00:15.872
255, 69553.84, 17091.26, -187500.02, -187500.02, -187500.02, -180322.61, -187500.02, -187500.02, 0.008, -0.012, 1.024, 14:00:15.872
0, 66628.34, 14242.96, -187500.02, -187500.02, -187500.02, -180260.64, -187500.02, -187500.02, 0.000, 0.000, 0.000, 14:00:15.872
1, 65458.78, 12842.93, -187500.02, -187500.02, -187500.02, -180137.83, -187500.02, -187500.02, 0.000, 0.000, 0.000, 14:00:15.872
2, 69106.85, 16425.49, -187500.02, -187500.02, -187500.02, -180024.61, -187500.02, -187500.02, 0.000, 0.000, 0.000, 14:00:15.873
3, 70478.53, 17955.51, -187500.02, -187500.02, -187500.02, -180208.23, -187500.02, -187500.02, 0.000, 0.000, 0.000, 14:00:15.873
4, 69559.86, 17082.83, -187500.02, -187500.02, -187500.02, -180340.80, -187500.02, -187500.02, 0.000, 0.000, 0.000, 14:00:15.873
5, 66640.20, 14252.72, -187500.02, -187500.02, -187500.02, -180249.73, -187500.02, -187500.02, 0.000, 0.000, 0.000, 14:00:15.873
6, 65445.55, 12843.11, -187500.02, -187500.02, -187500.02, -180136.72, -187500.02, -187500.02, 0.000, 0.000, 0.000, 14:00:15.873
7, 69080.97, 16412.24, -187500.02, -187500.02, -187500.02, -179994.34, -187500.02, -187500.02, 0.000, 0.000, 0.000, 14:00:15.873
8, 70479.70, 17972.01, -187500.02, -187500.02, -187500.02, -180190.17, -187500.02, -187500.02, 0.000, 0.000, 0.000, 14:00:15.873
9, 69582.70, 17120.74, -187500.02, -187500.02, -187500.02, -180387.88, -187500.02, -187500.02, 0.006, -0.014, 1.026, 14:00:15.873
10, 66673.38, 14290.10, -187500.02, -187500.02, -187500.02, -180329.67, -187500.02, -187500.02, 0.000, 0.000, 0.000, 14:00:15.873
11, 65451.70, 12845.97, -187500.02, -187500.02, -187500.02, -180191.63, -187500.02, -187500.02, 0.000, 0.000, 0.000, 14:00:15.874
12, 69071.91, 16400.14, -187500.02, -187500.02, -187500.02, -180044.13, -187500.02, -187500.02, 0.000, 0.000, 0.000, 14:00:15.874
13, 70478.76, 17962.51, -187500.02, -187500.02, -187500.02, -180203.77, -187500.02, -187500.02, 0.000, 0.000, 0.000, 14:00:15.874
14, 69581.11, 17110.17, -187500.02, -187500.02, -187500.02, -180338.31, -187500.02, -187500.02, 0.000, 0.000, 0.000, 14:00:15.874
15, 66679.77, 14292.53, -187500.02, -187500.02, -187500.02, -180252.38, -187500.02, -187500.02, 0.000, 0.000, 0.000, 14:00:15.874
16, 65440.45, 12836.11, -187500.02, -187500.02, -187500.02, -180137.78, -187500.02, -187500.02, 0.000, 0.000, 0.000, 14:00:15.874
17, 69065.84, 16391.94, -187500.02, -187500.02, -187500.02, -180018.39, -187500.02, -187500.02, 0.000, 0.000, 0.000, 14:00:15.874
18, 70499.88, 17983.12, -187500.02, -187500.02, -187500.02, -180225.55, -187500.02, -187500.02, 0.000, 0.000, 0.000, 14:00:15.874
19, 69597.98, 17128.77, -187500.02, -187500.02, -187500.02, -180406.48, -187500.02, -187500.02, 0.006, -0.012, 1.024, 14:00:15.875
20, 66704.78, 14316.85, -187500.02, -187500.02, -187500.02, -180359.03, -187500.02, -187500.02, 0.000, 0.000, 0.000, 14:00:15.875
21, 65429.68, 12823.60, -187500.02, -187500.02, -187500.02, -180233.08, -187500.02, -187500.02, 0.000, 0.000, 0.000, 14:00:15.875
22, 69041.32, 16357.27, -187500.02, -187500.02, -187500.02, -180085.20, -187500.02, -187500.02, 0.000, 0.000, 0.000, 14:00:15.875
23, 70486.20, 17963.96, -187500.02, -187500.02, -187500.02, -180260.16, -187500.02, -187500.02, 0.000, 0.000, 0.000, 14:00:15.875
24, 69593.02, 17118.11, -187500.02, -187500.02, -187500.02, -180413.63, -187500.02, -187500.02, 0.000, 0.000, 0.000, 14:00:15.875
25, 66704.38, 14324.65, -187500.02, -187500.02, -187500.02, -180329.70, -187500.02, -187500.02, 0.000, 0.000, 0.000, 14:00:15.875
26, 65412.87, 12818.52, -187500.02, -187500.02, -187500.02, -180201.25, -187500.02, -187500.02, 0.000, 0.000, 0.000, 14:00:15.875
27, 69024.11, 16351.37, -187500.02, -187500.02, -187500.02, -180095.69, -187500.02, -187500.02, 0.000, 0.000, 0.000, 14:00:15.876
28, 70471.43, 17958.35, -187500.02, -187500.02, -187500.02, -180228.53, -187500.02, -187500.02, 0.006, -0.012, 1.028, 14:00:15.876
29, 69592.02, 17122.58, -187500.02, -187500.02, -187500.02, -180374.86, -187500.02, -187500.02, 0.000, 0.000, 0.000, 14:00:15.876
30, 66721.05, 14338.35, -187500.02, -187500.02, -187500.02, -180307.19, -187500.02, -187500.02, 0.000, 0.000, 0.000, 14:00:15.876
31, 65402.32, 12807.48, -187500.02, -187500.02, -187500.02, -180185.70, -187500.02, -187500.02, 0.000, 0.000, 0.000, 14:00:15.876
32, 69010.41, 16347.80, -187500.02, -187500.02, -187500.02, -180086.66, -187500.02, -187500.02, 0.000, 0.000, 0.000, 14:00:15.876
33, 70479.32, 17971.61, -187500.02, -187500.02, -187500.02, -180266.61, -187500.02, -187500.02, 0.000, 0.000, 0.000, 14:00:15.877
34, 69596.31, 17136.05, -187500.02, -187500.02, -187500.02, -180403.30, -187500.02, -187500.02, 0.000, 0.000, 0.000, 14:00:15.877
35, 66735.78, 14357.29, -187500.02, -187500.02, -187500.02, -180330.11, -187500.02, -187500.02, 0.000, 0.000, 0.000, 14:00:15.877
36, 65396.75, 12801.20, -187500.02, -187500.02, -187500.02, -180213.34, -187500.02, -187500.02, 0.000, 0.000, 0.000, 14:00:15.877
37, 68996.13, 16316.64, -187500.02, -187500.02, -187500.02, -180065.06, -187500.02, -187500.02, 0.000, 0.000, 0.000, 14:00:15.877
38, 70497.02, 17978.02, -187500.02, -187500.02, -187500.02, -180221.34, -187500.02, -187500.02, 0.010, -0.016, 1.030, 14:00:15.878
39, 69636.37, 17166.72, -187500.02, -187500.02, -187500.02, -180405.81, -187500.02, -187500.02, 0.000, 0.000, 0.000, 14:00:15.878
40, 66777.20, 14381.42, -187500.02, -187500.02, -187500.02, -180342.97, -187500.02, -187500.02, 0.000, 0.000, 0.000, 14:00:15.878
41, 65407.93, 12806.61, -187500.02, -187500.02, -187500.02, -180217.50, -187500.02, -187500.02, 0.000, 0.000, 0.000, 14:00:15.878
42, 68998.63, 16322.32, -187500.02, -187500.02, -187500.02, -180100.00, -187500.02, -187500.02, 0.000, 0.000, 0.000, 14:00:15.878
43, 70509.38, 17994.14, -187500.02, -187500.02, -187500.02, -180245.22, -187500.02, -187500.02, 0.000, 0.000, 0.000, 14:00:15.879
44, 69649.13, 17177.52, -187500.02, -187500.02, -187500.02, -180421.13, -187500.02, -187500.02, 0.000, 0.000, 0.000, 14:00:15.879
45, 66806.63, 14416.23, -187500.02, -187500.02, -187500.02, -180360.36, -187500.02, -187500.02, 0.000, 0.000, 0.000, 14:00:15.879
46, 65417.54, 12820.98, -187500.02, -187500.02, -187500.02, -180268.89, -187500.02, -187500.02, 0.000, 0.000, 0.000, 14:00:15.879
47, 68985.15, 16308.79, -187500.02, -187500.02, -187500.02, -180111.11, -187500.02, -187500.02, 0.000, 0.000, 0.000, 14:00:15.879
48, 70511.03, 17992.42, -187500.02, -187500.02, -187500.02, -180261.53, -187500.02, -187500.02, 0.008, -0.016, 1.022, 14:00:15.879
49, 69658.12, 17188.92, -187500.02, -187500.02, -187500.02, -180461.09, -187500.02, -187500.02, 0.000, 0.000, 0.000, 14:00:15.880
50, 66821.99, 14437.50, -187500.02, -187500.02, -187500.02, -180394.86, -187500.02, -187500.02, 0.000, 0.000, 0.000, 14:00:15.880
51, 65398.90, 12802.21, -187500.02, -187500.02, -187500.02, -180288.42, -187500.02, -187500.02, 0.000, 0.000, 0.000, 14:00:15.880
52, 68959.76, 16276.67, -187500.02, -187500.02, -187500.02, -180126.59, -187500.02, -187500.02, 0.000, 0.000, 0.000, 14:00:15.880
53, 70504.20, 17977.33, -187500.02, -187500.02, -187500.02, -180239.41, -187500.02, -187500.02, 0.000, 0.000, 0.000, 14:00:15.880
54, 69660.98, 17183.98, -187500.02, -187500.02, -187500.02, -180422.98, -187500.02, -187500.02, 0.000, 0.000, 0.000, 14:00:15.881
55, 66833.05, 14443.03, -187500.02, -187500.02, -187500.02, -180376.92, -187500.02, -187500.02, 0.000, 0.000, 0.000, 14:00:15.881
56, 65388.04, 12793.15, -187500.02, -187500.02, -187500.02, -180259.13, -187500.02, -187500.02, 0.000, 0.000, 0.000, 14:00:15.881
57, 68956.02, 16273.79, -187500.02, -187500.02, -187500.02, -180122.89, -187500.02, -187500.02, 0.000, 0.000, 0.000, 14:00:15.881
58, 70503.70, 17984.93, -187500.02, -187500.02, -187500.02, -180261.42, -187500.02, -187500.02, 0.008, -0.016, 1.026, 14:00:15.881
59, 69650.45, 17174.01, -187500.02, -187500.02, -187500.02, -180448.00, -187500.02, -187500.02, 0.000, 0.000, 0.000, 14:00:15.881
60, 66832.85, 14442.11, -187500.02, -187500.02, -187500.02, -180402.56, -187500.02, -187500.02, 0.000, 0.000, 0.000, 14:00:15.881
61, 65361.93, 12758.22, -187500.02, -187500.02, -187500.02, -180284.67, -187500.02, -187500.02, 0.000, 0.000, 0.000, 14:00:15.881
62, 68907.48, 16219.07, -187500.02, -187500.02, -187500.02, -180090.17, -187500.02, -187500.02, 0.000, 0.000, 0.000, 14:00:15.882
63, 70492.37, 17969.35, -187500.02, -187500.02, -187500.02, -180268.59, -187500.02, -187500.02, 0.000, 0.000, 0.000, 14:00:15.882
64, 69640.48, 17161.31, -187500.02, -187500.02, -187500.02, -180429.89, -187500.02, -187500.02, 0.000, 0.000, 0.000, 14:00:15.882
65, 66828.61, 14438.13, -187500.02, -187500.02, -187500.02, -180347.28, -187500.02, -187500.02, 0.000, 0.000, 0.000, 14:00:15.882
66, 65342.68, 12745.72, -187500.02, -187500.02, -187500.02, -180239.91, -187500.02, -187500.02, 0.000, 0.000, 0.000, 14:00:15.882
67, 68885.57, 16200.41, -187500.02, -187500.02, -187500.02, -180063.80, -187500.02, -187500.02, 0.000, 0.000, 0.000, 14:00:15.882
68, 70493.76, 17969.04, -187500.02, -187500.02, -187500.02, -180225.95, -187500.02, -187500.02, 0.010, -0.014, 1.030, 14:00:15.882
69, 69669.20, 17191.53, -187500.02, -187500.02, -187500.02, -180440.94, -187500.02, -187500.02, 0.000, 0.000, 0.000, 14:00:15.882
70, 66869.24, 14480.15, -187500.02, -187500.02, -187500.02, -180409.84, -187500.02, -187500.02, 0.000, 0.000, 0.000, 14:00:15.883
71, 65351.60, 12749.95, -187500.02, -187500.02, -187500.02, -180302.27, -187500.02, -187500.02, 0.000, 0.000, 0.000, 14:00:15.883
72, 68878.48, 16190.35, -187500.02, -187500.02, -187500.02, -180158.77, -187500.02, -187500.02, 0.000, 0.000, 0.000, 14:00:15.883
73, 70484.93, 17962.04, -187500.02, -187500.02, -187500.02, -180272.25, -187500.02, -187500.02, 0.000, 0.000, 0.000, 14:00:15.883
74, 69666.16, 17192.31, -187500.02, -187500.02, -187500.02, -180452.72, -187500.02, -187500.02, 0.000, 0.000, 0.000, 14:00:15.883
75, 66871.25, 14489.47, -187500.02, -187500.02, -187500.02, -180398.94, -187500.02, -187500.02, 0.000, 0.000, 0.000, 14:00:15.883
76, 65331.40, 12746.10, -187500.02, -187500.02, -187500.02, -180274.44, -187500.02, -187500.02, 0.000, 0.000, 0.000, 14:00:15.883
77, 68863.91, 16181.19, -187500.02, -187500.02, -187500.02, -180139.55, -187500.02, -187500.02, 0.000, 0.000, 0.000, 14:00:15.883
78, 70500.84, 17977.06, -187500.02, -187500.02, -187500.02, -180296.27, -187500.02, -187500.02, 0.004, -0.008, 1.026, 14:00:15.883
79, 69676.53, 17196.25, -187500.02, -187500.02, -187500.02, -180472.09, -187500.02, -187500.02, 0.000, 0.000, 0.000, 14:00:15.884
80, 66895.70, 14506.17, -187500.02, -187500.02, -187500.02, -180390.11, -187500.02, -187500.02, 0.000, 0.000, 0.000, 14:00:15.884
81, 65337.28, 12749.97, -187500.02, -187500.02, -187500.02, -180290.23, -187500.02, -187500.02, 0.000, 0.000, 0.000, 14:00:15.884
82, 68849.31, 16164.45, -187500.02, -187500.02, -187500.02, -180139.47, -187500.02, -187500.02, 0.000, 0.000, 0.000, 14:00:15.884
83, 70504.35, 17979.45, -187500.02, -187500.02, -187500.02, -180281.03, -187500.02, -187500.02, 0.000, 0.000, 0.000, 14:00:15.884
84, 69694.16, 17219.89, -187500.02, -187500.02, -187500.02, -180474.11, -187500.02, -187500.02, 0.000, 0.000, 0.000, 14:00:15.884
85, 66924.88, 14541.15, -187500.02, -187500.02, -187500.02, -180425.75, -187500.02, -187500.02, 0.000, 0.000, 0.000, 14:00:15.884
86, 65334.75, 12747.96, -187500.02, -187500.02, -187500.02, -180297.02, -187500.02, -187500.02, 0.000, 0.000, 0.000, 14:00:15.884
87, 68841.49, 16154.03, -187500.02, -187500.02, -187500.02, -180134.42, -187500.02, -187500.02, 0.000, 0.000, 0.000, 14:00:15.885
88, 70505.47, 17986.63, -187500.02, -187500.02, -187500.02, -180299.14, -187500.02, -187500.02, 0.000, -0.012, 1.028, 14:00:15.885
89, 69691.10, 17219.76, -187500.02, -187500.02, -187500.02, -180462.09, -187500.02, -187500.02, 0.000, 0.000, 0.000, 14:00:15.885
90, 66924.85, 14553.91, -187500.02, -187500.02, -187500.02, -180360.53, -187500.02, -187500.02, 0.000, 0.000, 0.000, 14:00:15.885
91, 65323.51, 12746.55, -187500.02, -187500.02, -187500.02, -180258.92, -187500.02, -187500.02, 0.000, 0.000, 0.000, 14:00:15.885
92, 68823.27, 16141.04, -187500.02, -187500.02, -187500.02, -180131.20, -187500.02, -187500.02, 0.000, 0.000, 0.000, 14:00:15.885
93, 70511.21, 17988.50, -187500.02, -187500.02, -187500.02, -180296.30, -187500.02, -187500.02, 0.000, 0.000, 0.000, 14:00:15.885
94, 69716.83, 17235.83, -187500.02, -187500.02, -187500.02, -180515.34, -187500.02, -187500.02, 0.000, 0.000, 0.000, 14:00:15.885
95, 66964.10, 14584.76, -187500.02, -187500.02, -187500.02, -180496.05, -187500.02, -187500.02, 0.000, 0.000, 0.000, 14:00:15.885
96, 65329.74, 12751.16, -187500.02, -187500.02, -187500.02, -180422.98, -187500.02, -187500.02, 0.000, 0.000, 0.000, 14:00:15.886
97, 68807.63, 16124.73, -187500.02, -187500.02, -187500.02, -180265.61, -187500.02, -187500.02, 0.000, 0.000, 0.000, 14:00:15.886
98, 70500.62, 17981.42, -187500.02, -187500.02, -187500.02, -180359.66, -187500.02, -187500.02, 0.000, -0.012, 1.026, 14:00:15.886
99, 69704.23, 17234.45, -187500.02, -187500.02, -187500.02, -180526.47, -187500.02, -187500.02, 0.000, 0.000, 0.000, 14:00:15.886
100, 66958.36, 14572.96, -187500.02, -187500.02, -187500.02, -180434.81, -187500.02, -187500.02, 0.000, 0.000, 0.000, 14:00:15.886
101, 65305.49, 12715.48, -187500.02, -187500.02, -187500.02, -180282.92, -187500.02, -187500.02, 0.000, 0.000, 0.000, 14:00:15.886
102, 68784.88, 16105.17, -187500.02, -187500.02, -187500.02, -180142.63, -187500.02, -187500.02, 0.000, 0.000, 0.000, 14:00:15.886
103, 70511.10, 17994.92, -187500.02, -187500.02, -187500.02, -180323.08, -187500.02, -187500.02, 0.000, 0.000, 0.000, 14:00:15.886
104, 69718.13, 17244.71, -187500.02, -187500.02, -187500.02, -180524.94, -187500.02, -187500.02, 0.000, 0.000, 0.000, 14:00:16.351
105, 66984.33, 14597.99, -187500.02, -187500.02, -187500.02, -180483.84, -187500.02, -187500.02, 0.000, 0.000, 0.000, 14:00:16.351
106, 65309.74, 12723.93, -187500.02, -187500.02, -187500.02, -180360.56, -187500.02, -187500.02, 0.000, 0.000, 0.000, 14:00:16.351
107, 68774.30, 16081.23, -187500.02, -187500.02, -187500.02, -180206.02, -187500.02, -187500.02, 0.000, 0.000, 0.000, 14:00:16.351
108, 70500.82, 17975.83, -187500.02, -187500.02, -187500.02, -180307.42, -187500.02, -187500.02, 0.004, -0.012, 1.028, 14:00:16.351
109, 69723.09, 17249.33, -187500.02, -187500.02, -187500.02, -180499.70, -187500.02, -187500.02, 0.000, 0.000, 0.000, 14:00:16.351
110, 67014.04, 14628.93, -187500.02, -187500.02, -187500.02, -180469.70, -187500.02, -187500.02, 0.000, 0.000, 0.000, 14:00:16.351
111, 65303.28, 12726.99, -187500.02, -187500.02, -187500.02, -180326.30, -187500.02, -187500.02, 0.000, 0.000, 0.000, 14:00:16.352
112, 68755.95, 16067.08, -187500.02, -187500.02, -187500.02, -180167.86, -187500.02, -187500.02, 0.000, 0.000, 0.000, 14:00:16.352
113, 70511.77, 17986.74, -187500.02, -187500.02, -187500.02, -180302.06, -187500.02, -187500.02, 0.000, 0.000, 0.000, 14:00:16.352
114, 69735.61, 17264.91, -187500.02, -187500.02, -187500.02, -180493.73, -187500.02, -187500.02, 0.000, 0.000, 0.000, 14:00:16.352
115, 67026.15, 14640.68, -187500.02, -187500.02, -187500.02, -180458.14, -187500.02, -187500.02, 0.000, 0.000, 0.000, 14:00:16.352
116, 65303.48, 12726.39, -187500.02, -187500.02, -187500.02, -180354.31, -187500.02, -187500.02, 0.000, 0.000, 0.000, 14:00:16.352
117, 68744.95, 16065.94, -187500.02, -187500.02, -187500.02, -180204.19, -187500.02, -187500.02, 0.000, 0.000, 0.000, 14:00:16.352
118, 70513.80, 17992.39, -187500.02, -187500.02, -187500.02, -180338.78, -187500.02, -187500.02, 0.004, -0.016, 1.026, 14:00:16.353
119, 69751.01, 17271.39, -187500.02, -187500.02, -187500.02, -180535.91, -187500.02, -187500.02, 0.000, 0.000, 0.000, 14:00:16.353
120, 67048.88, 14658.74, -187500.02, -187500.02, -187500.02, -180496.19, -187500.02, -187500.02, 0.000, 0.000, 0.000, 14:00:16.353
121, 65306.52, 12720.11, -187500.02, -187500.02, -187500.02, -180431.41, -187500.02, -187500.02, 0.000, 0.000, 0.000, 14:00:16.353
122, 68731.08, 16028.57, -187500.02, -187500.02, -187500.02, -180282.45, -187500.02, -187500.02, 0.000, 0.000, 0.000, 14:00:16.353
123, 70517.38, 17978.09, -187500.02, -187500.02, -187500.02, -180405.70, -187500.02, -187500.02, 0.000, 0.000, 0.000, 14:00:16.353
124, 69753.34, 17262.74, -187500.02, -187500.02, -187500.02, -180596.25, -187500.02, -187500.02, 0.000, 0.000, 0.000, 14:00:16.353
125, 67060.95, 14672.04, -187500.02, -187500.02, -187500.02, -180552.05, -187500.02, -187500.02, 0.000, 0.000, 0.000, 14:00:16.353
126, 65287.72, 12708.78, -187500.02, -187500.02, -187500.02, -180435.28, -187500.02, -187500.02, 0.000, 0.000, 0.000, 14:00:16.353
127, 68705.57, 16012.48, -187500.02, -187500.02, -187500.02, -180269.89, -187500.02, -187500.02, 0.000, 0.000, 0.000, 14:00:16.354
128, 70508.87, 17979.38, -187500.02, -187500.02, -187500.02, -180371.86, -187500.02, -187500.02, 0.006, -0.012, 1.024, 14:00:16.354
129, 69750.63, 17266.32, -187500.02, -187500.02, -187500.02, -180528.28, -187500.02, -187500.02, 0.000, 0.000, 0.000, 14:00:16.354
130, 67075.30, 14684.16, -187500.02, -187500.02, -187500.02, -180516.86, -187500.02, -187500.02, 0.000, 0.000, 0.000, 14:00:16.354
131, 65291.07, 12709.83, -187500.02, -187500.02, -187500.02, -180444.59, -187500.02, -187500.02, 0.000, 0.000, 0.000, 14:00:16.354
132, 68694.53, 16003.56, -187500.02, -187500.02, -187500.02, -180313.38, -187500.02, -187500.02, 0.000, 0.000, 0.000, 14:00:16.354
133, 70501.69, 17971.12, -187500.02, -187500.02, -187500.02, -180417.16, -187500.02, -187500.02, 0.000, 0.000, 0.000, 14:00:16.354
134, 69754.30, 17276.82, -187500.02, -187500.02, -187500.02, -180601.23, -187500.02, -187500.02, 0.000, 0.000, 0.000, 14:00:16.354
135, 67078.84, 14693.90, -187500.02, -187500.02, -187500.02, -180548.53, -187500.02, -187500.02, 0.000, 0.000, 0.000, 14:00:16.355
136, 65262.98, 12685.42, -187500.02, -187500.02, -187500.02, -180389.80, -187500.02, -187500.02, 0.000, 0.000, 0.000, 14:00:16.355
137, 68673.19, 15984.69, -187500.02, -187500.02, -187500.02, -180265.25, -187500.02, -187500.02, 0.000, 0.000, 0.000, 14:00:16.355
138, 70509.60, 17991.28, -187500.02, -187500.02, -187500.02, -180411.27, -187500.02, -187500.02, 0.014, -0.014, 1.022, 14:00:16.355
139, 69759.95, 17290.28, -187500.02, -187500.02, -187500.02, -180585.59, -187500.02, -187500.02, 0.000, 0.000, 0.000, 14:00:16.355
140, 67094.05, 14712.32, -187500.02, -187500.02, -187500.02, -180510.77, -187500.02, -187500.02, 0.000, 0.000, 0.000, 14:00:16.355
141, 65263.16, 12688.71, -187500.02, -187500.02, -187500.02, -180389.39, -187500.02, -187500.02, 0.000, 0.000, 0.000, 14:00:16.355
142, 68647.79, 15955.23, -187500.02, -187500.02, -187500.02, -180241.64, -187500.02, -187500.02, 0.000, 0.000, 0.000, 14:00:16.355
143, 70510.85, 17989.38, -187500.02, -187500.02, -187500.02, -180417.44, -187500.02, -187500.02, 0.000, 0.000, 0.000, 14:00:16.355
144, 69766.79, 17296.20, -187500.02, -187500.02, -187500.02, -180605.48, -187500.02, -187500.02, 0.000, 0.000, 0.000, 14:00:16.356
145, 67113.26, 14735.07, -187500.02, -187500.02, -187500.02, -180557.31, -187500.02, -187500.02, 0.000, 0.000, 0.000, 14:00:16.356
146, 65252.61, 12686.96, -187500.02, -187500.02, -187500.02, -180420.39, -187500.02, -187500.02, 0.000, 0.000, 0.000, 14:00:16.356
147, 68636.04, 15954.25, -187500.02, -187500.02, -187500.02, -180276.83, -187500.02, -187500.02, 0.014, -0.010, 1.032, 14:00:16.356
148, 70516.38, 18002.23, -187500.02, -187500.02, -187500.02, -180446.98, -187500.02, -187500.02, 0.000, 0.000, 0.000, 14:00:16.356
149, 69783.62, 17315.63, -187500.02, -187500.02, -187500.02, -180686.11, -187500.02, -187500.02, 0.000, 0.000, 0.000, 14:00:16.356
150, 67128.81, 14754.41, -187500.02, -187500.02, -187500.02, -180612.64, -187500.02, -187500.02, 0.000, 0.000, 0.000, 14:00:16.356
151, 65249.88, 12697.80, -187500.02, -187500.02, -187500.02, -180481.80, -187500.02, -187500.02, 0.000, 0.000, 0.000, 14:00:16.356
152, 68611.54, 15938.96, -187500.02, -187500.02, -187500.02, -180321.63, -187500.02, -187500.02, 0.000, 0.000, 0.000, 14:00:16.357
153, 70511.59, 18000.51, -187500.02, -187500.02, -187500.02, -180473.75, -187500.02, -187500.02, 0.000, 0.000, 0.000, 14:00:16.357
154, 69780.65, 17318.18, -187500.02, -187500.02, -187500.02, -180682.59, -187500.02, -187500.02, 0.000, 0.000, 0.000, 14:00:16.357
155, 67132.03, 14763.59, -187500.02, -187500.02, -187500.02, -180585.86, -187500.02, -187500.02, 0.000, 0.000, 0.000, 14:00:16.357
156, 65239.22, 12683.59, -187500.02, -187500.02, -187500.02, -180444.70, -187500.02, -187500.02, 0.000, 0.000, 0.000, 14:00:16.357
157, 68600.05, 15919.14, -187500.02, -187500.02, -187500.02, -180328.22, -187500.02, -187500.02, 0.010, -0.010, 1.026, 14:00:16.357
158, 70500.84, 17988.39, -187500.02, -187500.02, -187500.02, -180463.48, -187500.02, -187500.02, 0.000, 0.000, 0.000, 14:00:16.357
159, 69774.27, 17312.16, -187500.02, -187500.02, -187500.02, -180652.33, -187500.02, -187500.02, 0.000, 0.000, 0.000, 14:00:16.357
160, 67154.92, 14783.15, -187500.02, -187500.02, -187500.02, -180589.22, -187500.02, -187500.02, 0.000, 0.000, 0.000, 14:00:16.358
161, 65238.10, 12690.00, -187500.02, -187500.02, -187500.02, -180467.73, -187500.02, -187500.02, 0.000, 0.000, 0.000, 14:00:16.358
162, 68583.40, 15909.73, -187500.02, -187500.02, -187500.02, -180349.84, -187500.02, -187500.02, 0.000, 0.000, 0.000, 14:00:16.358
163, 70490.60, 17979.81, -187500.02, -187500.02, -187500.02, -180435.95, -187500.02, -187500.02, 0.000, 0.000, 0.000, 14:00:16.358
164, 69778.99, 17317.93, -187500.02, -187500.02, -187500.02, -180620.23, -187500.02, -187500.02, 0.000, 0.000, 0.000, 14:00:16.358
165, 67171.46, 14805.08, -187500.02, -187500.02, -187500.02, -180543.73, -187500.02, -187500.02, 0.000, 0.000, 0.000, 14:00:16.358
166, 65234.12, 12690.16, -187500.02, -187500.02, -187500.02, -180451.81, -187500.02, -187500.02, 0.000, 0.000, 0.000, 14:00:16.358
167, 68557.02, 15889.09, -187500.02, -187500.02, -187500.02, -180285.83, -187500.02, -187500.02, 0.012, -0.014, 1.026, 14:00:16.358
168, 70504.09, 18004.31, -187500.02, -187500.02, -187500.02, -180411.23, -187500.02, -187500.02, 0.000, 0.000, 0.000, 14:00:16.358
169, 69803.47, 17353.20, -187500.02, -187500.02, -187500.02, -180626.66, -187500.02, -187500.02, 0.000, 0.000, 0.000, 14:00:16.359
170, 67205.10, 14848.38, -187500.02, -187500.02, -187500.02, -180598.63, -187500.02, -187500.02, 0.000, 0.000, 0.000, 14:00:16.359
171, 65232.80, 12692.84, -187500.02, -187500.02, -187500.02, -180497.48, -187500.02, -187500.02, 0.000, 0.000, 0.000, 14:00:16.359
172, 68541.80, 15871.19, -187500.02, -187500.02, -187500.02, -180338.42, -187500.02, -187500.02, 0.000, 0.000, 0.000, 14:00:16.359
173, 70496.80, 17986.29, -187500.02, -187500.02, -187500.02, -180456.48, -187500.02, -187500.02, 0.000, 0.000, 0.000, 14:00:16.359
174, 69794.64, 17337.89, -187500.02, -187500.02, -187500.02, -180663.36, -187500.02, -187500.02, 0.000, 0.000, 0.000, 14:00:16.359
175, 67203.91, 14848.06, -187500.02, -187500.02, -187500.02, -180625.38, -187500.02, -187500.02, 0.000, 0.000, 0.000, 14:00:16.359
176, 65214.07, 12675.14, -187500.02, -187500.02, -187500.02, -180515.61, -187500.02, -187500.02, 0.000, 0.000, 0.000, 14:00:16.359
177, 68516.32, 15844.23, -187500.02, -187500.02, -187500.02, -180353.88, -187500.02, -187500.02, 0.008, -0.014, 1.034, 14:00:16.360
178, 70497.80, 17992.30, -187500.02, -187500.02, -187500.02, -180499.27, -187500.02, -187500.02, 0.000, 0.000, 0.000, 14:00:16.360
179, 69794.66, 17334.34, -187500.02, -187500.02, -187500.02, -180678.33, -187500.02, -187500.02, 0.000, 0.000, 0.000, 14:00:16.360
180, 67213.55, 14843.84, -187500.02, -187500.02, -187500.02, -180598.48, -187500.02, -187500.02, 0.000, 0.000, 0.000, 14:00:16.360
181, 65206.79, 12673.82, -187500.02, -187500.02, -187500.02, -180499.30, -187500.02, -187500.02, 0.000, 0.000, 0.000, 14:00:16.360
182, 68494.20, 15829.86, -187500.02, -187500.02, -187500.02, -180345.63, -187500.02, -187500.02, 0.000, 0.000, 0.000, 14:00:16.360
183, 70486.96, 17986.96, -187500.02, -187500.02, -187500.02, -180446.88, -187500.02, -187500.02, 0.000, 0.000, 0.000, 14:00:16.360
184, 69808.18, 17355.66, -187500.02, -187500.02, -187500.02, -180660.03, -187500.02, -187500.02, 0.000, 0.000, 0.000, 14:00:16.361
185, 67240.05, 14881.12, -187500.02, -187500.02, -187500.02, -180638.50, -187500.02, -187500.02, 0.000, 0.000, 0.000, 14:00:16.361
186, 65205.91, 12663.85, -187500.02, -187500.02, -187500.02, -180508.50, -187500.02, -187500.02, 0.000, 0.000, 0.000, 14:00:16.361
187, 68481.41, 15814.04, -187500.02, -187500.02, -187500.02, -180366.92, -187500.02, -187500.02, 0.012, -0.016, 1.022, 14:00:16.361
188, 70497.65, 17993.47, -187500.02, -187500.02, -187500.02, -180517.55, -187500.02, -187500.02, 0.000, 0.000, 0.000, 14:00:16.361
189, 69808.83, 17347.70, -187500.02, -187500.02, -187500.02, -180698.22, -187500.02, -187500.02, 0.000, 0.000, 0.000, 14:00:16.361
190, 67245.83, 14876.56, -187500.02, -187500.02, -187500.02, -180638.48, -187500.02, -187500.02, 0.000, 0.000, 0.000, 14:00:16.361
191, 65199.21, 12657.12, -187500.02, -187500.02, -187500.02, -180527.72, -187500.02, -187500.02, 0.000, 0.000, 0.000, 14:00:16.361
192, 68461.18, 15783.53, -187500.02, -187500.02, -187500.02, -180362.66, -187500.02, -187500.02, 0.000, 0.000, 0.000, 14:00:16.362
193, 70493.89, 17984.17, -187500.02, -187500.02, -187500.02, -180481.17, -187500.02, -187500.02, 0.000, 0.000, 0.000, 14:00:16.362
194, 69828.45, 17370.95, -187500.02, -187500.02, -187500.02, -180715.03, -187500.02, -187500.02, 0.000, 0.000, 0.000, 14:00:16.362
195, 67275.87, 14909.64, -187500.02, -187500.02, -187500.02, -180676.31, -187500.02, -187500.02, 0.000, 0.000, 0.000, 14:00:16.362
196, 65196.21, 12663.18, -187500.02, -187500.02, -187500.02, -180550.52, -187500.02, -187500.02, 0.000, 0.000, 0.000, 14:00:16.362
197, 68437.77, 15766.63, -187500.02, -187500.02, -187500.02, -180383.53, -187500.02, -187500.02, 0.014, -0.018, 1.028, 14:00:16.362
198, 70479.12, 17965.55, -187500.02, -187500.02, -187500.02, -180478.95, -187500.02, -187500.02, 0.000, 0.000, 0.000, 14:00:16.362
199, 69808.54, 17349.18, -187500.02, -187500.02, -187500.02, -180659.00, -187500.02, -187500.02, 0.000, 0.000, 0.000, 14:00:16.362
200, 67285.19, 14934.79, -187500.02, -187500.02, -187500.02, -180649.05, -187500.02, -187500.02, 0.000, 0.000, 0.000, 14:00:16.363
201, 65190.85, 12661.44, -187500.02, -187500.02, -187500.02, -180543.14, -187500.02, -187500.02, 0.000, 0.000, 0.000, 14:00:16.363
202, 68421.05, 15744.84, -187500.02, -187500.02, -187500.02, -180372.97, -187500.02, -187500.02, 0.000, 0.000, 0.000, 14:00:16.363
203, 70491.72, 17975.23, -187500.02, -187500.02, -187500.02, -180492.59, -187500.02, -187500.02, 0.000, 0.000, 0.000, 14:00:16.363
204, 69828.93, 17360.42, -187500.02, -187500.02, -187500.02, -180706.19, -187500.02, -187500.02, 0.000, 0.000, 0.000, 14:00:16.363
205, 67292.14, 14931.50, -187500.02, -187500.02, -187500.02, -180649.56, -187500.02, -187500.02, 0.000, 0.000, 0.000, 14:00:16.363
206, 65171.52, 12641.23, -187500.02, -187500.02, -187500.02, -180525.73, -187500.02, -187500.02, 0.000, 0.000, 0.000, 14:00:16.363
207, 68388.49, 15721.39, -187500.02, -187500.02, -187500.02, -180343.59, -187500.02, -187500.02, 0.012, -0.018, 1.028, 14:00:16.363
208, 70477.23, 17978.92, -187500.02, -187500.02, -187500.02, -180443.97, -187500.02, -187500.02, 0.000, 0.000, 0.000, 14:00:16.364
209, 69825.71, 17370.01, -187500.02, -187500.02, -187500.02, -180652.52, -187500.02, -187500.02, 0.000, 0.000, 0.000, 14:00:16.364
210, 67322.85, 14960.45, -187500.02, -187500.02, -187500.02, -180666.38, -187500.02, -187500.02, 0.000, 0.000, 0.000, 14:00:16.364
211, 65185.24, 12651.47, -187500.02, -187500.02, -187500.02, -180567.27, -187500.02, -187500.02, 0.000, 0.000, 0.000, 14:00:16.364
212, 68376.64, 15705.43, -187500.02, -187500.02, -187500.02, -180417.69, -187500.02, -187500.02, 0.000, 0.000, 0.000, 14:00:16.364
213, 70471.34, 17967.47, -187500.02, -187500.02, -187500.02, -180503.00, -187500.02, -187500.02, 0.000, 0.000, 0.000, 14:00:16.364
214, 69824.10, 17377.92, -187500.02, -187500.02, -187500.02, -180701.58, -187500.02, -187500.02, 0.000, 0.000, 0.000, 14:00:16.364
215, 67326.18, 14967.69, -187500.02, -187500.02, -187500.02, -180663.09, -187500.02, -187500.02, 0.000, 0.000, 0.000, 14:00:16.365
216, 65183.74, 12665.88, -187500.02, -187500.02, -187500.02, -180584.66, -187500.02, -187500.02, 0.000, 0.000, 0.000, 14:00:16.365
217, 68368.35, 15710.46, -187500.02, -187500.02, -187500.02, -180420.97, -187500.02, -187500.02, 0.010, -0.018, 1.028, 14:00:16.365
218, 70491.14, 17990.56, -187500.02, -187500.02, -187500.02, -180556.69, -187500.02, -187500.02, 0.000, 0.000, 0.000, 14:00:16.365
219, 69843.52, 17398.29, -187500.02, -187500.02, -187500.02, -180765.64, -187500.02, -187500.02, 0.000, 0.000, 0.000, 14:00:16.365
220, 67346.56, 14994.85, -187500.02, -187500.02, -187500.02, -180702.52, -187500.02, -187500.02, 0.000, 0.000, 0.000, 14:00:16.365
221, 65182.45, 12663.67, -187500.02, -187500.02, -187500.02, -180632.91, -187500.02, -187500.02, 0.000, 0.000, 0.000, 14:00:16.365
222, 68343.43, 15680.17, -187500.02, -187500.02, -187500.02, -180479.47, -187500.02, -187500.02, 0.000, 0.000, 0.000, 14:00:16.365
223, 70476.03, 17962.44, -187500.02, -187500.02, -187500.02, -180571.05, -187500.02, -187500.02, 0.000, 0.000, 0.000, 14:00:16.366
224, 69830.71, 17380.94, -187500.02, -187500.02, -187500.02, -180748.66, -187500.02, -187500.02, 0.000, 0.000, 0.000, 14:00:16.831
225, 67351.64, 15009.08, -187500.02, -187500.02, -187500.02, -180714.16, -187500.02, -187500.02, 0.000, 0.000, 0.000, 14:00:16.831
226, 65161.99, 12654.69, -187500.02, -187500.02, -187500.02, -180630.47, -187500.02, -187500.02, 0.000, 0.000, 0.000, 14:00:16.831
227, 68319.05, 15661.44, -187500.02, -187500.02, -187500.02, -180472.27, -187500.02, -187500.02, 0.008, -0.014, 1.022, 14:00:16.831
228, 70470.47, 17970.44, -187500.02, -187500.02, -187500.02, -180573.17, -187500.02, -187500.02, 0.000, 0.000, 0.000, 14:00:16.831
229, 69835.14, 17385.19, -187500.02, -187500.02, -187500.02, -180764.23, -187500.02, -187500.02, 0.000, 0.000, 0.000, 14:00:16.831
230, 67365.85, 15007.34, -187500.02, -187500.02, -187500.02, -180710.20, -187500.02, -187500.02, 0.000, 0.000, 0.000, 14:00:16.832
231, 65155.40, 12628.33, -187500.02, -187500.02, -187500.02, -180580.97, -187500.02, -187500.02, 0.000, 0.000, 0.000, 14:00:16.832
232, 68309.95, 15650.53, -187500.02, -187500.02, -187500.02, -180454.77, -187500.02, -187500.02, 0.000, 0.000, 0.000, 14:00:16.832
233, 70474.63, 17982.36, -187500.02, -187500.02, -187500.02, -180557.52, -187500.02, -187500.02, 0.000, 0.000, 0.000, 14:00:16.832
234, 69849.18, 17401.71, -187500.02, -187500.02, -187500.02, -180757.08, -187500.02, -187500.02, 0.000, 0.000, 0.000, 14:00:16.832
235, 67390.80, 15035.86, -187500.02, -187500.02, -187500.02, -180701.23, -187500.02, -187500.02, 0.000, 0.000, 0.000, 14:00:16.832
236, 65160.99, 12641.57, -187500.02, -187500.02, -187500.02, -180577.55, -187500.02, -187500.02, 0.000, 0.000, 0.000, 14:00:16.832
237, 68293.18, 15622.59, -187500.02, -187500.02, -187500.02, -180436.53, -187500.02, -187500.02, 0.004, -0.012, 1.030, 14:00:16.832
238, 70480.84, 17970.22, -187500.02, -187500.02, -187500.02, -180561.45, -187500.02, -187500.02, 0.000, 0.000, 0.000, 14:00:16.832
239, 69852.62, 17405.46, -187500.02, -187500.02, -187500.02, -180750.03, -187500.02, -187500.02, 0.000, 0.000, 0.000, 14:00:16.833
240, 67404.73, 15048.33, -187500.02, -187500.02, -187500.02, -180693.70, -187500.02, -187500.02, 0.000, 0.000, 0.000, 14:00:16.833
241, 65158.20, 12644.67, -187500.02, -187500.02, -187500.02, -180589.50, -187500.02, -187500.02, 0.000, 0.000, 0.000, 14:00:16.833
242, 68274.43, 15612.00, -187500.02, -187500.02, -187500.02, -180454.45, -187500.02, -187500.02, 0.000, 0.000, 0.000, 14:00:16.833
243, 70483.09, 17981.62, -187500.02, -187500.02, -187500.02, -180562.86, -187500.02, -187500.02, 0.000, 0.000, 0.000, 14:00:16.833
244, 69878.46, 17432.10, -187500.02, -187500.02, -187500.02, -180775.58, -187500.02, -187500.02, 0.000, 0.000, 0.000, 14:00:16.833
245, 67442.12, 15083.49, -187500.02, -187500.02, -187500.02, -180758.39, -187500.02, -187500.02, 0.000, 0.000, 0.000, 14:00:16.833
246, 65164.41, 12650.64, -187500.02, -187500.02, -187500.02, -180641.11, -187500.02, -187500.02, 0.000, 0.000, 0.000, 14:00:16.833
247, 68255.27, 15589.11, -187500.02, -187500.02, -187500.02, -180479.28, -187500.02, -187500.02, 0.004, -0.014, 1.022, 14:00:16.834
248, 70485.69, 17980.21, -187500.02, -187500.02, -187500.02, -180621.22, -187500.02, -187500.02, 0.000, 0.000, 0.000, 14:00:16.834
249, 69873.92, 17424.10, -187500.02, -187500.02, -187500.02, -180816.44, -187500.02, -187500.02, 0.000, 0.000, 0.000, 14:00:16.834
250, 67444.80, 15091.09, -187500.02, -187500.02, -187500.02, -180757.64, -187500.02, -187500.02, 0.000, 0.000, 0.000, 14:00:16.834
251, 65156.65, 12649.48, -187500.02, -187500.02, -187500.02, -180659.91, -187500.02, -187500.02, 0.000, 0.000, 0.000, 14:00:16.834
252, 68233.62, 15570.87, -187500.02, -187500.02, -187500.02, -180495.36, -187500.02, -187500.02, 0.000, 0.000, 0.000, 14:00:16.834
253, 70478.45, 17974.83, -187500.02, -187500.02, -187500.02, -180605.33, -187500.02, -187500.02, 0.000, 0.000, 0.000, 14:00:16.834
254, 69886.21, 17437.33, -187500.02, -187500.02, -187500.02, -180822.56, -187500.02, -187500.02, 0.000, 0.000, 0.000, 14:00:16.834
255, 67469.61, 15111.19, -187500.02, -187500.02, -187500.02, -180797.42, -187500.02, -187500.02, 0.000, 0.000, 0.000, 14:00:16.835
0, 65157.08, 12649.43, -187500.02, -187500.02, -187500.02, -180678.33, -187500.02, -187500.02, 0.000, 0.000, 0.000, 14:00:16.835
1, 68219.24, 15562.94, -187500.02, -187500.02, -187500.02, -180521.11, -187500.02, -187500.02, 0.008, -0.020, 1.020, 14:00:16.835
2, 70469.44, 17973.86, -187500.02, -187500.02, -187500.02, -180609.67, -187500.02, -187500.02, 0.000, 0.000, 0.000, 14:00:16.835
3, 69873.88, 17432.62, -187500.02, -187500.02, -187500.02, -180806.25, -187500.02, -187500.02, 0.000, 0.000, 0.000, 14:00:16.835
4, 67462.16, 15116.55, -187500.02, -187500.02, -187500.02, -180740.98, -187500.02, -187500.02, 0.000, 0.000, 0.000, 14:00:16.835
5, 65132.02, 12633.85, -187500.02, -187500.02, -187500.02, -180584.03, -187500.02, -187500.02, 0.000, 0.000, 0.000, 14:00:16.835
6, 68190.12, 15526.55, -187500.02, -187500.02, -187500.02, -180431.67, -187500.02, -187500.02, 0.000, 0.000, 0.000, 14:00:16.835
7, 70481.51, 17982.22, -187500.02, -187500.02, -187500.02, -180587.31, -187500.02, -187500.02, 0.000, 0.000, 0.000, 14:00:16.835
8, 69906.77, 17463.39, -187500.02, -187500.02, -187500.02, -180851.41, -187500.02, -187500.02, 0.000, 0.000, 0.000, 14:00:16.836
9, 67507.27, 15155.80, -187500.02, -187500.02, -187500.02, -180839.55, -187500.02, -187500.02, 0.000, 0.000, 0.000, 14:00:16.836
10, 65148.00, 12650.10, -187500.02, -187500.02, -187500.02, -180690.98, -187500.02, -187500.02, 0.008, -0.022, 1.026, 14:00:16.836
11, 68180.69, 15517.99, -187500.02, -187500.02, -187500.02, -180492.13, -187500.02, -187500.02, 0.000, 0.000, 0.000, 14:00:16.836
12, 70491.63, 17987.90, -187500.02, -187500.02, -187500.02, -180642.59, -187500.02, -187500.02, 0.000, 0.000, 0.000, 14:00:16.836
13, 69906.38, 17461.43, -187500.02, -187500.02, -187500.02, -180861.09, -187500.02, -187500.02, 0.000, 0.000, 0.000, 14:00:16.836
14, 67519.84, 15176.95, -187500.02, -187500.02, -187500.02, -180833.30, -187500.02, -187500.02, 0.000, 0.000, 0.000, 14:00:16.836
15, 65152.18, 12658.02, -187500.02, -187500.02, -187500.02, -180709.91, -187500.02, -187500.02, 0.000, 0.000, 0.000, 14:00:16.836
16, 68161.30, 15500.02, -187500.02, -187500.02, -187500.02, -180537.30, -187500.02, -187500.02, 0.000, 0.000, 0.000, 14:00:16.837
17, 70467.41, 17964.12, -187500.02, -187500.02, -187500.02, -180606.81, -187500.02, -187500.02, 0.000, 0.000, 0.000, 14:00:16.837
18, 69900.45, 17450.43, -187500.02, -187500.02, -187500.02, -180798.72, -187500.02, -187500.02, 0.000, 0.000, 0.000, 14:00:16.837
19, 67536.02, 15181.89, -187500.02, -187500.02, -187500.02, -180759.83, -187500.02, -187500.02, 0.000, 0.000, 0.000, 14:00:16.837
20, 65157.77, 12654.42, -187500.02, -187500.02, -187500.02, -180655.47, -187500.02, -187500.02, 0.000, -0.014, 1.028, 14:00:16.837
21, 68153.30, 15483.30, -187500.02, -187500.02, -187500.02, -180526.11, -187500.02, -187500.02, 0.000, 0.000, 0.000, 14:00:16.837
22, 70470.02, 17970.13, -187500.02, -187500.02, -187500.02, -180585.69, -187500.02, -187500.02, 0.000, 0.000, 0.000, 14:00:16.837
23, 69912.03, 17469.47, -187500.02, -187500.02, -187500.02, -180788.13, -187500.02, -187500.02, 0.000, 0.000, 0.000, 14:00:16.837
24, 67559.15, 15207.43, -187500.02, -187500.02, -187500.02, -180788.66, -187500.02, -187500.02, 0.000, 0.000, 0.000, 14:00:16.838
25, 65159.33, 12660.00, -187500.02, -187500.02, -187500.02, -180695.00, -187500.02, -187500.02, 0.000, 0.000, 0.000, 14:00:16.838
26, 68127.84, 15459.47, -187500.02, -187500.02, -187500.02, -180522.78, -187500.02, -187500.02, 0.000, 0.000, 0.000, 14:00:16.838
27, 70474.24, 17962.08, -187500.02, -187500.02, -187500.02, -180610.16, -187500.02, -187500.02, 0.000, 0.000, 0.000, 14:00:16.838
28, 69929.46, 17476.29, -187500.02, -187500.02, -187500.02, -180827.38, -187500.02, -187500.02, 0.000, 0.000, 0.000, 14:00:16.838
29, 67579.29, 15229.09, -187500.02, -187500.02, -187500.02, -180779.66, -187500.02, -187500.02, 0.000, 0.000, 0.000, 14:00:16.838
30, 65164.86, 12666.51, -187500.02, -187500.02, -187500.02, -180678.58, -187500.02, -187500.02, 0.006, -0.008, 1.032, 14:00:16.838
31, 68124.49, 15457.48, -187500.02, -187500.02, -187500.02, -180506.20, -187500.02, -187500.02, 0.000, 0.000, 0.000, 14:00:16.838
32, 70487.23, 17990.99, -187500.02, -187500.02, -187500.02, -180585.59, -187500.02, -187500.02, 0.000, 0.000, 0.000, 14:00:16.838
33, 69942.80, 17506.02, -187500.02, -187500.02, -187500.02, -180820.58, -187500.02, -187500.02, 0.000, 0.000, 0.000, 14:00:16.839
34, 67602.24, 15254.95, -187500.02, -187500.02, -187500.02, -180812.80, -187500.02, -187500.02, 0.000, 0.000, 0.000, 14:00:16.839
35, 65171.43, 12679.99, -187500.02, -187500.02, -187500.02, -180746.81, -187500.02, -187500.02, 0.000, 0.000, 0.000, 14:00:16.839
36, 68105.45, 15440.72, -187500.02, -187500.02, -187500.02, -180612.61, -187500.02, -187500.02, 0.000, 0.000, 0.000, 14:00:16.839
37, 70476.08, 17977.75, -187500.02, -187500.02, -187500.02, -180678.95, -187500.02, -187500.02, 0.000, 0.000, 0.000, 14:00:16.839
38, 69927.77, 17486.95, -187500.02, -187500.02, -187500.02, -180865.30, -187500.02, -187500.02, 0.000, 0.000, 0.000, 14:00:16.839
39, 67601.93, 15254.86, -187500.02, -187500.02, -187500.02, -180845.86, -187500.02, -187500.02, 0.000, 0.000, 0.000, 14:00:16.839
40, 65154.28, 12671.90, -187500.02, -187500.02, -187500.02, -180763.64, -187500.02, -187500.02, 0.006, -0.008, 1.020, 14:00:16.839
41, 68067.16, 15415.35, -187500.02, -187500.02, -187500.02, -180600.25, -187500.02, -187500.02, 0.000, 0.000, 0.000, 14:00:16.840
42, 70453.19, 17954.89, -187500.02, -187500.02, -187500.02, -180644.67, -187500.02, -187500.02, 0.000, 0.000, 0.000, 14:00:16.840
43, 69927.48, 17477.21, -187500.02, -187500.02, -187500.02, -180848.50, -187500.02, -187500.02, 0.000, 0.000, 0.000, 14:00:16.840
44, 67624.82, 15279.32, -187500.02, -187500.02, -187500.02, -180849.34, -187500.02, -187500.02, 0.000, 0.000, 0.000, 14:00:16.840
45, 65146.04, 12662.46, -187500.02, -187500.02, -187500.02, -180722.98, -187500.02, -187500.02, 0.000, 0.000, 0.000, 14:00:16.840
46, 68044.09, 15387.12, -187500.02, -187500.02, -187500.02, -180553.97, -187500.02, -187500.02, 0.000, 0.000, 0.000, 14:00:16.840
47, 70460.52, 17965.39, -187500.02, -187500.02, -187500.02, -180635.77, -187500.02, -187500.02, 0.000, 0.000, 0.000, 14:00:16.840
48, 69930.94, 17496.86, -187500.02, -187500.02, -187500.02, -180859.16, -187500.02, -187500.02, 0.000, 0.000, 0.000, 14:00:16.841
49, 67624.17, 15286.71, -187500.02, -187500.02, -187500.02, -180815.48, -187500.02, -187500.02, 0.000, 0.000, 0.000, 14:00:16.841
50, 65129.43, 12661.15, -187500.02, -187500.02, -187500.02, -180699.08, -187500.02, -187500.02, 0.000, -0.006, 1.024, 14:00:16.841
51, 68011.86, 15365.35, -187500.02, -187500.02, -187500.02, -180517.31, -187500.02, -187500.02, 0.000, 0.000, 0.000, 14:00:16.841
52, 70451.00, 17958.82, -187500.02, -187500.02, -187500.02, -180628.59, -187500.02, -187500.02, 0.000, 0.000, 0.000, 14:00:16.841
53, 69932.05, 17501.88, -187500.02, -187500.02, -187500.02, -180844.53, -187500.02, -187500.02, 0.000, 0.000, 0.000, 14:00:16.841
54, 67645.07, 15310.97, -187500.02, -187500.02, -187500.02, -180838.34, -187500.02, -187500.02, 0.000, 0.000, 0.000, 14:00:16.841
55, 65131.84, 12664.74, -187500.02, -187500.02, -187500.02, -180699.41, -187500.02, -187500.02, 0.000, 0.000, 0.000, 14:00:16.841
56, 67995.91, 15352.99, -187500.02, -187500.02, -187500.02, -180530.11, -187500.02, -187500.02, 0.000, 0.000, 0.000, 14:00:16.842
57, 70459.24, 17971.54, -187500.02, -187500.02, -187500.02, -180653.55, -187500.02, -187500.02, 0.000, 0.000, 0.000, 14:00:16.842
58, 69949.91, 17519.59, -187500.02, -187500.02, -187500.02, -180888.33, -187500.02, -187500.02, 0.000, 0.000, 0.000, 14:00:16.842
59, 67671.06, 15334.68, -187500.02, -187500.02, -187500.02, -180892.84, -187500.02, -187500.02, 0.000, 0.000, 0.000, 14:00:16.842
60, 65143.22, 12668.70, -187500.02, -187500.02, -187500.02, -180786.20, -187500.02, -187500.02, 0.006, -0.008, 1.024, 14:00:16.842
61, 67978.02, 15322.52, -187500.02, -187500.02, -187500.02, -180589.03, -187500.02, -187500.02, 0.000, 0.000, 0.000, 14:00:16.842
62, 70449.66, 17956.65, -187500.02, -187500.02, -187500.02, -180671.27, -187500.02, -187500.02, 0.000, 0.000, 0.000, 14:00:16.842
63, 69947.28, 17518.76, -187500.02, -187500.02, -187500.02, -180905.22, -187500.02, -187500.02, 0.000, 0.000, 0.000, 14:00:16.842
64, 67675.70, 15338.12, -187500.02, -187500.02, -187500.02, -180862.64, -187500.02, -187500.02, 0.000, 0.000, 0.000, 14:00:16.843
65, 65134.52, 12662.44, -187500.02, -187500.02, -187500.02, -180744.63, -187500.02, -187500.02, 0.000, 0.000, 0.000, 14:00:16.843
66, 67959.72, 15307.46, -187500.02, -187500.02, -187500.02, -180585.81, -187500.02, -187500.02, 0.000, 0.000, 0.000, 14:00:16.843
67, 70447.64, 17954.13, -187500.02, -187500.02, -187500.02, -180687.66, -187500.02, -187500.02, 0.000, 0.000, 0.000, 14:00:16.843
68, 69948.02, 17519.81, -187500.02, -187500.02, -187500.02, -180894.66, -187500.02, -187500.02, 0.000, 0.000, 0.000, 14:00:16.843
69, 67691.97, 15361.19, -187500.02, -187500.02, -187500.02, -180866.72, -187500.02, -187500.02, 0.000, 0.000, 0.000, 14:00:16.843
70, 65130.52, 12664.12, -187500.02, -187500.02, -187500.02, -180732.11, -187500.02, -187500.02, 0.008, -0.016, 1.016, 14:00:16.843
71, 67931.53, 15283.63, -187500.02, -187500.02, -187500.02, -180538.56, -187500.02, -187500.02, 0.000, 0.000, 0.000, 14:00:16.843
72, 70440.83, 17952.09, -187500.02, -187500.02, -187500.02, -180604.41, -187500.02, -187500.02, 0.000, 0.000, 0.000, 14:00:16.844
73, 69951.23, 17528.84, -187500.02, -187500.02, -187500.02, -180809.45, -187500.02, -187500.02, 0.000, 0.000, 0.000, 14:00:16.844
74, 67706.43, 15371.63, -187500.02, -187500.02, -187500.02, -180798.20, -187500.02, -187500.02, 0.000, 0.000, 0.000, 14:00:16.844
75, 65134.16, 12667.60, -187500.02, -187500.02, -187500.02, -180729.92, -187500.02, -187500.02, 0.000, 0.000, 0.000, 14:00:16.844
76, 67910.70, 15266.69, -187500.02, -187500.02, -187500.02, -180560.45, -187500.02, -187500.02, 0.000, 0.000, 0.000, 14:00:16.844
77, 70433.88, 17950.22, -187500.02, -187500.02, -187500.02, -180609.70, -187500.02, -187500.02, 0.000, 0.000, 0.000, 14:00:16.844
78, 69963.84, 17537.16, -187500.02, -187500.02, -187500.02, -180846.13, -187500.02, -187500.02, 0.000, 0.000, 0.000, 14:00:16.844
79, 67733.92, 15399.41, -187500.02, -187500.02, -187500.02, -180864.81, -187500.02, -187500.02, 0.000, 0.000, 0.000, 14:00:16.844
80, 65135.33, 12676.86, -187500.02, -187500.02, -187500.02, -180765.48, -187500.02, -187500.02, 0.006, -0.014, 1.020, 14:00:16.845
81, 67891.43, 15250.06, -187500.02, -187500.02, -187500.02, -180615.92, -187500.02, -187500.02, 0.000, 0.000, 0.000, 14:00:16.845
82, 70421.56, 17932.45, -187500.02, -187500.02, -187500.02, -180654.08, -187500.02, -187500.02, 0.000, 0.000, 0.000, 14:00:16.845
83, 69960.80, 17529.42, -187500.02, -187500.02, -187500.02, -180893.44, -187500.02, -187500.02, 0.000, 0.000, 0.000, 14:00:16.845
84, 67735.87, 15391.68, -187500.02, -187500.02, -187500.02, -180869.84, -187500.02, -187500.02, 0.000, 0.000, 0.000, 14:00:16.845
85, 65132.78, 12668.92, -187500.02, -187500.02, -187500.02, -180768.55, -187500.02, -187500.02, 0.000, 0.000, 0.000, 14:00:16.845
86, 67877.04, 15229.20, -187500.02, -187500.02, -187500.02, -180643.19, -187500.02, -187500.02, 0.000, 0.000, 0.000, 14:00:16.845
87, 70424.02, 17931.46, -187500.02, -187500.02, -187500.02, -180700.25, -187500.02, -187500.02, 0.000, 0.000, 0.000, 14:00:16.845
88, 69953.38, 17535.93, -187500.02, -187500.02, -187500.02, -180890.22, -187500.02, -187500.02, 0.000, 0.000, 0.000, 14:00:16.846
89, 67751.47, 15423.31, -187500.02, -187500.02, -187500.02, -180892.14, -187500.02, -187500.02, 0.000, 0.000, 0.000, 14:00:17.311
90, 65118.88, 12672.41, -187500.02, -187500.02, -187500.02, -180765.39, -187500.02, -187500.02, 0.004, -0.012, 1.026, 14:00:17.312
91, 67846.69, 15206.90, -187500.02, -187500.02, -187500.02, -180597.08, -187500.02, -187500.02, 0.000, 0.000, 0.000, 14:00:17.312
92, 70420.38, 17929.47, -187500.02, -187500.02, -187500.02, -180673.48, -187500.02, -187500.02, 0.000, 0.000, 0.000, 14:00:17.312
93, 69963.26, 17535.93, -187500.02, -187500.02, -187500.02, -180897.06, -187500.02, -187500.02, 0.000, 0.000, 0.000, 14:00:17.312
94, 67759.45, 15427.93, -187500.02, -187500.02, -187500.02, -180844.58, -187500.02, -187500.02, 0.000, 0.000, 0.000, 14:00:17.312
95, 65121.71, 12674.60, -187500.02, -187500.02, -187500.02, -180721.20, -187500.02, -187500.02, 0.000, 0.000, 0.000, 14:00:17.312
96, 67818.92, 15192.12, -187500.02, -187500.02, -187500.02, -180562.64, -187500.02, -187500.02, 0.000, 0.000, 0.000, 14:00:17.312
97, 70411.19, 17929.50, -187500.02, -187500.02, -187500.02, -180634.25, -187500.02, -187500.02, 0.000, 0.000, 0.000, 14:00:17.312
98, 69966.30, 17553.79, -187500.02, -187500.02, -187500.02, -180885.23, -187500.02, -187500.02, 0.000, 0.000, 0.000, 14:00:17.313
99, 67775.77, 15454.91, -187500.02, -187500.02, -187500.02, -180874.83, -187500.02, -187500.02, 0.000, 0.000, 0.000, 14:00:17.313
100, 65120.82, 12680.50, -187500.02, -187500.02, -187500.02, -180783.92, -187500.02, -187500.02, 0.006, -0.014, 1.032, 14:00:17.313
101, 67791.85, 15161.21, -187500.02, -187500.02, -187500.02, -180568.03, -187500.02, -187500.02, 0.000, 0.000, 0.000, 14:00:17.313
102, 70407.08, 17922.88, -187500.02, -187500.02, -187500.02, -180618.83, -187500.02, -187500.02, 0.000, 0.000, 0.000, 14:00:17.313
103, 69979.13, 17561.23, -187500.02, -187500.02, -187500.02, -180867.58, -187500.02, -187500.02, 0.000, 0.000, 0.000, 14:00:17.313
104, 67808.55, 15490.85, -187500.02, -187500.02, -187500.02, -180925.67, -187500.02, -187500.02, 0.000, 0.000, 0.000, 14:00:17.313
105, 65124.15, 12690.25, -187500.02, -187500.02, -187500.02, -180821.00, -187500.02, -187500.02, 0.000, 0.000, 0.000, 14:00:17.313
106, 67774.47, 15146.30, -187500.02, -187500.02, -187500.02, -180628.75, -187500.02, -187500.02, 0.000, 0.000, 0.000, 14:00:17.313
107, 70400.75, 17915.55, -187500.02, -187500.02, -187500.02, -180709.69, -187500.02, -187500.02, 0.000, 0.000, 0.000, 14:00:17.314
108, 69964.04, 17544.91, -187500.02, -187500.02, -187500.02, -180923.19, -187500.02, -187500.02, 0.000, 0.000, 0.000, 14:00:17.314
109, 67793.22, 15473.17, -187500.02, -187500.02, -187500.02, -180875.73, -187500.02, -187500.02, 0.000, 0.000, 0.000, 14:00:17.314
110, 65114.79, 12685.67, -187500.02, -187500.02, -187500.02, -180756.03, -187500.02, -187500.02, 0.006, -0.014, 1.034, 14:00:17.314
111, 67764.16, 15136.71, -187500.02, -187500.02, -187500.02, -180628.13, -187500.02, -187500.02, 0.000, 0.000, 0.000, 14:00:17.314
112, 70392.55, 17912.04, -187500.02, -187500.02, -187500.02, -180664.98, -187500.02, -187500.02, 0.000, 0.000, 0.000, 14:00:17.314
113, 69977.30, 17569.61, -187500.02, -187500.02, -187500.02, -180927.84, -187500.02, -187500.02, 0.000, 0.000, 0.000, 14:00:17.314
114, 67810.07, 15492.35, -187500.02, -187500.02, -187500.02, -180897.89, -187500.02, -187500.02, 0.000, 0.000, 0.000, 14:00:17.314
115, 65109.58, 12674.02, -187500.02, -187500.02, -187500.02, -180760.27, -187500.02, -187500.02, 0.000, 0.000, 0.000, 14:00:17.315
116, 67736.22, 15105.73, -187500.02, -187500.02, -187500.02, -180631.91, -187500.02, -187500.02, 0.000, 0.000, 0.000, 14:00:17.315
117, 70383.88, 17904.44, -187500.02, -187500.02, -187500.02, -180663.13, -187500.02, -187500.02, 0.000, 0.000, 0.000, 14:00:17.315
118, 69968.29, 17564.98, -187500.02, -187500.02, -187500.02, -180892.45, -187500.02, -187500.02, 0.000, 0.000, 0.000, 14:00:17.315
119, 67820.06, 15509.96, -187500.02, -187500.02, -187500.02, -180863.22, -187500.02, -187500.02, 0.000, 0.000, 0.000, 14:00:17.315
120, 65109.20, 12683.97, -187500.02, -187500.02, -187500.02, -180756.42, -187500.02, -187500.02, 0.006, -0.012, 1.030, 14:00:17.315
121, 67710.56, 15083.54, -187500.02, -187500.02, -187500.02, -180611.41, -187500.02, -187500.02, 0.000, 0.000, 0.000, 14:00:17.315
122, 70379.31, 17905.06, -187500.02, -187500.02, -187500.02, -180669.80, -187500.02, -187500.02, 0.000, 0.000, 0.000, 14:00:17.315
123, 69964.34, 17555.02, -187500.02, -187500.02, -187500.02, -180875.56, -187500.02, -187500.02, 0.000, 0.000, 0.000, 14:00:17.316
124, 67839.02, 15526.15, -187500.02, -187500.02, -187500.02, -180874.09, -187500.02, -187500.02, 0.000, 0.000, 0.000, 14:00:17.316
125, 65115.52, 12697.98, -187500.02, -187500.02, -187500.02, -180775.78, -187500.02, -187500.02, 0.000, 0.000, 0.000, 14:00:17.316
126, 67691.02, 15068.76, -187500.02, -187500.02, -187500.02, -180622.23, -187500.02, -187500.02, 0.000, 0.000, 0.000, 14:00:17.316
127, 70376.32, 17906.18, -187500.02, -187500.02, -187500.02, -180638.50, -187500.02, -187500.02, 0.000, 0.000, 0.000, 14:00:17.316
128, 69994.95, 17588.83, -187500.02, -187500.02, -187500.02, -180897.33, -187500.02, -187500.02, 0.000, 0.000, 0.000, 14:00:17.316
129, 67885.20, 15569.93, -187500.02, -187500.02, -187500.02, -180938.86, -187500.02, -187500.02, 0.006, -0.014, 1.034, 14:00:17.316
130, 65135.71, 12710.43, -187500.02, -187500.02, -187500.02, -180840.06, -187500.02, -187500.02, 0.000, 0.000, 0.000, 14:00:17.316
131, 67682.71, 15061.32, -187500.02, -187500.02, -187500.02, -180682.75, -187500.02, -187500.02, 0.000, 0.000, 0.000, 14:00:17.316
132, 70379.85, 17914.25, -187500.02, -187500.02, -187500.02, -180720.31, -187500.02, -187500.02, 0.000, 0.000, 0.000, 14:00:17.317
133, 69985.74, 17593.19, -187500.02, -187500.02, -187500.02, -180942.55, -187500.02, -187500.02, 0.000, 0.000, 0.000, 14:00:17.317
134, 67872.77, 15565.98, -187500.02, -187500.02, -187500.02, -180906.88, -187500.02, -187500.02, 0.000, 0.000, 0.000, 14:00:17.317
135, 65120.33, 12706.23, -187500.02, -187500.02, -187500.02, -180795.30, -187500.02, -187500.02, 0.000, 0.000, 0.000, 14:00:17.317
136, 67660.49, 15049.97, -187500.02, -187500.02, -187500.02, -180642.95, -187500.02, -187500.02, 0.000, 0.000, 0.000, 14:00:17.317
137, 70386.73, 17914.90, -187500.02, -187500.02, -187500.02, -180693.06, -187500.02, -187500.02, 0.000, 0.000, 0.000, 14:00:17.317
138, 70009.38, 17606.92, -187500.02, -187500.02, -187500.02, -180939.09, -187500.02, -187500.02, 0.000, 0.000, 0.000, 14:00:17.317
139, 67909.02, 15607.84, -187500.02, -187500.02, -187500.02, -180933.50, -187500.02, -187500.02, 0.004, -0.012, 1.034, 14:00:17.317
140, 65134.05, 12730.46, -187500.02, -187500.02, -187500.02, -180804.63, -187500.02, -187500.02, 0.000, 0.000, 0.000, 14:00:17.318
141, 67649.77, 15046.84, -187500.02, -187500.02, -187500.02, -180660.25, -187500.02, -187500.02, 0.000, 0.000, 0.000, 14:00:17.318
142, 70382.02, 17920.20, -187500.02, -187500.02, -187500.02, -180696.66, -187500.02, -187500.02, 0.000, 0.000, 0.000, 14:00:17.318
143, 70014.20, 17617.71, -187500.02, -187500.02, -187500.02, -180954.11, -187500.02, -187500.02, 0.000, 0.000, 0.000, 14:00:17.318
144, 67925.61, 15618.55, -187500.02, -187500.02, -187500.02, -180955.06, -187500.02, -187500.02, 0.000, 0.000, 0.000, 14:00:17.318
145, 65140.49, 12737.01, -187500.02, -187500.02, -187500.02, -180849.92, -187500.02, -187500.02, 0.000, 0.000, 0.000, 14:00:17.318
146, 67630.77, 15029.69, -187500.02, -187500.02, -187500.02, -180685.95, -187500.02, -187500.02, 0.000, 0.000, 0.000, 14:00:17.318
147, 70386.09, 17929.45, -187500.02, -187500.02, -187500.02, -180739.16, -187500.02, -187500.02, 0.000, 0.000, 0.000, 14:00:17.318
148, 70012.08, 17621.64, -187500.02, -187500.02, -187500.02, -180946.78, -187500.02, -187500.02, 0.000, 0.000, 0.000, 14:00:17.319
149, 67939.40, 15627.42, -187500.02, -187500.02, -187500.02, -180916.11, -187500.02, -187500.02, 0.010, -0.012, 1.038, 14:00:17.319
150, 65139.82, 12732.65, -187500.02, -187500.02, -187500.02, -180795.97, -187500.02, -187500.02, 0.000, 0.000, 0.000, 14:00:17.319
151, 67607.63, 14996.75, -187500.02, -187500.02, -187500.02, -180645.61, -187500.02, -187500.02, 0.000, 0.000, 0.000, 14:00:17.319
152, 70377.39, 17907.79, -187500.02, -187500.02, -187500.02, -180696.03, -187500.02, -187500.02, 0.000, 0.000, 0.000, 14:00:17.319
153, 70022.49, 17632.15, -187500.02, -187500.02, -187500.02, -180932.56, -187500.02, -187500.02, 0.000, 0.000, 0.000, 14:00:17.319
154, 67967.96, 15665.44, -187500.02, -187500.02, -187500.02, -180975.16, -187500.02, -187500.02, 0.000, 0.000, 0.000, 14:00:17.319
155, 65146.93, 12744.81, -187500.02, -187500.02, -187500.02, -180867.81, -187500.02, -187500.02, 0.000, 0.000, 0.000, 14:00:17.319
156, 67586.66, 14980.45, -187500.02, -187500.02, -187500.02, -180679.14, -187500.02, -187500.02, 0.000, 0.000, 0.000, 14:00:17.319
157, 70381.95, 17908.55, -187500.02, -187500.02, -187500.02, -180743.13, -187500.02, -187500.02, 0.000, 0.000, 0.000, 14:00:17.320
158, 70029.87, 17638.52, -187500.02, -187500.02, -187500.02, -181006.00, -187500.02, -187500.02, 0.000, 0.000, 0.000, 14:00:17.320
159, 67968.39, 15670.67, -187500.02, -187500.02, -187500.02, -180984.33, -187500.02, -187500.02, 0.010, -0.008, 1.032, 14:00:17.320
160, 65150.68, 12756.43, -187500.02, -187500.02, -187500.02, -180913.09, -187500.02, -187500.02, 0.000, 0.000, 0.000, 14:00:17.320
161, 67565.90, 14965.72, -187500.02, -187500.02, -187500.02, -180743.58, -187500.02, -187500.02, 0.000, 0.000, 0.000, 14:00:17.320
162, 70358.46, 17898.85, -187500.02, -187500.02, -187500.02, -180762.02, -187500.02, -187500.02, 0.000, 0.000, 0.000, 14:00:17.320
163, 70010.76, 17617.44, -187500.02, -187500.02, -187500.02, -180937.64, -187500.02, -187500.02, 0.000, 0.000, 0.000, 14:00:17.320
164, 67979.68, 15682.61, -187500.02, -187500.02, -187500.02, -180928.17, -187500.02, -187500.02, 0.000, 0.000, 0.000, 14:00:17.321
165, 65148.36, 12757.24, -187500.02, -187500.02, -187500.02, -180835.38, -187500.02, -187500.02, 0.000, 0.000, 0.000, 14:00:17.321
166, 67556.98, 14956.09, -187500.02, -187500.02, -187500.02, -180711.14, -187500.02, -187500.02, 0.000, 0.000, 0.000, 14:00:17.321
167, 70375.78, 17907.55, -187500.02, -187500.02, -187500.02, -180762.89, -187500.02, -187500.02, 0.000, 0.000, 0.000, 14:00:17.321
168, 70031.43, 17641.45, -187500.02, -187500.02, -187500.02, -180982.41, -187500.02, -187500.02, 0.000, 0.000, 0.000, 14:00:17.321
169, 67996.20, 15698.77, -187500.02, -187500.02, -187500.02, -180966.48, -187500.02, -187500.02, 0.008, -0.014, 1.028, 14:00:17.321
170, 65146.82, 12765.55, -187500.02, -187500.02, -187500.02, -180870.02, -187500.02, -187500.02, 0.000, 0.000, 0.000, 14:00:17.321
171, 67523.34, 14924.71, -187500.02, -187500.02, -187500.02, -180709.88, -187500.02, -187500.02, 0.000, 0.000, 0.000, 14:00:17.321
172, 70363.87, 17898.00, -187500.02, -187500.02, -187500.02, -180737.34, -187500.02, -187500.02, 0.000, 0.000, 0.000, 14:00:17.321
173, 70045.88, 17659.02, -187500.02, -187500.02, -187500.02, -180992.23, -187500.02, -187500.02, 0.000, 0.000, 0.000, 14:00:17.322
174, 68025.27, 15736.90, -187500.02, -187500.02, -187500.02, -181006.77, -187500.02, -187500.02, 0.000, 0.000, 0.000, 14:00:17.322
175, 65162.15, 12782.25, -187500.02, -187500.02, -187500.02, -180911.89, -187500.02, -187500.02, 0.000, 0.000, 0.000, 14:00:17.322
176, 67515.92, 14918.34, -187500.02, -187500.02, -187500.02, -180759.47, -187500.02, -187500.02, 0.000, 0.000, 0.000, 14:00:17.322
177, 70359.89, 17903.77, -187500.02, -187500.02, -187500.02, -180776.72, -187500.02, -187500.02, 0.000, 0.000, 0.000, 14:00:17.322
178, 70032.57, 17651.91, -187500.02, -187500.02, -187500.02, -180968.45, -187500.02, -187500.02, 0.000, 0.000, 0.000, 14:00:17.322
179, 68024.42, 15731.38, -187500.02, -187500.02, -187500.02, -180955.17, -187500.02, -187500.02, 0.012, -0.016, 1.030, 14:00:17.322
180, 65155.89, 12768.30, -187500.02, -187500.02, -187500.02, -180841.00, -187500.02, -187500.02, 0.000, 0.000, 0.000, 14:00:17.322
181, 67488.84, 14897.01, -187500.02, -187500.02, -187500.02, -180701.53, -187500.02, -187500.02, 0.000, 0.000, 0.000, 14:00:17.323
182, 70357.68, 17897.53, -187500.02, -187500.02, -187500.02, -180725.25, -187500.02, -187500.02, 0.000, 0.000, 0.000, 14:00:17.323
183, 70062.63, 17679.13, -187500.02, -187500.02, -187500.02, -180995.86, -187500.02, -187500.02, 0.000, 0.000, 0.000, 14:00:17.323
184, 68067.12, 15774.79, -187500.02, -187500.02, -187500.02, -181038.16, -187500.02, -187500.02, 0.000, 0.000, 0.000, 14:00:17.323
185, 65167.96, 12790.07, -187500.02, -187500.02, -187500.02, -180951.64, -187500.02, -187500.02, 0.000, 0.000, 0.000, 14:00:17.323
186, 67468.27, 14863.62, -187500.02, -187500.02, -187500.02, -180772.52, -187500.02, -187500.02, 0.000, 0.000, 0.000, 14:00:17.323
187, 70357.48, 17887.43, -187500.02, -187500.02, -187500.02, -180802.63, -187500.02, -187500.02, 0.000, 0.000, 0.000, 14:00:17.323
188, 70056.69, 17676.52, -187500.02, -187500.02, -187500.02, -181039.16, -187500.02, -187500.02, 0.000, 0.000, 0.000, 14:00:17.324
189, 68066.96, 15777.47, -187500.02, -187500.02, -187500.02, -181046.27, -187500.02, -187500.02, 0.006, -0.018, 1.026, 14:00:17.324
190, 65168.34, 12788.75, -187500.02, -187500.02, -187500.02, -180946.11, -187500.02, -187500.02, 0.000, 0.000, 0.000, 14:00:17.324
191, 67453.67, 14856.67, -187500.02, -187500.02, -187500.02, -180784.08, -187500.02, -187500.02, 0.000, 0.000, 0.000, 14:00:17.324
192, 70345.54, 17889.08, -187500.02, -187500.02, -187500.02, -180792.73, -187500.02, -187500.02, 0.000, 0.000, 0.000, 14:00:17.324
193, 70053.34, 17670.19, -187500.02, -187500.02, -187500.02, -180993.88, -187500.02, -187500.02, 0.000, 0.000, 0.000, 14:00:17.324
194, 68086.38, 15795.37, -187500.02, -187500.02, -187500.02, -181009.86, -187500.02, -187500.02, 0.000, 0.000, 0.000, 14:00:17.324
195, 65173.75, 12796.60, -187500.02, -187500.02, -187500.02, -180916.48, -187500.02, -187500.02, 0.000, 0.000, 0.000, 14:00:17.324
196, 67443.55, 14846.39, -187500.02, -187500.02, -187500.02, -180785.69, -187500.02, -187500.02, 0.000, 0.000, 0.000, 14:00:17.325
197, 70352.52, 17899.50, -187500.02, -187500.02, -187500.02, -180819.81, -187500.02, -187500.02, 0.000, 0.000, 0.000, 14:00:17.325
198, 70069.07, 17694.29, -187500.02, -187500.02, -187500.02, -181038.33, -187500.02, -187500.02, 0.000, 0.000, 0.000, 14:00:17.325
199, 68105.34, 15815.54, -187500.02, -187500.02, -187500.02, -181030.06, -187500.02, -187500.02, 0.008, -0.016, 1.028, 14:00:17.325
200, 65182.18, 12807.62, -187500.02, -187500.02, -187500.02, -180924.98, -187500.02, -187500.02, 0.000, 0.000, 0.000, 14:00:17.325
201, 67417.73, 14823.86, -187500.02, -187500.02, -187500.02, -180754.30, -187500.02, -187500.02, 0.000, 0.000, 0.000, 14:00:17.325
202, 70339.69, 17878.09, -187500.02, -187500.02, -187500.02, -180761.91, -187500.02, -187500.02, 0.000, 0.000, 0.000, 14:00:17.325
203, 70070.05, 17684.86, -187500.02, -187500.02, -187500.02, -180986.42, -187500.02, -187500.02, 0.000, 0.000, 0.000, 14:00:17.326
204, 68119.13, 15823.72, -187500.02, -187500.02, -187500.02, -181001.47, -187500.02, -187500.02, 0.000, 0.000, 0.000, 14:00:17.326
205, 65183.07, 12805.69, -187500.02, -187500.02, -187500.02, -180906.61, -187500.02, -187500.02, 0.000, 0.000, 0.000, 14:00:17.326
206, 67398.35, 14798.44, -187500.02, -187500.02, -187500.02, -180723.53, -187500.02, -187500.02, 0.000, 0.000, 0.000, 14:00:17.326
207, 70348.45, 17891.03, -187500.02, -187500.02, -187500.02, -180773.59, -187500.02, -187500.02, 0.000, 0.000, 0.000, 14:00:17.326
208, 70089.10, 17713.96, -187500.02, -187500.02, -187500.02, -181050.95, -187500.02, -187500.02, 0.000, 0.000, 0.000, 14:00:17.327
209, 68153.10, 15859.21, -187500.02, -187500.02, -187500.02, -181097.88, -187500.02, -187500.02, 0.008, -0.012, 1.024, 14:00:17.792
210, 65200.53, 12830.10, -187500.02, -187500.02, -187500.02, -181023.83, -187500.02, -187500.02, 0.000, 0.000, 0.000, 14:00:17.792
211, 67380.70, 14787.29, -187500.02, -187500.02, -187500.02, -180857.80, -187500.02, -187500.02, 0.000, 0.000, 0.000, 14:00:17.793
212, 70325.73, 17862.02, -187500.02, -187500.02, -187500.02, -180853.48, -187500.02, -187500.02, 0.000, 0.000, 0.000, 14:00:17.793
213, 70065.03, 17676.65, -187500.02, -187500.02, -187500.02, -181061.06, -187500.02, -187500.02, 0.000, 0.000, 0.000, 14:00:17.793
214, 68130.80, 15837.01, -187500.02, -187500.02, -187500.02, -181033.02, -187500.02, -187500.02, 0.000, 0.000, 0.000, 14:00:17.793
215, 65185.35, 12814.72, -187500.02, -187500.02, -187500.02, -180944.66, -187500.02, -187500.02, 0.000, 0.000, 0.000, 14:00:17.793
216, 67357.59, 14765.09, -187500.02, -187500.02, -187500.02, -180799.09, -187500.02, -187500.02, 0.000, 0.000, 0.000, 14:00:17.793
217, 70326.86, 17864.54, -187500.02, -187500.02, -187500.02, -180828.88, -187500.02, -187500.02, 0.000, 0.000, 0.000, 14:00:17.794
218, 70079.71, 17701.98, -187500.02, -187500.02, -187500.02, -181047.72, -187500.02, -187500.02, 0.000, 0.000, 0.000, 14:00:17.794
219, 68155.77, 15859.23, -187500.02, -187500.02, -187500.02, -181045.80, -187500.02, -187500.02, 0.004, -0.018, 1.028, 14:00:17.794
220, 65188.52, 12817.52, -187500.02, -187500.02, -187500.02, -180927.42, -187500.02, -187500.02, 0.000, 0.000, 0.000, 14:00:17.794
221, 67333.91, 14738.02, -187500.02, -187500.02, -187500.02, -180770.05, -187500.02, -187500.02, 0.000, 0.000, 0.000, 14:00:17.794
222, 70322.97, 17869.17, -187500.02, -187500.02, -187500.02, -180814.92, -187500.02, -187500.02, 0.000, 0.000, 0.000, 14:00:17.794
223, 70083.55, 17711.05, -187500.02, -187500.02, -187500.02, -181044.91, -187500.02, -187500.02, 0.000, 0.000, 0.000, 14:00:17.794
224, 68168.26, 15882.70, -187500.02, -187500.02, -187500.02, -181058.48, -187500.02, -187500.02, 0.000, 0.000, 0.000, 14:00:17.794
225, 65183.63, 12819.53, -187500.02, -187500.02, -187500.02, -180932.27, -187500.02, -187500.02, 0.000, 0.000, 0.000, 14:00:17.794
226, 67315.92, 14725.87, -187500.02, -187500.02, -187500.02, -180761.50, -187500.02, -187500.02, 0.000, 0.000, 0.000, 14:00:17.795
227, 70321.58, 17868.28, -187500.02, -187500.02, -187500.02, -180817.16, -187500.02, -187500.02, 0.000, 0.000, 0.000, 14:00:17.795
228, 70083.38, 17711.77, -187500.02, -187500.02, -187500.02, -181062.56, -187500.02, -187500.02, 0.000, 0.000, 0.000, 14:00:17.795
229, 68175.66, 15887.26, -187500.02, -187500.02, -187500.02, -181049.58, -187500.02, -187500.02, 0.008, -0.016, 1.028, 14:00:17.795
230, 65190.22, 12821.54, -187500.02, -187500.02, -187500.02, -180928.73, -187500.02, -187500.02, 0.000, 0.000, 0.000, 14:00:17.795
231, 67296.88, 14706.80, -187500.02, -187500.02, -187500.02, -180773.73, -187500.02, -187500.02, 0.000, 0.000, 0.000, 14:00:17.796
232, 70316.04, 17866.35, -187500.02, -187500.02, -187500.02, -180792.48, -187500.02, -187500.02, 0.000, 0.000, 0.000, 14:00:17.796
233, 70093.77, 17719.93, -187500.02, -187500.02, -187500.02, -180998.75, -187500.02, -187500.02, 0.000, 0.000, 0.000, 14:00:17.796
234, 68217.68, 15931.56, -187500.02, -187500.02, -187500.02, -181053.97, -187500.02, -187500.02, 0.000, 0.000, 0.000, 14:00:17.796
235, 65220.69, 12863.12, -187500.02, -187500.02, -187500.02, -180996.28, -187500.02, -187500.02, 0.000, 0.000, 0.000, 14:00:17.796
236, 67280.76, 14696.83, -187500.02, -187500.02, -187500.02, -180802.97, -187500.02, -187500.02, 0.000, 0.000, 0.000, 14:00:17.796
237, 70317.71, 17854.64, -187500.02, -187500.02, -187500.02, -180824.83, -187500.02, -187500.02, 0.000, 0.000, 0.000, 14:00:17.797
238, 70099.67, 17718.74, -187500.02, -187500.02, -187500.02, -181060.45, -187500.02, -187500.02, 0.000, 0.000, 0.000, 14:00:17.797
239, 68213.92, 15923.61, -187500.02, -187500.02, -187500.02, -181061.59, -187500.02, -187500.02, 0.012, -0.020, 1.028, 14:00:17.797
240, 65210.90, 12853.84, -187500.02, -187500.02, -187500.02, -180956.05, -187500.02, -187500.02, 0.000, 0.000, 0.000, 14:00:17.797
241, 67259.73, 14669.32, -187500.02, -187500.02, -187500.02, -180783.94, -187500.02, -187500.02, 0.000, 0.000, 0.000, 14:00:17.797
242, 70303.90, 17847.82, -187500.02, -187500.02, -187500.02, -180789.53, -187500.02, -187500.02, 0.000, 0.000, 0.000, 14:00:17.797
243, 70101.80, 17725.69, -187500.02, -187500.02, -187500.02, -181016.27, -187500.02, -187500.02, 0.000, 0.000, 0.000, 14:00:17.797
244, 68231.72, 15938.40, -187500.02, -187500.02, -187500.02, -181032.61, -187500.02, -187500.02, 0.000, 0.000, 0.000, 14:00:17.797
245, 65217.87, 12856.99, -187500.02, -187500.02, -187500.02, -180953.61, -187500.02, -187500.02, 0.000, 0.000, 0.000, 14:00:17.797
246, 67232.55, 14634.45, -187500.02, -187500.02, -187500.02, -180783.19, -187500.02, -187500.02, 0.000, 0.000, 0.000, 14:00:17.798
247, 70281.23, 17819.57, -187500.02, -187500.02, -187500.02, -180769.03, -187500.02, -187500.02, 0.000, 0.000, 0.000, 14:00:17.798
248, 70084.36, 17702.09, -187500.02, -187500.02, -187500.02, -181017.81, -187500.02, -187500.02, 0.008, -0.016, 1.032, 14:00:17.798
249, 68212.38, 15916.07, -187500.02, -187500.02, -187500.02, -181020.72, -187500.02, -187500.02, 0.000, 0.000, 0.000, 14:00:17.798
250, 65190.94, 12832.00, -187500.02, -187500.02, -187500.02, -180926.33, -187500.02, -187500.02, 0.000, 0.000, 0.000, 14:00:17.798
251, 67188.58, 14598.17, -187500.02, -187500.02, -187500.02, -180777.64, -187500.02, -187500.02, 0.000, 0.000, 0.000, 14:00:17.798
252, 70255.53, 17786.89, -187500.02, -187500.02, -187500.02, -180765.80, -187500.02, -187500.02, 0.000, 0.000, 0.000, 14:00:17.798
253, 70063.75, 17678.91, -187500.02, -187500.02, -187500.02, -180964.92, -187500.02, -187500.02, 0.000, 0.000, 0.000, 14:00:17.798
254, 68205.48, 15904.12, -187500.02, -187500.02, -187500.02, -181000.84, -187500.02, -187500.02, 0.000, 0.000, 0.000, 14:00:17.799
255, 65170.29, 12797.85, -187500.02, -187500.02, -187500.02, -180952.03, -187500.02, -187500.02, 0.000, 0.000, 0.000, 14:00:17.799
0, 67142.47, 14542.47, -187500.02, -187500.02, -187500.02, -180811.55, -187500.02, -187500.02, 0.000, 0.000, 0.000, 14:00:17.799
1, 70211.34, 17738.37, -187500.02, -187500.02, -187500.02, -180792.02, -187500.02, -187500.02, 0.000, 0.000, 0.000, 14:00:17.799
2, 70033.76, 17648.69, -187500.02, -187500.02, -187500.02, -181046.47, -187500.02, -187500.02, 0.002, -0.016, 1.032, 14:00:17.799
3, 68190.68, 15893.27, -187500.02, -187500.02, -187500.02, -181074.88, -187500.02, -187500.02, 0.000, 0.000, 0.000, 14:00:17.799
4, 65157.48, 12790.58, -187500.02, -187500.02, -187500.02, -181011.48, -187500.02, -187500.02, 0.000, 0.000, 0.000, 14:00:17.799
5, 67117.75, 14512.29, -187500.02, -187500.02, -187500.02, -180896.59, -187500.02, -187500.02, 0.000, 0.000, 0.000, 14:00:17.799
6, 70205.15, 17735.91, -187500.02, -187500.02, -187500.02, -180879.67, -187500.02, -187500.02, 0.000, 0.000, 0.000, 14:00:17.800
7, 70042.66, 17667.40, -187500.02, -187500.02, -187500.02, -181114.08, -187500.02, -187500.02, 0.000, 0.000, 0.000, 14:00:17.800
8, 68212.80, 15915.07, -187500.02, -187500.02, -187500.02, -181101.52, -187500.02, -187500.02, 0.000, 0.000, 0.000, 14:00:17.800
9, 65166.35, 12810.41, -187500.02, -187500.02, -187500.02, -180994.45, -187500.02, -187500.02, 0.000, 0.000, 0.000, 14:00:17.800
10, 67102.21, 14509.86, -187500.02, -187500.02, -187500.02, -180806.30, -187500.02, -187500.02, 0.000, 0.000, 0.000, 14:00:17.800
11, 70220.95, 17750.66, -187500.02, -187500.02, -187500.02, -180798.72, -187500.02, -187500.02, 0.000, 0.000, 0.000, 14:00:17.800
12, 70065.54, 17689.57, -187500.02, -187500.02, -187500.02, -181048.50, -187500.02, -187500.02, 0.004, -0.016, 1.036, 14:00:17.800
13, 68242.53, 15957.40, -187500.02, -187500.02, -187500.02, -181070.00, -187500.02, -187500.02, 0.000, 0.000, 0.000, 14:00:17.800
14, 65177.64, 12829.10, -187500.02, -187500.02, -187500.02, -180954.48, -187500.02, -187500.02, 0.000, 0.000, 0.000, 14:00:17.800
15, 67092.47, 14519.60, -187500.02, -187500.02, -187500.02, -180812.39, -187500.02, -187500.02, 0.000, 0.000, 0.000, 14:00:17.801
16, 70222.54, 17773.03, -187500.02, -187500.02, -187500.02, -180844.05, -187500.02, -187500.02, 0.000, 0.000, 0.000, 14:00:17.801
17, 70061.85, 17697.84, -187500.02, -187500.02, -187500.02, -181030.70, -187500.02, -187500.02, 0.000, 0.000, 0.000, 14:00:17.801
18, 68254.31, 15979.11, -187500.02, -187500.02, -187500.02, -181033.50, -187500.02, -187500.02, 0.000, 0.000, 0.000, 14:00:17.801
19, 65195.43, 12862.07, -187500.02, -187500.02, -187500.02, -180944.41, -187500.02, -187500.02, 0.000, 0.000, 0.000, 14:00:17.801
20, 67087.64, 14516.52, -187500.02, -187500.02, -187500.02, -180812.06, -187500.02, -187500.02, 0.000, 0.000, 0.000, 14:00:17.801
21, 70232.60, 17777.44, -187500.02, -187500.02, -187500.02, -180842.73, -187500.02, -187500.02, 0.000, 0.000, 0.000, 14:00:17.801
22, 70087.22, 17722.54, -187500.02, -187500.02, -187500.02, -181057.44, -187500.02, -187500.02, 0.008, -0.016, 1.034, 14:00:17.801
23, 68285.70, 15998.89, -187500.02, -187500.02, -187500.02, -181054.73, -187500.02, -187500.02, 0.000, 0.000, 0.000, 14:00:17.802
24, 65217.74, 12880.30, -187500.02, -187500.02, -187500.02, -180961.66, -187500.02, -187500.02, 0.000, 0.000, 0.000, 14:00:17.802
25, 67077.96, 14512.45, -187500.02, -187500.02, -187500.02, -180803.33, -187500.02, -187500.02, 0.000, 0.000, 0.000, 14:00:17.802
26, 70234.27, 17783.52, -187500.02, -187500.02, -187500.02, -180798.00, -187500.02, -187500.02, 0.000, 0.000, 0.000, 14:00:17.802
27, 70104.63, 17742.34, -187500.02, -187500.02, -187500.02, -181039.95, -187500.02, -187500.02, 0.000, 0.000, 0.000, 14:00:17.802
28, 68311.69, 16034.92, -187500.02, -187500.02, -187500.02, -181061.75, -187500.02, -187500.02, 0.000, 0.000, 0.000, 14:00:17.802
29, 65237.01, 12908.04, -187500.02, -187500.02, -187500.02, -180973.55, -187500.02, -187500.02, 0.000, 0.000, 0.000, 14:00:17.802
30, 67068.24, 14504.72, -187500.02, -187500.02, -187500.02, -180797.44, -187500.02, -187500.02, 0.000, 0.000, 0.000, 14:00:17.802
31, 70238.77, 17795.10, -187500.02, -187500.02, -187500.02, -180814.92, -187500.02, -187500.02, 0.000, 0.000, 0.000, 14:00:17.802
32, 70125.78, 17769.17, -187500.02, -187500.02, -187500.02, -181068.84, -187500.02, -187500.02, 0.008, -0.014, 1.032, 14:00:17.803
33, 68354.11, 16079.35, -187500.02, -187500.02, -187500.02, -181146.64, -187500.02, -187500.02, 0.000, 0.000, 0.000, 14:00:17.803
34, 65254.60, 12926.55, -187500.02, -187500.02, -187500.02, -181041.41, -187500.02, -187500.02, 0.000, 0.000, 0.000, 14:00:17.803
35, 67051.77, 14486.90, -187500.02, -187500.02, -187500.02, -180840.52, -187500.02, -187500.02, 0.000, 0.000, 0.000, 14:00:17.803
36, 70234.01, 17784.57, -187500.02, -187500.02, -187500.02, -180819.89, -187500.02, -187500.02, 0.000, 0.000, 0.000, 14:00:17.803
37, 70127.68, 17773.68, -187500.02, -187500.02, -187500.02, -181076.34, -187500.02, -187500.02, 0.000, 0.000, 0.000, 14:00:17.803
38, 68351.32, 16080.60, -187500.02, -187500.02, -187500.02, -181086.03, -187500.02, -187500.02, 0.000, 0.000, 0.000, 14:00:17.803
39, 65259.56, 12932.67, -187500.02, -187500.02, -187500.02, -180986.22, -187500.02, -187500.02, 0.000, 0.000, 0.000, 14:00:17.803
40, 67042.29, 14471.03, -187500.02, -187500.02, -187500.02, -180850.02, -187500.02, -187500.02, 0.000, 0.000, 0.000, 14:00:17.804
41, 70231.77, 17776.54, -187500.02, -187500.02, -187500.02, -180876.03, -187500.02, -187500.02, 0.000, 0.000, 0.000, 14:00:17.804
42, 70129.69, 17782.64, -187500.02, -187500.02, -187500.02, -181096.42, -187500.02, -187500.02, 0.010, -0.016, 1.030, 14:00:17.804
43, 68373.16, 16104.77, -187500.02, -187500.02, -187500.02, -181119.55, -187500.02, -187500.02, 0.000, 0.000, 0.000, 14:00:17.804
44, 65267.23, 12940.72, -187500.02, -187500.02, -187500.02, -181000.05, -187500.02, -187500.02, 0.000, 0.000, 0.000, 14:00:17.804
45, 67028.61, 14458.43, -187500.02, -187500.02, -187500.02, -180834.22, -187500.02, -187500.02, 0.000, 0.000, 0.000, 14:00:17.804
46, 70231.44, 17783.25, -187500.02, -187500.02, -187500.02, -180842.03, -187500.02, -187500.02, 0.000, 0.000, 0.000, 14:00:17.804
47, 70129.96, 17774.29, -187500.02, -187500.02, -187500.02, -181031.17, -187500.02, -187500.02, 0.000, 0.000, 0.000, 14:00:17.804
48, 68384.13, 16113.80, -187500.02, -187500.02, -187500.02, -181048.70, -187500.02, -187500.02, 0.000, 0.000, 0.000, 14:00:17.805
49, 65284.37, 12959.36, -187500.02, -187500.02, -187500.02, -180994.50, -187500.02, -187500.02, 0.000, 0.000, 0.000, 14:00:17.805
50, 67015.09, 14460.46, -187500.02, -187500.02, -187500.02, -180867.00, -187500.02, -187500.02, 0.000, 0.000, 0.000, 14:00:17.805
51, 70218.90, 17782.35, -187500.02, -187500.02, -187500.02, -180836.88, -187500.02, -187500.02, 0.000, 0.000, 0.000, 14:00:17.805
52, 70131.88, 17779.00, -187500.02, -187500.02, -187500.02, -181044.92, -187500.02, -187500.02, 0.010, -0.014, 1.036, 14:00:17.805
53, 68392.55, 16119.41, -187500.02, -187500.02, -187500.02, -181068.91, -187500.02, -187500.02, 0.000, 0.000, 0.000, 14:00:17.805
54, 65278.40, 12964.86, -187500.02, -187500.02, -187500.02, -180966.47, -187500.02, -187500.02, 0.000, 0.000, 0.000, 14:00:17.805
55, 66989.52, 14438.82, -187500.02, -187500.02, -187500.02, -180839.84, -187500.02, -187500.02, 0.000, 0.000, 0.000, 14:00:17.805
56, 70219.43, 17781.17, -187500.02, -187500.02, -187500.02, -180864.88, -187500.02, -187500.02, 0.000, 0.000, 0.000, 14:00:17.806
57, 70148.58, 17802.63, -187500.02, -187500.02, -187500.02, -181105.72, -187500.02, -187500.02, 0.000, 0.000, 0.000, 14:00:17.806
58, 68420.72, 16153.07, -187500.02, -187500.02, -187500.02, -181141.03, -187500.02, -187500.02, 0.000, 0.000, 0.000, 14:00:17.806
59, 65291.50, 12983.93, -187500.02, -187500.02, -187500.02, -181035.69, -187500.02, -187500.02, 0.000, 0.000, 0.000, 14:00:17.806
60, 66964.10, 14413.25, -187500.02, -187500.02, -187500.02, -180857.22, -187500.02, -187500.02, 0.000, 0.000, 0.000, 14:00:17.806
61, 70207.77, 17761.81, -187500.02, -187500.02, -187500.02, -180854.80, -187500.02, -187500.02, 0.000, 0.000, 0.000, 14:00:17.806
62, 70143.80, 17797.04, -187500.02, -187500.02, -187500.02, -181084.02, -187500.02, -187500.02, 0.004, -0.016, 1.034, 14:00:17.806
63, 68423.72, 16152.44, -187500.02, -187500.02, -187500.02, -181106.97, -187500.02, -187500.02, 0.000, 0.000, 0.000, 14:00:17.806
64, 65297.54, 12983.99, -187500.02, -187500.02, -187500.02, -181007.02, -187500.02, -187500.02, 0.000, 0.000, 0.000, 14:00:17.806
65, 66953.33, 14400.45, -187500.02, -187500.02, -187500.02, -180862.08, -187500.02, -187500.02, 0.000, 0.000, 0.000, 14:00:17.807
66, 70204.01, 17757.46, -187500.02, -187500.02, -187500.02, -180854.94, -187500.02, -187500.02, 0.000, 0.000, 0.000, 14:00:17.807
67, 70151.28, 17804.28, -187500.02, -187500.02, -187500.02, -181095.19, -187500.02, -187500.02, 0.000, 0.000, 0.000, 14:00:17.807
68, 68447.23, 16172.34, -187500.02, -187500.02, -187500.02, -181138.19, -187500.02, -187500.02, 0.000, 0.000, 0.000, 14:00:17.807
69, 65313.79, 12994.54, -187500.02, -187500.02, -187500.02, -181034.13, -187500.02, -187500.02, 0.000, 0.000, 0.000, 14:00:17.807
70, 66932.68, 14377.07, -187500.02, -187500.02, -187500.02, -180852.30, -187500.02, -187500.02, 0.000, 0.000, 0.000, 14:00:17.807
71, 70198.87, 17749.74, -187500.02, -187500.02, -187500.02, -180841.45, -187500.02, -187500.02, 0.000, 0.000, 0.000, 14:00:17.807
72, 70154.86, 17797.69, -187500.02, -187500.02, -187500.02, -181092.17, -187500.02, -187500.02, 0.004, -0.016, 1.036, 14:00:17.808
73, 68446.25, 16176.11, -187500.02, -187500.02, -187500.02, -181115.70, -187500.02, -187500.02, 0.000, 0.000, 0.000, 14:00:18.273
74, 65304.73, 12994.48, -187500.02, -187500.02, -187500.02, -181028.88, -187500.02, -187500.02, 0.000, 0.000, 0.000, 14:00:18.273
75, 66902.45, 14345.48, -187500.02, -187500.02, -187500.02, -180847.25, -187500.02, -187500.02, 0.000, 0.000, 0.000, 14:00:18.273
76, 70180.92, 17733.49, -187500.02, -187500.02, -187500.02, -180844.31, -187500.02, -187500.02, 0.000, 0.000, 0.000, 14:00:18.273
77, 70155.80, 17806.14, -187500.02, -187500.02, -187500.02, -181090.16, -187500.02, -187500.02, 0.000, 0.000, 0.000, 14:00:18.273
78, 68458.38, 16186.35, -187500.02, -187500.02, -187500.02, -181115.03, -187500.02, -187500.02, 0.000, 0.000, 0.000, 14:00:18.274
79, 65308.73, 12999.28, -187500.02, -187500.02, -187500.02, -180989.88, -187500.02, -187500.02, 0.000, 0.000, 0.000, 14:00:18.274
80, 66883.75, 14327.27, -187500.02, -187500.02, -187500.02, -180847.88, -187500.02, -187500.02, 0.000, 0.000, 0.000, 14:00:18.274
81, 70166.86, 17721.47, -187500.02, -187500.02, -187500.02, -180846.14, -187500.02, -187500.02, 0.000, 0.000, 0.000, 14:00:18.274
82, 70147.44, 17808.44, -187500.02, -187500.02, -187500.02, -181085.53, -187500.02, -187500.02, 0.010, -0.014, 1.034, 14:00:18.274
83, 68459.79, 16194.20, -187500.02, -187500.02, -187500.02, -181127.27, -187500.02, -187500.02, 0.000, 0.000, 0.000, 14:00:18.274
84, 65308.09, 13001.52, -187500.02, -187500.02, -187500.02, -181081.00, -187500.02, -187500.02, 0.000, 0.000, 0.000, 14:00:18.274
85, 66838.04, 14285.25, -187500.02, -187500.02, -187500.02, -180926.45, -187500.02, -187500.02, 0.000, 0.000, 0.000, 14:00:18.274
86, 70126.27, 17673.75, -187500.02, -187500.02, -187500.02, -180873.02, -187500.02, -187500.02, 0.000, 0.000, 0.000, 14:00:18.274
87, 70111.59, 17757.79, -187500.02, -187500.02, -187500.02, -181106.17, -187500.02, -187500.02, 0.000, 0.000, 0.000, 14:00:18.275
88, 68439.56, 16161.09, -187500.02, -187500.02, -187500.02, -181148.59, -187500.02, -187500.02, 0.000, 0.000, 0.000, 14:00:18.275
89, 65272.88, 12965.15, -187500.02, -187500.02, -187500.02, -181063.11, -187500.02, -187500.02, 0.000, 0.000, 0.000, 14:00:18.275
90, 66789.00, 14237.46, -187500.02, -187500.02, -187500.02, -180923.38, -187500.02, -187500.02, 0.000, 0.000, 0.000, 14:00:18.275
91, 70092.77, 17634.61, -187500.02, -187500.02, -187500.02, -180938.33, -187500.02, -187500.02, 0.000, 0.000, 0.000, 14:00:18.275
92, 70089.30, 17735.46, -187500.02, -187500.02, -187500.02, -181166.16, -187500.02, -187500.02, 0.012, -0.012, 1.030, 14:00:18.275
93, 68416.30, 16131.99, -187500.02, -187500.02, -187500.02, -181178.16, -187500.02, -187500.02, 0.000, 0.000, 0.000, 14:00:18.275
94, 65239.44, 12916.16, -187500.02, -187500.02, -187500.02, -181054.06, -187500.02, -187500.02, 0.000, 0.000, 0.000, 14:00:18.275
95, 66733.84, 14163.27, -187500.02, -187500.02, -187500.02, -180894.27, -187500.02, -187500.02, 0.000, 0.000, 0.000, 14:00:18.276
96, 70057.09, 17585.59, -187500.02, -187500.02, -187500.02, -180903.41, -187500.02, -187500.02, 0.000, 0.000, 0.000, 14:00:18.276
97, 70057.36, 17687.45, -187500.02, -187500.02, -187500.02, -181115.16, -187500.02, -187500.02, 0.000, 0.000, 0.000, 14:00:18.276
98, 68405.92, 16111.09, -187500.02, -187500.02, -187500.02, -181158.47, -187500.02, -187500.02, 0.000, 0.000, 0.000, 14:00:18.276
99, 65237.65, 12916.96, -187500.02, -187500.02, -187500.02, -181079.05, -187500.02, -187500.02, 0.000, 0.000, 0.000, 14:00:18.276
100, 66706.45, 14135.02, -187500.02, -187500.02, -187500.02, -180942.27, -187500.02, -187500.02, 0.000, 0.000, 0.000, 14:00:18.276
101, 70036.04, 17556.80, -187500.02, -187500.02, -187500.02, -180935.00, -187500.02, -187500.02, 0.000, 0.000, 0.000, 14:00:18.276
102, 70045.98, 17661.19, -187500.02, -187500.02, -187500.02, -181148.23, -187500.02, -187500.02, 0.014, -0.012, 1.034, 14:00:18.276
103, 68395.77, 16094.91, -187500.02, -187500.02, -187500.02, -181165.89, -187500.02, -187500.02, 0.000, 0.000, 0.000, 14:00:18.277
104, 65213.18, 12887.41, -187500.02, -187500.02, -187500.02, -181055.66, -187500.02, -187500.02, 0.000, 0.000, 0.000, 14:00:18.277
105, 66655.52, 14073.24, -187500.02, -187500.02, -187500.02, -180895.02, -187500.02, -187500.02, 0.000, 0.000, 0.000, 14:00:18.277
106, 70004.52, 17508.77, -187500.02, -187500.02, -187500.02, -180882.36, -187500.02, -187500.02, 0.000, 0.000, 0.000, 14:00:18.277
107, 70038.05, 17661.65, -187500.02, -187500.02, -187500.02, -181139.80, -187500.02, -187500.02, 0.000, 0.000, 0.000, 14:00:18.277
108, 68393.43, 16095.51, -187500.02, -187500.02, -187500.02, -181150.95, -187500.02, -187500.02, 0.000, 0.000, 0.000, 14:00:18.277
109, 65221.74, 12884.66, -187500.02, -187500.02, -187500.02, -181096.89, -187500.02, -187500.02, 0.000, 0.000, 0.000, 14:00:18.277
110, 66629.50, 14044.25, -187500.02, -187500.02, -187500.02, -180972.56, -187500.02, -187500.02, 0.000, 0.000, 0.000, 14:00:18.277
111, 69974.26, 17485.14, -187500.02, -187500.02, -187500.02, -180943.11, -187500.02, -187500.02, 0.000, 0.000, 0.000, 14:00:18.278
112, 70019.63, 17631.21, -187500.02, -187500.02, -187500.02, -181179.86, -187500.02, -187500.02, 0.018, -0.008, 1.030, 14:00:18.278
113, 68396.58, 16068.13, -187500.02, -187500.02, -187500.02, -181239.81, -187500.02, -187500.02, 0.000, 0.000, 0.000, 14:00:18.278
114, 65206.03, 12860.92, -187500.02, -187500.02, -187500.02, -181141.25, -187500.02, -187500.02, 0.000, 0.000, 0.000, 14:00:18.278
115, 66592.48, 14004.51, -187500.02, -187500.02, -187500.02, -180997.36, -187500.02, -187500.02, 0.000, 0.000, 0.000, 14:00:18.278
116, 69955.13, 17461.38, -187500.02, -187500.02, -187500.02, -180990.45, -187500.02, -187500.02, 0.000, 0.000, 0.000, 14:00:18.278
117, 70006.76, 17609.78, -187500.02, -187500.02, -187500.02, -181202.09, -187500.02, -187500.02, 0.000, 0.000, 0.000, 14:00:18.278
118, 68400.60, 16085.07, -187500.02, -187500.02, -187500.02, -181261.94, -187500.02, -187500.02, 0.000, 0.000, 0.000, 14:00:18.278
119, 65202.34, 12868.01, -187500.02, -187500.02, -187500.02, -181187.80, -187500.02, -187500.02, 0.000, 0.000, 0.000, 14:00:18.279
120, 66546.98, 13957.70, -187500.02, -187500.02, -187500.02, -180973.48, -187500.02, -187500.02, 0.000, 0.000, 0.000, 14:00:18.279
121, 69939.57, 17439.86, -187500.02, -187500.02, -187500.02, -180968.03, -187500.02, -187500.02, 0.012, -0.014, 1.026, 14:00:18.279
122, 70007.12, 17608.17, -187500.02, -187500.02, -187500.02, -181221.03, -187500.02, -187500.02, 0.000, 0.000, 0.000, 14:00:18.279
123, 68392.80, 16076.80, -187500.02, -187500.02, -187500.02, -181248.44, -187500.02, -187500.02, 0.000, 0.000, 0.000, 14:00:18.279
124, 65205.25, 12872.17, -187500.02, -187500.02, -187500.02, -181163.23, -187500.02, -187500.02, 0.000, 0.000, 0.000, 14:00:18.279
125, 66545.27, 13967.65, -187500.02, -187500.02, -187500.02, -180995.84, -187500.02, -187500.02, 0.000, 0.000, 0.000, 14:00:18.279
126, 69935.05, 17441.94, -187500.02, -187500.02, -187500.02, -180970.47, -187500.02, -187500.02, 0.000, 0.000, 0.000, 14:00:18.279
127, 70011.31, 17620.77, -187500.02, -187500.02, -187500.02, -181171.50, -187500.02, -187500.02, 0.000, 0.000, 0.000, 14:00:18.280
128, 68423.29, 16105.64, -187500.02, -187500.02, -187500.02, -181218.30, -187500.02, -187500.02, 0.000, 0.000, 0.000, 14:00:18.280
129, 65234.32, 12894.23, -187500.02, -187500.02, -187500.02, -181140.19, -187500.02, -187500.02, 0.000, 0.000, 0.000, 14:00:18.280
130, 66543.55, 13955.45, -187500.02, -187500.02, -187500.02, -180977.95, -187500.02, -187500.02, 0.000, 0.000, 0.000, 14:00:18.280
131, 69954.72, 17458.95, -187500.02, -187500.02, -187500.02, -180930.38, -187500.02, -187500.02, 0.014, -0.012, 1.028, 14:00:18.280
132, 70053.98, 17667.02, -187500.02, -187500.02, -187500.02, -181169.39, -187500.02, -187500.02, 0.000, 0.000, 0.000, 14:00:18.280
133, 68469.34, 16171.96, -187500.02, -187500.02, -187500.02, -181213.45, -187500.02, -187500.02, 0.000, 0.000, 0.000, 14:00:18.280
134, 65270.04, 12956.61, -187500.02, -187500.02, -187500.02, -181098.75, -187500.02, -187500.02, 0.000, 0.000, 0.000, 14:00:18.280
135, 66560.72, 13994.58, -187500.02, -187500.02, -187500.02, -180935.16, -187500.02, -187500.02, 0.000, 0.000, 0.000, 14:00:18.280
136, 69987.63, 17508.81, -187500.02, -187500.02, -187500.02, -180947.06, -187500.02, -187500.02, 0.000, 0.000, 0.000, 14:00:18.281
137, 70106.71, 17730.61, -187500.02, -187500.02, -187500.02, -181215.00, -187500.02, -187500.02, 0.000, 0.000, 0.000, 14:00:18.281
138, 68537.22, 16242.70, -187500.02, -187500.02, -187500.02, -181267.61, -187500.02, -187500.02, 0.000, 0.000, 0.000, 14:00:18.281
139, 65340.81, 13030.37, -187500.02, -187500.02, -187500.02, -181198.23, -187500.02, -187500.02, 0.000, 0.000, 0.000, 14:00:18.281
140, 66591.84, 14031.55, -187500.02, -187500.02, -187500.02, -181006.44, -187500.02, -187500.02, 0.000, 0.000, 0.000, 14:00:18.281
141, 70021.69, 17552.76, -187500.02, -187500.02, -187500.02, -180983.56, -187500.02, -187500.02, 0.010, -0.014, 1.020, 14:00:18.281
142, 70137.02, 17791.92, -187500.02, -187500.02, -187500.02, -181204.84, -187500.02, -187500.02, 0.000, 0.000, 0.000, 14:00:18.281
143, 68575.44, 16301.15, -187500.02, -187500.02, -187500.02, -181223.00, -187500.02, -187500.02, 0.000, 0.000, 0.000, 14:00:18.281
144, 65377.66, 13080.11, -187500.02, -187500.02, -187500.02, -181135.17, -187500.02, -187500.02, 0.000, 0.000, 0.000, 14:00:18.282
145, 66603.52, 14059.11, -187500.02, -187500.02, -187500.02, -180991.59, -187500.02, -187500.02, 0.000, 0.000, 0.000, 14:00:18.282
146, 70041.45, 17595.31, -187500.02, -187500.02, -187500.02, -180953.59, -187500.02, -187500.02, 0.000, 0.000, 0.000, 14:00:18.282
147, 70172.36, 17826.95, -187500.02, -187500.02, -187500.02, -181194.44, -187500.02, -187500.02, 0.000, 0.000, 0.000, 14:00:18.282
148, 68604.23, 16327.79, -187500.02, -187500.02, -187500.02, -181189.00, -187500.02, -187500.02, 0.000, 0.000, 0.000, 14:00:18.282
