%OpenBCI Raw EEG Data
%
%Sample Rate = 250.0 Hz
%First Column = SampleIndex
%Last Column = Timestamp 
%Other Columns = EEG data in microvolts followed by Accel Data (in G) interleaved with Aux Data
0, 24012.34, 14127.08, -187500.02, 187500.00, -187500.02, -187500.02, -187500.02, -187500.02, 0.006, -0.008, 1.032, 17:03:10.957
1, 23781.67, 13894.13, -187500.02, 187500.00, -187500.02, -187500.02, -187500.02, -187500.02, 0.000, 0.000, 0.000, 17:03:10.957
2, 23199.50, 13304.36, -187500.02, 187500.00, -187500.02, -187500.02, -187500.02, -187500.02, 0.000, 0.000, 0.000, 17:03:10.958
3, 22968.81, 13065.13, -187500.02, 187500.00, -187500.02, -187500.02, -187500.02, -187500.02, 0.000, 0.000, 0.000, 17:03:10.958
4, 23751.48, 13851.06, -187500.02, 187500.00, -187500.02, -187500.02, -187500.02, -187500.02, 0.000, 0.000, 0.000, 17:03:10.958
5, 24020.44, 14125.70, -187500.02, 187500.00, -187500.02, -187500.02, -187500.02, -187500.02, 0.000, 0.000, 0.000, 17:03:10.958
6, 23782.75, 13888.90, -187500.02, 187500.00, -187500.02, -187500.02, -187500.02, -187500.02, 0.000, 0.000, 0.000, 17:03:10.958
7, 23199.88, 13308.29, -187500.02, 187500.00, -187500.02, -187500.02, -187500.02, -187500.02, -0.004, -0.036, 0.988, 17:03:10.958
8, 22971.36, 13064.53, -187500.02, 187500.00, -187500.02, -187500.02, -187500.02, -187500.02, 0.000, 0.000, 0.000, 17:03:10.959
9, 23762.34, 13858.04, -187500.02, 187500.00, -187500.02, -187500.02, -187500.02, -187500.02, 0.000, 0.000, 0.000, 17:03:10.959
10, 24022.00, 14127.08, -187500.02, 187500.00, -187500.02, -187500.02, -187500.02, -187500.02, 0.000, 0.000, 0.000, 17:03:10.959
11, 23794.17, 13900.08, -187500.02, 187500.00, -187500.02, -187500.02, -187500.02, -187500.02, 0.000, 0.000, 0.000, 17:03:10.959
12, 23216.02, 13325.64, -187500.02, 187500.00, -187500.02, -187500.02, -187500.02, -187500.02, 0.000, 0.000, 0.000, 17:03:10.959
13, 22965.14, 13062.78, -187500.02, 187500.00, -187500.02, -187500.02, -187500.02, -187500.02, 0.000, 0.000, 0.000, 17:03:10.959
14, 23755.75, 13852.38, -187500.02, 187500.00, -187500.02, -187500.02, -187500.02, -187500.02, 0.000, 0.000, 0.000, 17:03:10.959
15, 24019.90, 14125.92, -187500.02, 187500.00, -187500.02, -187500.02, -187500.02, -187500.02, 0.000, 0.000, 0.000, 17:03:10.960
16, 23787.44, 13892.55, -187500.02, 187500.00, -187500.02, -187500.02, -187500.02, -187500.02, 0.000, 0.000, 0.000, 17:03:10.960
17, 23221.41, 13325.93, -187500.02, 187500.00, -187500.02, -187500.02, -187500.02, -187500.02, 0.002, -0.030, 1.002, 17:03:10.960
18, 22960.47, 13054.16, -187500.02, 187500.00, -187500.02, -187500.02, -187500.02, -187500.02, 0.000, 0.000, 0.000, 17:03:10.960
19, 23750.02, 13847.15, -187500.02, 187500.00, -187500.02, -187500.02, -187500.02, -187500.02, 0.000, 0.000, 0.000, 17:03:10.960
20, 24021.49, 14133.59, -187500.02, 187500.00, -187500.02, -187500.02, -187500.02, -187500.02, 0.000, 0.000, 0.000, 17:03:10.960
21, 23792.34, 13901.58, -187500.02, 187500.00, -187500.02, -187500.02, -187500.02, -187500.02, 0.000, 0.000, 0.000, 17:03:10.960
22, 23226.66, 13331.67, -187500.02, 187500.00, -187500.02, -187500.02, -187500.02, -187500.02, 0.000, 0.000, 0.000, 17:03:10.960
23, 22957.72, 13049.84, -187500.02, 187500.00, -187500.02, -187500.02, -187500.02, -187500.02, 0.000, 0.000, 0.000, 17:03:10.961
24, 23744.12, 13836.71, -187500.02, 187500.00, -187500.02, -187500.02, -187500.02, -187500.02, 0.000, 0.000, 0.000, 17:03:10.961
25, 24030.96, 14130.73, -187500.02, 187500.00, -187500.02, -187500.02, -187500.02, -187500.02, 0.000, 0.000, 0.000, 17:03:10.961
26, 23802.21, 13904.89, -187500.02, 187500.00, -187500.02, -187500.02, -187500.02, -187500.02, 0.000, 0.000, 0.000, 17:03:10.961
27, 23235.49, 13341.51, -187500.02, 187500.00, -187500.02, -187500.02, -187500.02, -187500.02, 0.006, -0.018, 1.008, 17:03:10.961
28, 22956.27, 13052.77, -187500.02, 187500.00, -187500.02, -187500.02, -187500.02, -187500.02, 0.000, 0.000, 0.000, 17:03:10.961
29, 23736.57, 13835.35, -187500.02, 187500.00, -187500.02, -187500.02, -187500.02, -187500.02, 0.000, 0.000, 0.000, 17:03:10.961
30, 24020.88, 14128.51, -187500.02, 187500.00, -187500.02, -187500.02, -187500.02, -187500.02, 0.000, 0.000, 0.000, 17:03:10.961
31, 23796.76, 13905.53, -187500.02, 187500.00, -187500.02, -187500.02, -187500.02, -187500.02, 0.000, 0.000, 0.000, 17:03:10.962
32, 23236.96, 13347.59, -187500.02, 187500.00, -187500.02, -187500.02, -187500.02, -187500.02, 0.000, 0.000, 0.000, 17:03:10.962
33, 22957.95, 13054.42, -187500.02, 187500.00, -187500.02, -187500.02, -187500.02, -187500.02, 0.000, 0.000, 0.000, 17:03:10.962
34, 23740.77, 13836.58, -187500.02, 187500.00, -187500.02, -187500.02, -187500.02, -187500.02, 0.000, 0.000, 0.000, 17:03:10.962
35, 24030.61, 14134.66, -187500.02, 187500.00, -187500.02, -187500.02, -187500.02, -187500.02, 0.000, 0.000, 0.000, 17:03:10.962
36, 23792.29, 13898.54, -187500.02, 187500.00, -187500.02, -187500.02, -187500.02, -187500.02, 0.000, 0.000, 0.000, 17:03:10.962
37, 23244.90, 13351.84, -187500.02, 187500.00, -187500.02, -187500.02, -187500.02, -187500.02, 0.004, -0.012, 1.016, 17:03:10.963
38, 22960.22, 13055.03, -187500.02, 187500.00, -187500.02, -187500.02, -187500.02, -187500.02, 0.000, 0.000, 0.000, 17:03:10.963
39, 23739.61, 13838.21, -187500.02, 187500.00, -187500.02, -187500.02, -187500.02, -187500.02, 0.000, 0.000, 0.000, 17:03:10.963
40, 24033.22, 14141.12, -187500.02, 187500.00, -187500.02, -187500.02, -187500.02, -187500.02, 0.000, 0.000, 0.000, 17:03:10.963
41, 23805.05, 13913.36, -187500.02, 187500.00, -187500.02, -187500.02, -187500.02, -187500.02, 0.000, 0.000, 0.000, 17:03:10.963
42, 23235.60, 13348.22, -187500.02, 187500.00, -187500.02, -187500.02, -187500.02, -187500.02, 0.000, 0.000, 0.000, 17:03:10.963
43, 22958.95, 13056.84, -187500.02, 187500.00, -187500.02, -187500.02, -187500.02, -187500.02, 0.000, 0.000, 0.000, 17:03:10.963
44, 23744.86, 13846.15, -187500.02, 187500.00, -187500.02, -187500.02, -187500.02, -187500.02, 0.000, 0.000, 0.000, 17:03:10.963
45, 24041.16, 14147.56, -187500.02, 187500.00, -187500.02, -187500.02, -187500.02, -187500.02, 0.000, 0.000, 0.000, 17:03:10.964
46, 23821.68, 13924.04, -187500.02, 187500.00, -187500.02, -187500.02, -187500.02, -187500.02, 0.010, -0.016, 1.020, 17:03:10.964
47, 23249.79, 13354.23, -187500.02, 187500.00, -187500.02, -187500.02, -187500.02, -187500.02, 0.000, 0.000, 0.000, 17:03:10.964
48, 22957.05, 13054.63, -187500.02, 187500.00, -187500.02, -187500.02, -187500.02, -187500.02, 0.000, 0.000, 0.000, 17:03:10.964
49, 23740.30, 13842.73, -187500.02, 187500.00, -187500.02, -187500.02, -187500.02, -187500.02, 0.000, 0.000, 0.000, 17:03:10.964
50, 24042.00, 14154.60, -187500.02, 187500.00, -187500.02, -187500.02, -187500.02, -187500.02, 0.000, 0.000, 0.000, 17:03:10.964
51, 23815.96, 13925.47, -187500.02, 187500.00, -187500.02, -187500.02, -187500.02, -187500.02, 0.000, 0.000, 0.000, 17:03:10.964
52, 23248.94, 13360.26, -187500.02, 187500.00, -187500.02, -187500.02, -187500.02, -187500.02, 0.000, 0.000, 0.000, 17:03:10.964
53, 22959.89, 13061.11, -187500.02, 187500.00, -187500.02, -187500.02, -187500.02, -187500.02, 0.000, 0.000, 0.000, 17:03:10.965
54, 23729.30, 13827.93, -187500.02, 187500.00, -187500.02, -187500.02, -187500.02, -187500.02, 0.000, 0.000, 0.000, 17:03:10.965
55, 24022.69, 14129.99, -187500.02, 187500.00, -187500.02, -187500.02, -187500.02, -187500.02, 0.000, 0.000, 0.000, 17:03:10.965
56, 23824.61, 13929.88, -187500.02, 187500.00, -187500.02, -187500.02, -187500.02, -187500.02, 0.012, -0.012, 1.022, 17:03:10.965
57, 23276.37, 13384.42, -187500.02, 187500.00, -187500.02, -187500.02, -187500.02, -187500.02, 0.000, 0.000, 0.000, 17:03:10.965
58, 22955.35, 13054.38, -187500.02, 187500.00, -187500.02, -187500.02, -187500.02, -187500.02, 0.000, 0.000, 0.000, 17:03:10.965
59, 23711.94, 13809.04, -187500.02, 187500.00, -187500.02, -187500.02, -187500.02, -187500.02, 0.000, 0.000, 0.000, 17:03:10.965
60, 24029.51, 14135.24, -187500.02, 187500.00, -187500.02, -187500.02, -187500.02, -187500.02, 0.000, 0.000, 0.000, 17:03:10.966
61, 23800.56, 13908.64, -187500.02, 187500.00, -187500.02, -187500.02, -187500.02, -187500.02, 0.000, 0.000, 0.000, 17:03:10.966
62, 23242.42, 13353.00, -187500.02, 187500.00, -187500.02, -187500.02, -187500.02, -187500.02, 0.000, 0.000, 0.000, 17:03:10.966
63, 22923.86, 13026.66, -187500.02, 187500.00, -187500.02, -187500.02, -187500.02, -187500.02, 0.000, 0.000, 0.000, 17:03:10.966
64, 23665.76, 13772.76, -187500.02, 187500.00, -187500.02, -187500.02, -187500.02, -187500.02, 0.000, 0.000, 0.000, 17:03:10.967
65, 23986.44, 14104.40, -187500.02, 187500.00, -187500.02, -187500.02, -187500.02, -187500.02, 0.000, 0.000, 0.000, 17:03:10.967
66, 23769.60, 13887.43, -187500.02, 187500.00, -187500.02, -187500.02, -187500.02, -187500.02, 0.008, -0.010, 1.026, 17:03:10.967
67, 23217.72, 13337.58, -187500.02, 187500.00, -187500.02, -187500.02, -187500.02, -187500.02, 0.000, 0.000, 0.000, 17:03:10.968
68, 22913.44, 13029.39, -187500.02, 187500.00, -187500.02, -187500.02, -187500.02, -187500.02, 0.000, 0.000, 0.000, 17:03:10.968
69, 23674.99, 13782.87, -187500.02, 187500.00, -187500.02, -187500.02, -187500.02, -187500.02, 0.000, 0.000, 0.000, 17:03:10.968
70, 23984.67, 14101.25, -187500.02, 187500.00, -187500.02, -187500.02, -187500.02, -187500.02, 0.000, 0.000, 0.000, 17:03:10.968
71, 23752.48, 13870.26, -187500.02, 187500.00, -187500.02, -187500.02, -187500.02, -187500.02, 0.000, 0.000, 0.000, 17:03:10.968
72, 23215.35, 13335.56, -187500.02, 187500.00, -187500.02, -187500.02, -187500.02, -187500.02, 0.000, 0.000, 0.000, 17:03:10.968
73, 22897.26, 13014.06, -187500.02, 187500.00, -187500.02, -187500.02, -187500.02, -187500.02, 0.000, 0.000, 0.000, 17:03:10.969
74, 23666.23, 13784.14, -187500.02, 187500.00, -187500.02, -187500.02, -187500.02, -187500.02, 0.000, 0.000, 0.000, 17:03:10.969
75, 23999.42, 14117.83, -187500.02, 187500.00, -187500.02, -187500.02, -187500.02, -187500.02, 0.000, 0.000, 0.000, 17:03:10.969
76, 23767.93, 13882.09, -187500.02, 187500.00, -187500.02, -187500.02, -187500.02, -187500.02, 0.008, -0.014, 1.022, 17:03:10.969
77, 23230.28, 13343.63, -187500.02, 187500.00, -187500.02, -187500.02, -187500.02, -187500.02, 0.000, 0.000, 0.000, 17:03:10.969
78, 22912.10, 13014.66, -187500.02, 187500.00, -187500.02, -187500.02, -187500.02, -187500.02, 0.000, 0.000, 0.000, 17:03:10.970
79, 23667.23, 13769.95, -187500.02, 187500.00, -187500.02, -187500.02, -187500.02, -187500.02, 0.000, 0.000, 0.000, 17:03:10.970
80, 23999.89, 14120.20, -187500.02, 187500.00, -187500.02, -187500.02, -187500.02, -187500.02, 0.000, 0.000, 0.000, 17:03:10.970
81, 23775.08, 13897.89, -187500.02, 187500.00, -187500.02, -187500.02, -187500.02, -187500.02, 0.000, 0.000, 0.000, 17:03:10.970
82, 23239.29, 13362.77, -187500.02, 187500.00, -187500.02, -187500.02, -187500.02, -187500.02, 0.000, 0.000, 0.000, 17:03:10.970
83, 22905.37, 13023.31, -187500.02, 187500.00, -187500.02, -187500.02, -187500.02, -187500.02, 0.000, 0.000, 0.000, 17:03:10.971
84, 23655.32, 13769.05, -187500.02, 187500.00, -187500.02, -187500.02, -187500.02, -187500.02, 0.000, 0.000, 0.000, 17:03:10.971
85, 23999.16, 14118.70, -187500.02, 187500.00, -187500.02, -187500.02, -187500.02, -187500.02, 0.000, 0.000, 0.000, 17:03:10.971
86, 23782.34, 13902.90, -187500.02, 187500.00, -187500.02, -187500.02, -187500.02, -187500.02, 0.006, -0.008, 1.024, 17:03:10.971
87, 23239.18, 13356.93, -187500.02, 187500.00, -187500.02, -187500.02, -187500.02, -187500.02, 0.000, 0.000, 0.000, 17:03:10.971
88, 22894.73, 13005.61, -187500.02, 187500.00, -187500.02, -187500.02, -187500.02, -187500.02, 0.000, 0.000, 0.000, 17:03:10.971
89, 23655.83, 13771.80, -187500.02, 187500.00, -187500.02, -187500.02, -187500.02, -187500.02, 0.000, 0.000, 0.000, 17:03:10.972
90, 24004.01, 14125.21, -187500.02, 187500.00, -187500.02, -187500.02, -187500.02, -187500.02, 0.000, 0.000, 0.000, 17:03:10.972
91, 23803.02, 13917.51, -187500.02, 187500.00, -187500.02, -187500.02, -187500.02, -187500.02, 0.000, 0.000, 0.000, 17:03:10.972
92, 23265.84, 13380.22, -187500.02, 187500.00, -187500.02, -187500.02, -187500.02, -187500.02, 0.000, 0.000, 0.000, 17:03:10.972
93, 22900.79, 13011.26, -187500.02, 187500.00, -187500.02, -187500.02, -187500.02, -187500.02, 0.000, 0.000, 0.000, 17:03:10.972
94, 23649.40, 13762.33, -187500.02, 187500.00, -187500.02, -187500.02, -187500.02, -187500.02, 0.000, 0.000, 0.000, 17:03:10.973
95, 24004.41, 14120.67, -187500.02, 187500.00, -187500.02, -187500.02, -187500.02, -187500.02, 0.000, 0.000, 0.000, 17:03:10.973
96, 23789.77, 13907.88, -187500.02, 187500.00, -187500.02, -187500.02, -187500.02, -187500.02, 0.008, -0.008, 1.020, 17:03:10.973
97, 23262.55, 13388.40, -187500.02, 187500.00, -187500.02, -187500.02, -187500.02, -187500.02, 0.000, 0.000, 0.000, 17:03:10.973
98, 22902.47, 13014.41, -187500.02, 187500.00, -187500.02, -187500.02, -187500.02, -187500.02, 0.000, 0.000, 0.000, 17:03:10.973
99, 23652.59, 13762.71, -187500.02, 187500.00, -187500.02, -187500.02, -187500.02, -187500.02, 0.000, 0.000, 0.000, 17:03:10.973
100, 24009.46, 14125.70, -187500.02, 187500.00, -187500.02, -187500.02, -187500.02, -187500.02, 0.000, 0.000, 0.000, 17:03:10.974
101, 23799.82, 13919.28, -187500.02, 187500.00, -187500.02, -187500.02, -187500.02, -187500.02, 0.000, 0.000, 0.000, 17:03:10.974
102, 23284.84, 13407.67, -187500.02, 187500.00, -187500.02, -187500.02, -187500.02, -187500.02, 0.000, 0.000, 0.000, 17:03:10.974
103, 22914.14, 13027.24, -187500.02, 187500.00, -187500.02, -187500.02, -187500.02, -187500.02, 0.000, 0.000, 0.000, 17:03:10.974
104, 23653.87, 13768.67, -187500.02, 187500.00, -187500.02, -187500.02, -187500.02, -187500.02, 0.000, 0.000, 0.000, 17:03:10.974
105, 24009.30, 14129.43, -187500.02, 187500.00, -187500.02, -187500.02, -187500.02, -187500.02, 0.000, 0.000, 0.000, 17:03:10.975
106, 23796.18, 13913.58, -187500.02, 187500.00, -187500.02, -187500.02, -187500.02, -187500.02, 0.008, -0.008, 1.018, 17:03:10.975
107, 23262.96, 13385.92, -187500.02, 187500.00, -187500.02, -187500.02, -187500.02, -187500.02, 0.000, 0.000, 0.000, 17:03:10.975
108, 22912.66, 13025.19, -187500.02, 187500.00, -187500.02, -187500.02, -187500.02, -187500.02, 0.000, 0.000, 0.000, 17:03:10.975
109, 23661.20, 13770.26, -187500.02, 187500.00, -187500.02, -187500.02, -187500.02, -187500.02, 0.000, 0.000, 0.000, 17:03:10.975
110, 24022.71, 14145.97, -187500.02, 187500.00, -187500.02, -187500.02, -187500.02, -187500.02, 0.000, 0.000, 0.000, 17:03:10.975
111, 23802.13, 13928.56, -187500.02, 187500.00, -187500.02, -187500.02, -187500.02, -187500.02, 0.000, 0.000, 0.000, 17:03:10.975
112, 23261.10, 13377.63, -187500.02, 187500.00, -187500.02, -187500.02, -187500.02, -187500.02, 0.000, 0.000, 0.000, 17:03:10.975
113, 22892.19, 12986.83, -187500.02, 187500.00, -187500.02, -187500.02, -187500.02, -187500.02, 0.000, 0.000, 0.000, 17:03:10.976
114, 23617.63, 13718.23, -187500.02, 187500.00, -187500.02, -187500.02, -187500.02, -187500.02, 0.000, 0.000, 0.000, 17:03:10.976
115, 23982.73, 14095.88, -187500.02, 187500.00, -187500.02, -187500.02, -187500.02, -187500.02, 0.000, 0.000, 0.000, 17:03:10.976
116, 23767.12, 13875.47, -187500.02, 187500.00, -187500.02, -187500.02, -187500.02, -187500.02, 0.010, -0.014, 1.030, 17:03:10.976
117, 23227.73, 13337.84, -187500.02, 187500.00, -187500.02, -187500.02, -187500.02, -187500.02, 0.000, 0.000, 0.000, 17:03:10.976
118, 22834.50, 12934.48, -187500.02, 187500.00, -187500.02, -187500.02, -187500.02, -187500.02, 0.000, 0.000, 0.000, 17:03:10.976
119, 23563.30, 13659.06, -187500.02, 187500.00, -187500.02, -187500.02, -187500.02, -187500.02, 0.000, 0.000, 0.000, 17:03:10.976
120, 23929.40, 14033.39, -187500.02, 187500.00, -187500.02, -187500.02, -187500.02, -187500.02, 0.000, 0.000, 0.000, 17:03:11.437
121, 23704.63, 13813.96, -187500.02, 187500.00, -187500.02, -187500.02, -187500.02, -187500.02, 0.000, 0.000, 0.000, 17:03:11.438
122, 23200.64, 13314.84, -187500.02, 187500.00, -187500.02, -187500.02, -187500.02, -187500.02, 0.000, 0.000, 0.000, 17:03:11.438
123, 22808.84, 12917.14, -187500.02, 187500.00, -187500.02, -187500.02, -187500.02, -187500.02, 0.000, 0.000, 0.000, 17:03:11.438
124, 23550.54, 13659.17, -187500.02, 187500.00, -187500.02, -187500.02, -187500.02, -187500.02, 0.000, 0.000, 0.000, 17:03:11.438
125, 23935.79, 14053.23, -187500.02, 187500.00, -187500.02, -187500.02, -187500.02, -187500.02, 0.000, 0.000, 0.000, 17:03:11.438
126, 23732.12, 13848.78, -187500.02, 187500.00, -187500.02, -187500.02, -187500.02, -187500.02, 0.002, -0.014, 1.032, 17:03:11.439
127, 23210.90, 13330.69, -187500.02, 187500.00, -187500.02, -187500.02, -187500.02, -187500.02, 0.000, 0.000, 0.000, 17:03:11.439
128, 22817.51, 12925.21, -187500.02, 187500.00, -187500.02, -187500.02, -187500.02, -187500.02, 0.000, 0.000, 0.000, 17:03:11.439
129, 23553.82, 13655.78, -187500.02, 187500.00, -187500.02, -187500.02, -187500.02, -187500.02, 0.000, 0.000, 0.000, 17:03:11.439
130, 23945.89, 14059.94, -187500.02, 187500.00, -187500.02, -187500.02, -187500.02, -187500.02, 0.000, 0.000, 0.000, 17:03:11.439
131, 23747.41, 13866.64, -187500.02, 187500.00, -187500.02, -187500.02, -187500.02, -187500.02, 0.000, 0.000, 0.000, 17:03:11.439
132, 23238.33, 13356.91, -187500.02, 187500.00, -187500.02, -187500.02, -187500.02, -187500.02, 0.000, 0.000, 0.000, 17:03:11.439
133, 22850.84, 12961.62, -187500.02, 187500.00, -187500.02, -187500.02, -187500.02, -187500.02, 0.000, 0.000, 0.000, 17:03:11.440
134, 23551.83, 13662.03, -187500.02, 187500.00, -187500.02, -187500.02, -187500.02, -187500.02, 0.000, 0.000, 0.000, 17:03:11.440
135, 23964.42, 14085.51, -187500.02, 187500.00, -187500.02, -187500.02, -187500.02, -187500.02, 0.000, 0.000, 0.000, 17:03:11.440
136, 23773.43, 13895.14, -187500.02, 187500.00, -187500.02, -187500.02, -187500.02, -187500.02, 0.006, -0.012, 1.026, 17:03:11.440
137, 23261.55, 13385.65, -187500.02, 187500.00, -187500.02, -187500.02, -187500.02, -187500.02, 0.000, 0.000, 0.000, 17:03:11.440
138, 22863.82, 12982.07, -187500.02, 187500.00, -187500.02, -187500.02, -187500.02, -187500.02, 0.000, 0.000, 0.000, 17:03:11.441
139, 23577.71, 13698.06, -187500.02, 187500.00, -187500.02, -187500.02, -187500.02, -187500.02, 0.000, 0.000, 0.000, 17:03:11.441
140, 23976.89, 14108.22, -187500.02, 187500.00, -187500.02, -187500.02, -187500.02, -187500.02, 0.000, 0.000, 0.000, 17:03:11.441
141, 23761.09, 13885.77, -187500.02, 187500.00, -187500.02, -187500.02, -187500.02, -187500.02, 0.000, 0.000, 0.000, 17:03:11.441
142, 23260.86, 13382.30, -187500.02, 187500.00, -187500.02, -187500.02, -187500.02, -187500.02, 0.000, 0.000, 0.000, 17:03:11.441
143, 22865.12, 12979.63, -187500.02, 187500.00, -187500.02, -187500.02, -187500.02, -187500.02, 0.000, 0.000, 0.000, 17:03:11.441
144, 23587.57, 13710.60, -187500.02, 187500.00, -187500.02, -187500.02, -187500.02, -187500.02, 0.000, 0.000, 0.000, 17:03:11.442
145, 24001.12, 14138.39, -187500.02, 187500.00, -187500.02, -187500.02, -187500.02, -187500.02, 0.000, 0.000, 0.000, 17:03:11.442
146, 23799.06, 13930.48, -187500.02, 187500.00, -187500.02, -187500.02, -187500.02, -187500.02, 0.004, -0.014, 1.024, 17:03:11.442
147, 23290.14, 13417.57, -187500.02, 187500.00, -187500.02, -187500.02, -187500.02, -187500.02, 0.000, 0.000, 0.000, 17:03:11.442
148, 22876.43, 12991.48, -187500.02, 187500.00, -187500.02, -187500.02, -187500.02, -187500.02, 0.000, 0.000, 0.000, 17:03:11.442
149, 23579.70, 13696.05, -187500.02, 187500.00, -187500.02, -187500.02, -187500.02, -187500.02, 0.000, 0.000, 0.000, 17:03:11.442
150, 23985.90, 14116.65, -187500.02, 187500.00, -187500.02, -187500.02, -187500.02, -187500.02, 0.000, 0.000, 0.000, 17:03:11.443
151, 23804.25, 13934.52, -187500.02, 187500.00, -187500.02, -187500.02, -187500.02, -187500.02, 0.000, 0.000, 0.000, 17:03:11.443
152, 23283.57, 13412.25, -187500.02, 187500.00, -187500.02, -187500.02, -187500.02, -187500.02, 0.000, 0.000, 0.000, 17:03:11.443
153, 22851.73, 12968.46, -187500.02, 187500.00, -187500.02, -187500.02, -187500.02, -187500.02, 0.000, 0.000, 0.000, 17:03:11.443
154, 23566.45, 13682.02, -187500.02, 187500.00, -187500.02, -187500.02, -187500.02, -187500.02, 0.000, 0.000, 0.000, 17:03:11.443
155, 23973.45, 14099.44, -187500.02, 187500.00, -187500.02, -187500.02, -187500.02, -187500.02, 0.000, 0.000, 0.000, 17:03:11.444
156, 23767.21, 13893.67, -187500.02, 187500.00, -187500.02, -187500.02, -187500.02, -187500.02, 0.012, -0.016, 1.024, 17:03:11.444
157, 23261.66, 13388.20, -187500.02, 187500.00, -187500.02, -187500.02, -187500.02, -187500.02, 0.000, 0.000, 0.000, 17:03:11.444
158, 22854.05, 12967.32, -187500.02, 187500.00, -187500.02, -187500.02, -187500.02, -187500.02, 0.000, 0.000, 0.000, 17:03:11.444
159, 23564.04, 13667.44, -187500.02, 187500.00, -187500.02, -187500.02, -187500.02, -187500.02, 0.000, 0.000, 0.000, 17:03:11.444
160, 23981.95, 14106.70, -187500.02, 187500.00, -187500.02, -187500.02, -187500.02, -187500.02, 0.000, 0.000, 0.000, 17:03:11.444
161, 23764.75, 13903.14, -187500.02, 187500.00, -187500.02, -187500.02, -187500.02, -187500.02, 0.000, 0.000, 0.000, 17:03:11.445
162, 23270.15, 13402.80, -187500.02, 187500.00, -187500.02, -187500.02, -187500.02, -187500.02, 0.000, 0.000, 0.000, 17:03:11.445
163, 22864.80, 12976.84, -187500.02, 187500.00, -187500.02, -187500.02, -187500.02, -187500.02, 0.000, 0.000, 0.000, 17:03:11.445
164, 23566.23, 13670.68, -187500.02, 187500.00, -187500.02, -187500.02, -187500.02, -187500.02, 0.000, 0.000, 0.000, 17:03:11.445
165, 23981.19, 14098.47, -187500.02, 187500.00, -187500.02, -187500.02, -187500.02, -187500.02, 0.016, -0.018, 1.022, 17:03:11.445
166, 23783.51, 13900.15, -187500.02, 187500.00, -187500.02, -187500.02, -187500.02, -187500.02, 0.000, 0.000, 0.000, 17:03:11.446
167, 23275.65, 13389.05, -187500.02, 187500.00, -187500.02, -187500.02, -187500.02, -187500.02, 0.000, 0.000, 0.000, 17:03:11.446
168, 22852.60, 12959.45, -187500.02, 187500.00, -187500.02, -187500.02, -187500.02, -187500.02, 0.000, 0.000, 0.000, 17:03:11.446
169, 23578.81, 13688.63, -187500.02, 187500.00, -187500.02, -187500.02, -187500.02, -187500.02, 0.000, 0.000, 0.000, 17:03:11.446
170, 23994.33, 14111.33, -187500.02, 187500.00, -187500.02, -187500.02, -187500.02, -187500.02, 0.000, 0.000, 0.000, 17:03:11.446
171, 23813.08, 13927.51, -187500.02, 187500.00, -187500.02, -187500.02, -187500.02, -187500.02, 0.000, 0.000, 0.000, 17:03:11.446
172, 23311.71, 13432.12, -187500.02, 187500.00, -187500.02, -187500.02, -187500.02, -187500.02, 0.000, 0.000, 0.000, 17:03:11.447
173, 22864.45, 12977.89, -187500.02, 187500.00, -187500.02, -187500.02, -187500.02, -187500.02, 0.000, 0.000, 0.000, 17:03:11.447
174, 23545.39, 13662.79, -187500.02, 187500.00, -187500.02, -187500.02, -187500.02, -187500.02, 0.000, 0.000, 0.000, 17:03:11.447
175, 23998.78, 14133.12, -187500.02, 187500.00, -187500.02, -187500.02, -187500.02, -187500.02, 0.014, -0.010, 1.020, 17:03:11.447
176, 23818.35, 13945.68, -187500.02, 187500.00, -187500.02, -187500.02, -187500.02, -187500.02, 0.000, 0.000, 0.000, 17:03:11.447
177, 23320.89, 13452.69, -187500.02, 187500.00, -187500.02, -187500.02, -187500.02, -187500.02, 0.000, 0.000, 0.000, 17:03:11.448
178, 22885.21, 13008.87, -187500.02, 187500.00, -187500.02, -187500.02, -187500.02, -187500.02, 0.000, 0.000, 0.000, 17:03:11.448
179, 23559.16, 13677.61, -187500.02, 187500.00, -187500.02, -187500.02, -187500.02, -187500.02, 0.000, 0.000, 0.000, 17:03:11.448
180, 23998.35, 14134.59, -187500.02, 187500.00, -187500.02, -187500.02, -187500.02, -187500.02, 0.000, 0.000, 0.000, 17:03:11.448
181, 23813.48, 13941.18, -187500.02, 187500.00, -187500.02, -187500.02, -187500.02, -187500.02, 0.000, 0.000, 0.000, 17:03:11.448
182, 23320.78, 13441.58, -187500.02, 187500.00, -187500.02, -187500.02, -187500.02, -187500.02, 0.000, 0.000, 0.000, 17:03:11.449
183, 22888.21, 13005.67, -187500.02, 187500.00, -187500.02, -187500.02, -187500.02, -187500.02, 0.000, 0.000, 0.000, 17:03:11.449
184, 23569.94, 13692.72, -187500.02, 187500.00, -187500.02, -187500.02, -187500.02, -187500.02, 0.000, 0.000, 0.000, 17:03:11.449
185, 24003.89, 14137.48, -187500.02, 187500.00, -187500.02, -187500.02, -187500.02, -187500.02, 0.012, -0.010, 1.016, 17:03:11.449
186, 23811.76, 13940.69, -187500.02, 187500.00, -187500.02, -187500.02, -187500.02, -187500.02, 0.000, 0.000, 0.000, 17:03:11.449
187, 23336.52, 13466.57, -187500.02, 187500.00, -187500.02, -187500.02, -187500.02, -187500.02, 0.000, 0.000, 0.000, 17:03:11.449
188, 22900.35, 13032.94, -187500.02, 187500.00, -187500.02, -187500.02, -187500.02, -187500.02, 0.000, 0.000, 0.000, 17:03:11.450
189, 23576.24, 13711.54, -187500.02, 187500.00, -187500.02, -187500.02, -187500.02, -187500.02, 0.000, 0.000, 0.000, 17:03:11.450
190, 24019.09, 14150.04, -187500.02, 187500.00, -187500.02, -187500.02, -187500.02, -187500.02, 0.000, 0.000, 0.000, 17:03:11.450
191, 23842.00, 13977.08, -187500.02, 187500.00, -187500.02, -187500.02, -187500.02, -187500.02, 0.000, 0.000, 0.000, 17:03:11.451
192, 23362.76, 13510.69, -187500.02, 187500.00, -187500.02, -187500.02, -187500.02, -187500.02, 0.000, 0.000, 0.000, 17:03:11.451
193, 22903.81, 13043.96, -187500.02, 187500.00, -187500.02, -187500.02, -187500.02, -187500.02, 0.000, 0.000, 0.000, 17:03:11.451
194, 23560.10, 13687.11, -187500.02, 187500.00, -187500.02, -187500.02, -187500.02, -187500.02, 0.000, 0.000, 0.000, 17:03:11.451
195, 24021.38, 14161.82, -187500.02, 187500.00, -187500.02, -187500.02, -187500.02, -187500.02, 0.014, -0.016, 1.024, 17:03:11.451
196, 23830.42, 13968.92, -187500.02, 187500.00, -187500.02, -187500.02, -187500.02, -187500.02, 0.000, 0.000, 0.000, 17:03:11.451
197, 23337.43, 13477.86, -187500.02, 187500.00, -187500.02, -187500.02, -187500.02, -187500.02, 0.000, 0.000, 0.000, 17:03:11.452
198, 22866.50, 13006.05, -187500.02, 187500.00, -187500.02, -187500.02, -187500.02, -187500.02, 0.000, 0.000, 0.000, 17:03:11.452
199, 23538.44, 13671.80, -187500.02, 187500.00, -187500.02, -187500.02, -187500.02, -187500.02, 0.000, 0.000, 0.000, 17:03:11.452
200, 24003.83, 14134.37, -187500.02, 187500.00, -187500.02, -187500.02, -187500.02, -187500.02, 0.000, 0.000, 0.000, 17:03:11.452
201, 23816.14, 13946.62, -187500.02, 187500.00, -187500.02, -187500.02, -187500.02, -187500.02, 0.000, 0.000, 0.000, 17:03:11.452
202, 23337.66, 13471.15, -187500.02, 187500.00, -187500.02, -187500.02, -187500.02, -187500.02, 0.000, 0.000, 0.000, 17:03:11.453
203, 22872.74, 13001.92, -187500.02, 187500.00, -187500.02, -187500.02, -187500.02, -187500.02, 0.000, 0.000, 0.000, 17:03:11.453
204, 23543.29, 13673.70, -187500.02, 187500.00, -187500.02, -187500.02, -187500.02, -187500.02, 0.000, 0.000, 0.000, 17:03:11.453
205, 23996.38, 14137.50, -187500.02, 187500.00, -187500.02, -187500.02, -187500.02, -187500.02, 0.012, -0.012, 1.022, 17:03:11.453
206, 23828.88, 13966.17, -187500.02, 187500.00, -187500.02, -187500.02, -187500.02, -187500.02, 0.000, 0.000, 0.000, 17:03:11.453
207, 23355.96, 13491.31, -187500.02, 187500.00, -187500.02, -187500.02, -187500.02, -187500.02, 0.000, 0.000, 0.000, 17:03:11.453
208, 22877.72, 13006.59, -187500.02, 187500.00, -187500.02, -187500.02, -187500.02, -187500.02, 0.000, 0.000, 0.000, 17:03:11.454
209, 23538.85, 13668.61, -187500.02, 187500.00, -187500.02, -187500.02, -187500.02, -187500.02, 0.000, 0.000, 0.000, 17:03:11.454
210, 24002.71, 14143.98, -187500.02, 187500.00, -187500.02, -187500.02, -187500.02, -187500.02, 0.000, 0.000, 0.000, 17:03:11.454
211, 23831.29, 13971.78, -187500.02, 187500.00, -187500.02, -187500.02, -187500.02, -187500.02, 0.000, 0.000, 0.000, 17:03:11.454
212, 23347.85, 13497.06, -187500.02, 187500.00, -187500.02, -187500.02, -187500.02, -187500.02, 0.000, 0.000, 0.000, 17:03:11.454
213, 22872.70, 13020.20, -187500.02, 187500.00, -187500.02, -187500.02, -187500.02, -187500.02, 0.000, 0.000, 0.000, 17:03:11.454
214, 23544.79, 13692.92, -187500.02, 187500.00, -187500.02, -187500.02, -187500.02, -187500.02, 0.000, 0.000, 0.000, 17:03:11.455
215, 24020.70, 14171.50, -187500.02, 187500.00, -187500.02, -187500.02, -187500.02, -187500.02, 0.014, -0.014, 1.020, 17:03:11.455
216, 23844.79, 13993.73, -187500.02, 187500.00, -187500.02, -187500.02, -187500.02, -187500.02, 0.000, 0.000, 0.000, 17:03:11.455
217, 23382.34, 13538.96, -187500.02, 187500.00, -187500.02, -187500.02, -187500.02, -187500.02, 0.000, 0.000, 0.000, 17:03:11.455
218, 22893.93, 13042.82, -187500.02, 187500.00, -187500.02, -187500.02, -187500.02, -187500.02, 0.000, 0.000, 0.000, 17:03:11.455
219, 23539.29, 13689.75, -187500.02, 187500.00, -187500.02, -187500.02, -187500.02, -187500.02, 0.000, 0.000, 0.000, 17:03:11.456
220, 24011.21, 14166.87, -187500.02, 187500.00, -187500.02, -187500.02, -187500.02, -187500.02, 0.000, 0.000, 0.000, 17:03:11.456
221, 23847.03, 13998.09, -187500.02, 187500.00, -187500.02, -187500.02, -187500.02, -187500.02, 0.000, 0.000, 0.000, 17:03:11.456
222, 23381.73, 13530.76, -187500.02, 187500.00, -187500.02, -187500.02, -187500.02, -187500.02, 0.000, 0.000, 0.000, 17:03:11.456
223, 22892.83, 13032.81, -187500.02, 187500.00, -187500.02, -187500.02, -187500.02, -187500.02, 0.000, 0.000, 0.000, 17:03:11.456
224, 23563.41, 13701.66, -187500.02, 187500.00, -187500.02, -187500.02, -187500.02, -187500.02, 0.000, 0.000, 0.000, 17:03:11.456
225, 24046.07, 14200.96, -187500.02, 187500.00, -187500.02, -187500.02, -187500.02, -187500.02, 0.014, -0.010, 1.020, 17:03:11.457
226, 23854.03, 14012.42, -187500.02, 187500.00, -187500.02, -187500.02, -187500.02, -187500.02, 0.000, 0.000, 0.000, 17:03:11.457
227, 23380.42, 13535.28, -187500.02, 187500.00, -187500.02, -187500.02, -187500.02, -187500.02, 0.000, 0.000, 0.000, 17:03:11.457
228, 22916.59, 13064.28, -187500.02, 187500.00, -187500.02, -187500.02, -187500.02, -187500.02, 0.000, 0.000, 0.000, 17:03:11.457
229, 23556.37, 13702.98, -187500.02, 187500.00, -187500.02, -187500.02, -187500.02, -187500.02, 0.000, 0.000, 0.000, 17:03:11.457
230, 24048.42, 14205.20, -187500.02, 187500.00, -187500.02, -187500.02, -187500.02, -187500.02, 0.000, 0.000, 0.000, 17:03:11.457
231, 23879.06, 14034.15, -187500.02, 187500.00, -187500.02, -187500.02, -187500.02, -187500.02, 0.000, 0.000, 0.000, 17:03:11.458
232, 23399.39, 13555.91, -187500.02, 187500.00, -187500.02, -187500.02, -187500.02, -187500.02, 0.000, 0.000, 0.000, 17:03:11.458
233, 22910.49, 13058.36, -187500.02, 187500.00, -187500.02, -187500.02, -187500.02, -187500.02, 0.000, 0.000, 0.000, 17:03:11.458
234, 23540.57, 13681.14, -187500.02, 187500.00, -187500.02, -187500.02, -187500.02, -187500.02, 0.000, 0.000, 0.000, 17:03:11.458
235, 24033.64, 14182.54, -187500.02, 187500.00, -187500.02, -187500.02, -187500.02, -187500.02, 0.006, -0.008, 1.016, 17:03:11.458
236, 23875.19, 14029.43, -187500.02, 187500.00, -187500.02, -187500.02, -187500.02, -187500.02, 0.000, 0.000, 0.000, 17:03:11.458
237, 23414.32, 13572.90, -187500.02, 187500.00, -187500.02, -187500.02, -187500.02, -187500.02, 0.000, 0.000, 0.000, 17:03:11.459
238, 22926.52, 13076.13, -187500.02, 187500.00, -187500.02, -187500.02, -187500.02, -187500.02, 0.000, 0.000, 0.000, 17:03:11.459
239, 23543.79, 13686.60, -187500.02, 187500.00, -187500.02, -187500.02, -187500.02, -187500.02, 0.000, 0.000, 0.000, 17:03:11.459
240, 24033.94, 14180.59, -187500.02, 187500.00, -187500.02, -187500.02, -187500.02, -187500.02, 0.000, 0.000, 0.000, 17:03:11.918
241, 23880.09, 14029.23, -187500.02, 187500.00, -187500.02, -187500.02, -187500.02, -187500.02, 0.000, 0.000, 0.000, 17:03:11.919
242, 23402.32, 13563.17, -187500.02, 187500.00, -187500.02, -187500.02, -187500.02, -187500.02, 0.000, 0.000, 0.000, 17:03:11.919
243, 22899.99, 13052.32, -187500.02, 187500.00, -187500.02, -187500.02, -187500.02, -187500.02, 0.000, 0.000, 0.000, 17:03:11.919
244, 23538.60, 13682.91, -187500.02, 187500.00, -187500.02, -187500.02, -187500.02, -187500.02, 0.000, 0.000, 0.000, 17:03:11.919
245, 24034.56, 14195.39, -187500.02, 187500.00, -187500.02, -187500.02, -187500.02, -187500.02, 0.010, -0.014, 1.016, 17:03:11.919
246, 23866.25, 14023.24, -187500.02, 187500.00, -187500.02, -187500.02, -187500.02, -187500.02, 0.000, 0.000, 0.000, 17:03:11.919
247, 23434.42, 13590.31, -187500.02, 187500.00, -187500.02, -187500.02, -187500.02, -187500.02, 0.000, 0.000, 0.000, 17:03:11.920
248, 22930.38, 13075.19, -187500.02, 187500.00, -187500.02, -187500.02, -187500.02, -187500.02, 0.000, 0.000, 0.000, 17:03:11.920
249, 23542.31, 13686.93, -187500.02, 187500.00, -187500.02, -187500.02, -187500.02, -187500.02, 0.000, 0.000, 0.000, 17:03:11.920
250, 24050.21, 14210.25, -187500.02, 187500.00, -187500.02, -187500.02, -187500.02, -187500.02, 0.000, 0.000, 0.000, 17:03:11.920
251, 23895.53, 14061.10, -187500.02, 187500.00, -187500.02, -187500.02, -187500.02, -187500.02, 0.000, 0.000, 0.000, 17:03:11.920
252, 23438.84, 13595.60, -187500.02, 187500.00, -187500.02, -187500.02, -187500.02, -187500.02, 0.000, 0.000, 0.000, 17:03:11.920
253, 22930.63, 13072.26, -187500.02, 187500.00, -187500.02, -187500.02, -187500.02, -187500.02, 0.000, 0.000, 0.000, 17:03:11.921
254, 23545.75, 13689.35, -187500.02, 187500.00, -187500.02, -187500.02, -187500.02, -187500.02, 0.000, 0.000, 0.000, 17:03:11.921
255, 24030.67, 14186.63, -187500.02, 187500.00, -187500.02, -187500.02, -187500.02, -187500.02, 0.014, -0.016, 1.026, 17:03:11.921
0, 23886.66, 14042.55, -187500.02, 187500.00, -187500.02, -187500.02, -187500.02, -187500.02, 0.000, 0.000, 0.000, 17:03:11.921
1, 23428.49, 13582.98, -187500.02, 187500.00, -187500.02, -187500.02, -187500.02, -187500.02, 0.000, 0.000, 0.000, 17:03:11.921
2, 22914.58, 13064.62, -187500.02, 187500.00, -187500.02, -187500.02, -187500.02, -187500.02, 0.000, 0.000, 0.000, 17:03:11.922
3, 23531.98, 13679.27, -187500.02, 187500.00, -187500.02, -187500.02, -187500.02, -187500.02, 0.000, 0.000, 0.000, 17:03:11.922
4, 24043.46, 14202.54, -187500.02, 187500.00, -187500.02, -187500.02, -187500.02, -187500.02, 0.000, 0.000, 0.000, 17:03:11.922
5, 23882.26, 14041.46, -187500.02, 187500.00, -187500.02, -187500.02, -187500.02, -187500.02, 0.000, 0.000, 0.000, 17:03:11.922
6, 23432.90, 13598.58, -187500.02, 187500.00, -187500.02, -187500.02, -187500.02, -187500.02, 0.000, 0.000, 0.000, 17:03:11.922
7, 22919.12, 13077.78, -187500.02, 187500.00, -187500.02, -187500.02, -187500.02, -187500.02, 0.000, 0.000, 0.000, 17:03:11.922
8, 23528.56, 13676.70, -187500.02, 187500.00, -187500.02, -187500.02, -187500.02, -187500.02, 0.000, 0.000, 0.000, 17:03:11.923
9, 24043.64, 14198.74, -187500.02, 187500.00, -187500.02, -187500.02, -187500.02, -187500.02, 0.014, -0.012, 1.020, 17:03:11.923
10, 23885.30, 14043.09, -187500.02, 187500.00, -187500.02, -187500.02, -187500.02, -187500.02, 0.000, 0.000, 0.000, 17:03:11.923
11, 23441.03, 13603.50, -187500.02, 187500.00, -187500.02, -187500.02, -187500.02, -187500.02, 0.000, 0.000, 0.000, 17:03:11.923
12, 22909.08, 13067.54, -187500.02, 187500.00, -187500.02, -187500.02, -187500.02, -187500.02, 0.000, 0.000, 0.000, 17:03:11.923
13, 23515.15, 13669.32, -187500.02, 187500.00, -187500.02, -187500.02, -187500.02, -187500.02, 0.000, 0.000, 0.000, 17:03:11.923
14, 24049.25, 14209.88, -187500.02, 187500.00, -187500.02, -187500.02, -187500.02, -187500.02, 0.000, 0.000, 0.000, 17:03:11.924
15, 23893.01, 14054.26, -187500.02, 187500.00, -187500.02, -187500.02, -187500.02, -187500.02, 0.000, 0.000, 0.000, 17:03:11.924
16, 23454.11, 13620.95, -187500.02, 187500.00, -187500.02, -187500.02, -187500.02, -187500.02, 0.000, 0.000, 0.000, 17:03:11.924
17, 22934.99, 13094.63, -187500.02, 187500.00, -187500.02, -187500.02, -187500.02, -187500.02, 0.000, 0.000, 0.000, 17:03:11.924
18, 23526.86, 13675.98, -187500.02, 187500.00, -187500.02, -187500.02, -187500.02, -187500.02, 0.000, 0.000, 0.000, 17:03:11.924
19, 24049.78, 14204.64, -187500.02, 187500.00, -187500.02, -187500.02, -187500.02, -187500.02, 0.014, -0.012, 1.020, 17:03:11.924
20, 23897.99, 14060.45, -187500.02, 187500.00, -187500.02, -187500.02, -187500.02, -187500.02, 0.000, 0.000, 0.000, 17:03:11.925
21, 23449.66, 13623.12, -187500.02, 187500.00, -187500.02, -187500.02, -187500.02, -187500.02, 0.000, 0.000, 0.000, 17:03:11.925
22, 22922.07, 13088.60, -187500.02, 187500.00, -187500.02, -187500.02, -187500.02, -187500.02, 0.000, 0.000, 0.000, 17:03:11.925
23, 23513.25, 13671.33, -187500.02, 187500.00, -187500.02, -187500.02, -187500.02, -187500.02, 0.000, 0.000, 0.000, 17:03:11.925
24, 24034.54, 14197.45, -187500.02, 187500.00, -187500.02, -187500.02, -187500.02, -187500.02, 0.000, 0.000, 0.000, 17:03:11.925
25, 23883.15, 14045.12, -187500.02, 187500.00, -187500.02, -187500.02, -187500.02, -187500.02, 0.000, 0.000, 0.000, 17:03:11.926
26, 23457.87, 13627.48, -187500.02, 187500.00, -187500.02, -187500.02, -187500.02, -187500.02, 0.000, 0.000, 0.000, 17:03:11.926
27, 22934.52, 13098.86, -187500.02, 187500.00, -187500.02, -187500.02, -187500.02, -187500.02, 0.000, 0.000, 0.000, 17:03:11.926
28, 23512.96, 13671.18, -187500.02, 187500.00, -187500.02, -187500.02, -187500.02, -187500.02, 0.000, 0.000, 0.000, 17:03:11.926
29, 24046.61, 14213.09, -187500.02, 187500.00, -187500.02, -187500.02, -187500.02, -187500.02, 0.012, -0.014, 1.024, 17:03:11.926
30, 23887.62, 14058.69, -187500.02, 187500.00, -187500.02, -187500.02, -187500.02, -187500.02, 0.000, 0.000, 0.000, 17:03:11.927
31, 23453.48, 13630.81, -187500.02, 187500.00, -187500.02, -187500.02, -187500.02, -187500.02, 0.000, 0.000, 0.000, 17:03:11.927
32, 22925.56, 13094.75, -187500.02, 187500.00, -187500.02, -187500.02, -187500.02, -187500.02, 0.000, 0.000, 0.000, 17:03:11.927
33, 23499.26, 13659.40, -187500.02, 187500.00, -187500.02, -187500.02, -187500.02, -187500.02, 0.000, 0.000, 0.000, 17:03:11.927
34, 24038.54, 14204.60, -187500.02, 187500.00, -187500.02, -187500.02, -187500.02, -187500.02, 0.000, 0.000, 0.000, 17:03:11.927
35, 23899.51, 14069.15, -187500.02, 187500.00, -187500.02, -187500.02, -187500.02, -187500.02, 0.000, 0.000, 0.000, 17:03:11.927
36, 23459.76, 13636.17, -187500.02, 187500.00, -187500.02, -187500.02, -187500.02, -187500.02, 0.000, 0.000, 0.000, 17:03:11.927
37, 22924.60, 13098.41, -187500.02, 187500.00, -187500.02, -187500.02, -187500.02, -187500.02, 0.000, 0.000, 0.000, 17:03:11.927
38, 23499.75, 13670.97, -187500.02, 187500.00, -187500.02, -187500.02, -187500.02, -187500.02, 0.012, -0.014, 1.024, 17:03:11.928
39, 24049.72, 14227.69, -187500.02, 187500.00, -187500.02, -187500.02, -187500.02, -187500.02, 0.000, 0.000, 0.000, 17:03:11.928
40, 23904.65, 14070.22, -187500.02, 187500.00, -187500.02, -187500.02, -187500.02, -187500.02, 0.000, 0.000, 0.000, 17:03:11.928
41, 23459.12, 13625.20, -187500.02, 187500.00, -187500.02, -187500.02, -187500.02, -187500.02, 0.000, 0.000, 0.000, 17:03:11.928
42, 22923.37, 13090.88, -187500.02, 187500.00, -187500.02, -187500.02, -187500.02, -187500.02, 0.000, 0.000, 0.000, 17:03:11.928
43, 23508.63, 13676.88, -187500.02, 187500.00, -187500.02, -187500.02, -187500.02, -187500.02, 0.000, 0.000, 0.000, 17:03:11.928
44, 24058.32, 14246.67, -187500.02, 187500.00, -187500.02, -187500.02, -187500.02, -187500.02, 0.000, 0.000, 0.000, 17:03:11.928
45, 23910.46, 14097.98, -187500.02, 187500.00, -187500.02, -187500.02, -187500.02, -187500.02, 0.000, 0.000, 0.000, 17:03:11.928
46, 23481.51, 13670.62, -187500.02, 187500.00, -187500.02, -187500.02, -187500.02, -187500.02, 0.000, 0.000, 0.000, 17:03:11.929
47, 22935.21, 13115.27, -187500.02, 187500.00, -187500.02, -187500.02, -187500.02, -187500.02, 0.000, 0.000, 0.000, 17:03:11.929
48, 23496.35, 13655.40, -187500.02, 187500.00, -187500.02, -187500.02, -187500.02, -187500.02, 0.010, -0.016, 1.026, 17:03:11.929
49, 24064.71, 14236.21, -187500.02, 187500.00, -187500.02, -187500.02, -187500.02, -187500.02, 0.000, 0.000, 0.000, 17:03:11.929
50, 23914.40, 14094.63, -187500.02, 187500.00, -187500.02, -187500.02, -187500.02, -187500.02, 0.000, 0.000, 0.000, 17:03:11.929
51, 23498.50, 13679.51, -187500.02, 187500.00, -187500.02, -187500.02, -187500.02, -187500.02, 0.000, 0.000, 0.000, 17:03:11.929
52, 22944.56, 13118.89, -187500.02, 187500.00, -187500.02, -187500.02, -187500.02, -187500.02, 0.000, 0.000, 0.000, 17:03:11.929
53, 23505.43, 13673.48, -187500.02, 187500.00, -187500.02, -187500.02, -187500.02, -187500.02, 0.000, 0.000, 0.000, 17:03:11.930
54, 24068.63, 14240.07, -187500.02, 187500.00, -187500.02, -187500.02, -187500.02, -187500.02, 0.000, 0.000, 0.000, 17:03:11.930
55, 23905.48, 14081.75, -187500.02, 187500.00, -187500.02, -187500.02, -187500.02, -187500.02, 0.000, 0.000, 0.000, 17:03:11.930
56, 23481.15, 13664.29, -187500.02, 187500.00, -187500.02, -187500.02, -187500.02, -187500.02, 0.000, 0.000, 0.000, 17:03:11.930
57, 22936.31, 13110.04, -187500.02, 187500.00, -187500.02, -187500.02, -187500.02, -187500.02, 0.000, 0.000, 0.000, 17:03:11.930
58, 23485.38, 13658.50, -187500.02, 187500.00, -187500.02, -187500.02, -187500.02, -187500.02, 0.006, -0.016, 1.034, 17:03:11.930
59, 24040.26, 14221.34, -187500.02, 187500.00, -187500.02, -187500.02, -187500.02, -187500.02, 0.000, 0.000, 0.000, 17:03:11.930
60, 23896.32, 14084.48, -187500.02, 187500.00, -187500.02, -187500.02, -187500.02, -187500.02, 0.000, 0.000, 0.000, 17:03:11.931
61, 23488.53, 13676.07, -187500.02, 187500.00, -187500.02, -187500.02, -187500.02, -187500.02, 0.000, 0.000, 0.000, 17:03:11.931
62, 22946.17, 13121.26, -187500.02, 187500.00, -187500.02, -187500.02, -187500.02, -187500.02, 0.000, 0.000, 0.000, 17:03:11.931
63, 23479.39, 13648.71, -187500.02, 187500.00, -187500.02, -187500.02, -187500.02, -187500.02, 0.000, 0.000, 0.000, 17:03:11.931
64, 24047.77, 14230.77, -187500.02, 187500.00, -187500.02, -187500.02, -187500.02, -187500.02, 0.000, 0.000, 0.000, 17:03:11.931
65, 23911.76, 14101.09, -187500.02, 187500.00, -187500.02, -187500.02, -187500.02, -187500.02, 0.000, 0.000, 0.000, 17:03:11.931
66, 23500.24, 13686.67, -187500.02, 187500.00, -187500.02, -187500.02, -187500.02, -187500.02, 0.000, 0.000, 0.000, 17:03:11.931
67, 22923.30, 13103.96, -187500.02, 187500.00, -187500.02, -187500.02, -187500.02, -187500.02, 0.000, 0.000, 0.000, 17:03:11.931
68, 23459.23, 13638.21, -187500.02, 187500.00, -187500.02, -187500.02, -187500.02, -187500.02, 0.006, -0.014, 1.032, 17:03:11.932
69, 24059.28, 14251.65, -187500.02, 187500.00, -187500.02, -187500.02, -187500.02, -187500.02, 0.000, 0.000, 0.000, 17:03:11.932
70, 23911.74, 14106.16, -187500.02, 187500.00, -187500.02, -187500.02, -187500.02, -187500.02, 0.000, 0.000, 0.000, 17:03:11.932
71, 23489.63, 13678.42, -187500.02, 187500.00, -187500.02, -187500.02, -187500.02, -187500.02, 0.000, 0.000, 0.000, 17:03:11.932
72, 22935.33, 13113.81, -187500.02, 187500.00, -187500.02, -187500.02, -187500.02, -187500.02, 0.000, 0.000, 0.000, 17:03:11.932
73, 23471.14, 13641.74, -187500.02, 187500.00, -187500.02, -187500.02, -187500.02, -187500.02, 0.000, 0.000, 0.000, 17:03:11.932
74, 24067.55, 14258.87, -187500.02, 187500.00, -187500.02, -187500.02, -187500.02, -187500.02, 0.000, 0.000, 0.000, 17:03:11.932
75, 23929.62, 14138.19, -187500.02, 187500.00, -187500.02, -187500.02, -187500.02, -187500.02, 0.000, 0.000, 0.000, 17:03:11.933
76, 23510.01, 13702.92, -187500.02, 187500.00, -187500.02, -187500.02, -187500.02, -187500.02, 0.000, 0.000, 0.000, 17:03:11.933
77, 22937.38, 13120.83, -187500.02, 187500.00, -187500.02, -187500.02, -187500.02, -187500.02, 0.000, 0.000, 0.000, 17:03:11.933
78, 23466.49, 13645.54, -187500.02, 187500.00, -187500.02, -187500.02, -187500.02, -187500.02, 0.004, -0.014, 1.028, 17:03:11.933
79, 24039.14, 14220.20, -187500.02, 187500.00, -187500.02, -187500.02, -187500.02, -187500.02, 0.000, 0.000, 0.000, 17:03:11.933
80, 23927.97, 14112.20, -187500.02, 187500.00, -187500.02, -187500.02, -187500.02, -187500.02, 0.000, 0.000, 0.000, 17:03:11.933
81, 23511.75, 13700.93, -187500.02, 187500.00, -187500.02, -187500.02, -187500.02, -187500.02, 0.000, 0.000, 0.000, 17:03:11.934
82, 22940.04, 13121.28, -187500.02, 187500.00, -187500.02, -187500.02, -187500.02, -187500.02, 0.000, 0.000, 0.000, 17:03:11.934
83, 23460.70, 13632.93, -187500.02, 187500.00, -187500.02, -187500.02, -187500.02, -187500.02, 0.000, 0.000, 0.000, 17:03:11.934
84, 24048.60, 14232.12, -187500.02, 187500.00, -187500.02, -187500.02, -187500.02, -187500.02, 0.000, 0.000, 0.000, 17:03:11.934
85, 23929.04, 14114.59, -187500.02, 187500.00, -187500.02, -187500.02, -187500.02, -187500.02, 0.000, 0.000, 0.000, 17:03:11.934
86, 23516.92, 13701.40, -187500.02, 187500.00, -187500.02, -187500.02, -187500.02, -187500.02, 0.000, 0.000, 0.000, 17:03:11.934
87, 22928.24, 13102.86, -187500.02, 187500.00, -187500.02, -187500.02, -187500.02, -187500.02, 0.000, 0.000, 0.000, 17:03:11.934
88, 23470.63, 13641.67, -187500.02, 187500.00, -187500.02, -187500.02, -187500.02, -187500.02, 0.006, -0.012, 1.028, 17:03:11.935
89, 24067.66, 14254.18, -187500.02, 187500.00, -187500.02, -187500.02, -187500.02, -187500.02, 0.000, 0.000, 0.000, 17:03:11.935
90, 23937.40, 14126.55, -187500.02, 187500.00, -187500.02, -187500.02, -187500.02, -187500.02, 0.000, 0.000, 0.000, 17:03:11.935
91, 23531.78, 13725.78, -187500.02, 187500.00, -187500.02, -187500.02, -187500.02, -187500.02, 0.000, 0.000, 0.000, 17:03:11.935
92, 22947.91, 13137.42, -187500.02, 187500.00, -187500.02, -187500.02, -187500.02, -187500.02, 0.000, 0.000, 0.000, 17:03:11.935
93, 23448.28, 13629.67, -187500.02, 187500.00, -187500.02, -187500.02, -187500.02, -187500.02, 0.000, 0.000, 0.000, 17:03:11.935
94, 24043.28, 14233.21, -187500.02, 187500.00, -187500.02, -187500.02, -187500.02, -187500.02, 0.000, 0.000, 0.000, 17:03:11.936
95, 23919.25, 14107.42, -187500.02, 187500.00, -187500.02, -187500.02, -187500.02, -187500.02, 0.000, 0.000, 0.000, 17:03:11.936
96, 23534.35, 13719.14, -187500.02, 187500.00, -187500.02, -187500.02, -187500.02, -187500.02, 0.000, 0.000, 0.000, 17:03:11.936
97, 22954.99, 13127.92, -187500.02, 187500.00, -187500.02, -187500.02, -187500.02, -187500.02, 0.000, 0.000, 0.000, 17:03:11.936
98, 23454.82, 13627.90, -187500.02, 187500.00, -187500.02, -187500.02, -187500.02, -187500.02, 0.006, -0.014, 1.032, 17:03:11.936
99, 24054.23, 14233.99, -187500.02, 187500.00, -187500.02, -187500.02, -187500.02, -187500.02, 0.000, 0.000, 0.000, 17:03:11.936
100, 23929.98, 14113.43, -187500.02, 187500.00, -187500.02, -187500.02, -187500.02, -187500.02, 0.000, 0.000, 0.000, 17:03:11.936
101, 23519.42, 13712.04, -187500.02, 187500.00, -187500.02, -187500.02, -187500.02, -187500.02, 0.000, 0.000, 0.000, 17:03:11.937
102, 22937.76, 13129.12, -187500.02, 187500.00, -187500.02, -187500.02, -187500.02, -187500.02, 0.000, 0.000, 0.000, 17:03:11.937
103, 23434.10, 13619.23, -187500.02, 187500.00, -187500.02, -187500.02, -187500.02, -187500.02, 0.000, 0.000, 0.000, 17:03:11.937
104, 24048.89, 14235.40, -187500.02, 187500.00, -187500.02, -187500.02, -187500.02, -187500.02, 0.000, 0.000, 0.000, 17:03:12.397
105, 23938.90, 14122.68, -187500.02, 187500.00, -187500.02, -187500.02, -187500.02, -187500.02, 0.000, 0.000, 0.000, 17:03:12.398
106, 23536.79, 13723.41, -187500.02, 187500.00, -187500.02, -187500.02, -187500.02, -187500.02, 0.000, 0.000, 0.000, 17:03:12.398
107, 22956.25, 13138.15, -187500.02, 187500.00, -187500.02, -187500.02, -187500.02, -187500.02, 0.000, 0.000, 0.000, 17:03:12.398
108, 23437.05, 13610.67, -187500.02, 187500.00, -187500.02, -187500.02, -187500.02, -187500.02, 0.008, -0.018, 1.020, 17:03:12.398
109, 24054.03, 14238.55, -187500.02, 187500.00, -187500.02, -187500.02, -187500.02, -187500.02, 0.000, 0.000, 0.000, 17:03:12.398
110, 23930.20, 14115.10, -187500.02, 187500.00, -187500.02, -187500.02, -187500.02, -187500.02, 0.000, 0.000, 0.000, 17:03:12.398
111, 23529.26, 13718.00, -187500.02, 187500.00, -187500.02, -187500.02, -187500.02, -187500.02, 0.000, 0.000, 0.000, 17:03:12.398
112, 22950.95, 13132.30, -187500.02, 187500.00, -187500.02, -187500.02, -187500.02, -187500.02, 0.000, 0.000, 0.000, 17:03:12.399
113, 23432.36, 13602.91, -187500.02, 187500.00, -187500.02, -187500.02, -187500.02, -187500.02, 0.000, 0.000, 0.000, 17:03:12.399
114, 24052.02, 14231.31, -187500.02, 187500.00, -187500.02, -187500.02, -187500.02, -187500.02, 0.000, 0.000, 0.000, 17:03:12.399
115, 23944.24, 14129.63, -187500.02, 187500.00, -187500.02, -187500.02, -187500.02, -187500.02, 0.000, 0.000, 0.000, 17:03:12.399
116, 23550.49, 13729.92, -187500.02, 187500.00, -187500.02, -187500.02, -187500.02, -187500.02, 0.000, 0.000, 0.000, 17:03:12.399
117, 22962.73, 13134.87, -187500.02, 187500.00, -187500.02, -187500.02, -187500.02, -187500.02, 0.000, 0.000, 0.000, 17:03:12.399
118, 23442.53, 13613.51, -187500.02, 187500.00, -187500.02, -187500.02, -187500.02, -187500.02, 0.008, -0.018, 1.018, 17:03:12.400
119, 24062.30, 14248.57, -187500.02, 187500.00, -187500.02, -187500.02, -187500.02, -187500.02, 0.000, 0.000, 0.000, 17:03:12.400
120, 23952.60, 14148.85, -187500.02, 187500.00, -187500.02, -187500.02, -187500.02, -187500.02, 0.000, 0.000, 0.000, 17:03:12.400
121, 23543.36, 13735.79, -187500.02, 187500.00, -187500.02, -187500.02, -187500.02, -187500.02, 0.000, 0.000, 0.000, 17:03:12.400
122, 22952.49, 13131.49, -187500.02, 187500.00, -187500.02, -187500.02, -187500.02, -187500.02, 0.000, 0.000, 0.000, 17:03:12.400
123, 23445.77, 13613.91, -187500.02, 187500.00, -187500.02, -187500.02, -187500.02, -187500.02, 0.000, 0.000, 0.000, 17:03:12.401
124, 24061.76, 14243.92, -187500.02, 187500.00, -187500.02, -187500.02, -187500.02, -187500.02, 0.000, 0.000, 0.000, 17:03:12.401
125, 23946.50, 14130.53, -187500.02, 187500.00, -187500.02, -187500.02, -187500.02, -187500.02, 0.000, 0.000, 0.000, 17:03:12.401
126, 23555.47, 13746.95, -187500.02, 187500.00, -187500.02, -187500.02, -187500.02, -187500.02, 0.000, 0.000, 0.000, 17:03:12.401
127, 22949.63, 13136.43, -187500.02, 187500.00, -187500.02, -187500.02, -187500.02, -187500.02, 0.000, 0.000, 0.000, 17:03:12.401
128, 23425.83, 13606.76, -187500.02, 187500.00, -187500.02, -187500.02, -187500.02, -187500.02, 0.012, -0.014, 1.022, 17:03:12.401
129, 24048.15, 14239.76, -187500.02, 187500.00, -187500.02, -187500.02, -187500.02, -187500.02, 0.000, 0.000, 0.000, 17:03:12.401
130, 23941.38, 14128.51, -187500.02, 187500.00, -187500.02, -187500.02, -187500.02, -187500.02, 0.000, 0.000, 0.000, 17:03:12.402
131, 23537.91, 13722.58, -187500.02, 187500.00, -187500.02, -187500.02, -187500.02, -187500.02, 0.000, 0.000, 0.000, 17:03:12.402
132, 22954.21, 13134.17, -187500.02, 187500.00, -187500.02, -187500.02, -187500.02, -187500.02, 0.000, 0.000, 0.000, 17:03:12.402
133, 23429.08, 13599.63, -187500.02, 187500.00, -187500.02, -187500.02, -187500.02, -187500.02, 0.000, 0.000, 0.000, 17:03:12.402
134, 24053.20, 14233.28, -187500.02, 187500.00, -187500.02, -187500.02, -187500.02, -187500.02, 0.000, 0.000, 0.000, 17:03:12.402
135, 23947.10, 14129.32, -187500.02, 187500.00, -187500.02, -187500.02, -187500.02, -187500.02, 0.000, 0.000, 0.000, 17:03:12.402
136, 23558.04, 13741.70, -187500.02, 187500.00, -187500.02, -187500.02, -187500.02, -187500.02, 0.000, 0.000, 0.000, 17:03:12.402
137, 22961.52, 13140.41, -187500.02, 187500.00, -187500.02, -187500.02, -187500.02, -187500.02, 0.000, 0.000, 0.000, 17:03:12.403
138, 23418.77, 13594.35, -187500.02, 187500.00, -187500.02, -187500.02, -187500.02, -187500.02, 0.008, -0.010, 1.024, 17:03:12.403
139, 24039.55, 14226.15, -187500.02, 187500.00, -187500.02, -187500.02, -187500.02, -187500.02, 0.000, 0.000, 0.000, 17:03:12.403
140, 23940.21, 14128.83, -187500.02, 187500.00, -187500.02, -187500.02, -187500.02, -187500.02, 0.000, 0.000, 0.000, 17:03:12.403
141, 23559.63, 13750.08, -187500.02, 187500.00, -187500.02, -187500.02, -187500.02, -187500.02, 0.000, 0.000, 0.000, 17:03:12.403
142, 22955.53, 13140.17, -187500.02, 187500.00, -187500.02, -187500.02, -187500.02, -187500.02, 0.000, 0.000, 0.000, 17:03:12.403
143, 23407.55, 13590.44, -187500.02, 187500.00, -187500.02, -187500.02, -187500.02, -187500.02, 0.000, 0.000, 0.000, 17:03:12.404
144, 24058.86, 14255.00, -187500.02, 187500.00, -187500.02, -187500.02, -187500.02, -187500.02, 0.000, 0.000, 0.000, 17:03:12.404
145, 23957.76, 14152.43, -187500.02, 187500.00, -187500.02, -187500.02, -187500.02, -187500.02, 0.000, 0.000, 0.000, 17:03:12.404
146, 23570.18, 13759.29, -187500.02, 187500.00, -187500.02, -187500.02, -187500.02, -187500.02, 0.000, 0.000, 0.000, 17:03:12.404
147, 22960.16, 13146.71, -187500.02, 187500.00, -187500.02, -187500.02, -187500.02, -187500.02, 0.000, 0.000, 0.000, 17:03:12.404
148, 23397.31, 13575.24, -187500.02, 187500.00, -187500.02, -187500.02, -187500.02, -187500.02, 0.010, -0.012, 1.030, 17:03:12.404
149, 24041.11, 14228.14, -187500.02, 187500.00, -187500.02, -187500.02, -187500.02, -187500.02, 0.000, 0.000, 0.000, 17:03:12.404
150, 23946.36, 14138.84, -187500.02, 187500.00, -187500.02, -187500.02, -187500.02, -187500.02, 0.000, 0.000, 0.000, 17:03:12.405
151, 23575.28, 13772.09, -187500.02, 187500.00, -187500.02, -187500.02, -187500.02, -187500.02, 0.000, 0.000, 0.000, 17:03:12.405
152, 22976.38, 13165.60, -187500.02, 187500.00, -187500.02, -187500.02, -187500.02, -187500.02, 0.000, 0.000, 0.000, 17:03:12.405
153, 23396.51, 13576.83, -187500.02, 187500.00, -187500.02, -187500.02, -187500.02, -187500.02, 0.000, 0.000, 0.000, 17:03:12.405
154, 24053.67, 14236.05, -187500.02, 187500.00, -187500.02, -187500.02, -187500.02, -187500.02, 0.000, 0.000, 0.000, 17:03:12.405
155, 23946.83, 14130.42, -187500.02, 187500.00, -187500.02, -187500.02, -187500.02, -187500.02, 0.000, 0.000, 0.000, 17:03:12.405
156, 23549.80, 13739.10, -187500.02, 187500.00, -187500.02, -187500.02, -187500.02, -187500.02, 0.000, 0.000, 0.000, 17:03:12.405
157, 22958.68, 13147.72, -187500.02, 187500.00, -187500.02, -187500.02, -187500.02, -187500.02, 0.010, -0.012, 1.028, 17:03:12.405
158, 23392.84, 13576.76, -187500.02, 187500.00, -187500.02, -187500.02, -187500.02, -187500.02, 0.000, 0.000, 0.000, 17:03:12.406
159, 24049.31, 14244.86, -187500.02, 187500.00, -187500.02, -187500.02, -187500.02, -187500.02, 0.000, 0.000, 0.000, 17:03:12.406
160, 23965.07, 14159.47, -187500.02, 187500.00, -187500.02, -187500.02, -187500.02, -187500.02, 0.000, 0.000, 0.000, 17:03:12.406
161, 23580.08, 13777.84, -187500.02, 187500.00, -187500.02, -187500.02, -187500.02, -187500.02, 0.000, 0.000, 0.000, 17:03:12.406
162, 22957.39, 13151.90, -187500.02, 187500.00, -187500.02, -187500.02, -187500.02, -187500.02, 0.000, 0.000, 0.000, 17:03:12.406
163, 23380.97, 13564.54, -187500.02, 187500.00, -187500.02, -187500.02, -187500.02, -187500.02, 0.000, 0.000, 0.000, 17:03:12.406
164, 24037.62, 14234.17, -187500.02, 187500.00, -187500.02, -187500.02, -187500.02, -187500.02, 0.000, 0.000, 0.000, 17:03:12.406
165, 23956.62, 14152.52, -187500.02, 187500.00, -187500.02, -187500.02, -187500.02, -187500.02, 0.000, 0.000, 0.000, 17:03:12.406
166, 23584.80, 13779.18, -187500.02, 187500.00, -187500.02, -187500.02, -187500.02, -187500.02, 0.000, 0.000, 0.000, 17:03:12.407
167, 22975.25, 13170.90, -187500.02, 187500.00, -187500.02, -187500.02, -187500.02, -187500.02, 0.010, -0.016, 1.026, 17:03:12.407
168, 23402.79, 13592.14, -187500.02, 187500.00, -187500.02, -187500.02, -187500.02, -187500.02, 0.000, 0.000, 0.000, 17:03:12.407
169, 24060.65, 14257.53, -187500.02, 187500.00, -187500.02, -187500.02, -187500.02, -187500.02, 0.000, 0.000, 0.000, 17:03:12.407
170, 23963.48, 14155.20, -187500.02, 187500.00, -187500.02, -187500.02, -187500.02, -187500.02, 0.000, 0.000, 0.000, 17:03:12.407
171, 23599.80, 13788.30, -187500.02, 187500.00, -187500.02, -187500.02, -187500.02, -187500.02, 0.000, 0.000, 0.000, 17:03:12.407
172, 22988.52, 13177.27, -187500.02, 187500.00, -187500.02, -187500.02, -187500.02, -187500.02, 0.000, 0.000, 0.000, 17:03:12.407
173, 23381.96, 13573.34, -187500.02, 187500.00, -187500.02, -187500.02, -187500.02, -187500.02, 0.000, 0.000, 0.000, 17:03:12.407
174, 24041.45, 14235.24, -187500.02, 187500.00, -187500.02, -187500.02, -187500.02, -187500.02, 0.000, 0.000, 0.000, 17:03:12.408
175, 23973.32, 14166.56, -187500.02, 187500.00, -187500.02, -187500.02, -187500.02, -187500.02, 0.000, 0.000, 0.000, 17:03:12.408
176, 23607.55, 13801.06, -187500.02, 187500.00, -187500.02, -187500.02, -187500.02, -187500.02, 0.000, 0.000, 0.000, 17:03:12.408
177, 22986.29, 13169.07, -187500.02, 187500.00, -187500.02, -187500.02, -187500.02, -187500.02, 0.006, -0.016, 1.028, 17:03:12.408
178, 23383.14, 13558.63, -187500.02, 187500.00, -187500.02, -187500.02, -187500.02, -187500.02, 0.000, 0.000, 0.000, 17:03:12.408
179, 24052.53, 14242.60, -187500.02, 187500.00, -187500.02, -187500.02, -187500.02, -187500.02, 0.000, 0.000, 0.000, 17:03:12.408
180, 23962.03, 14157.44, -187500.02, 187500.00, -187500.02, -187500.02, -187500.02, -187500.02, 0.000, 0.000, 0.000, 17:03:12.408
181, 23574.50, 13770.71, -187500.02, 187500.00, -187500.02, -187500.02, -187500.02, -187500.02, 0.000, 0.000, 0.000, 17:03:12.408
182, 22968.38, 13155.34, -187500.02, 187500.00, -187500.02, -187500.02, -187500.02, -187500.02, 0.000, 0.000, 0.000, 17:03:12.409
183, 23370.92, 13551.66, -187500.02, 187500.00, -187500.02, -187500.02, -187500.02, -187500.02, 0.000, 0.000, 0.000, 17:03:12.409
184, 24043.41, 14233.86, -187500.02, 187500.00, -187500.02, -187500.02, -187500.02, -187500.02, 0.000, 0.000, 0.000, 17:03:12.409
185, 23962.48, 14158.13, -187500.02, 187500.00, -187500.02, -187500.02, -187500.02, -187500.02, 0.000, 0.000, 0.000, 17:03:12.409
186, 23584.04, 13779.92, -187500.02, 187500.00, -187500.02, -187500.02, -187500.02, -187500.02, 0.000, 0.000, 0.000, 17:03:12.409
187, 22973.97, 13162.85, -187500.02, 187500.00, -187500.02, -187500.02, -187500.02, -187500.02, 0.010, -0.010, 1.024, 17:03:12.409
188, 23374.25, 13556.58, -187500.02, 187500.00, -187500.02, -187500.02, -187500.02, -187500.02, 0.000, 0.000, 0.000, 17:03:12.409
189, 24035.81, 14226.75, -187500.02, 187500.00, -187500.02, -187500.02, -187500.02, -187500.02, 0.000, 0.000, 0.000, 17:03:12.409
190, 23949.40, 14143.38, -187500.02, 187500.00, -187500.02, -187500.02, -187500.02, -187500.02, 0.000, 0.000, 0.000, 17:03:12.410
191, 23582.99, 13776.56, -187500.02, 187500.00, -187500.02, -187500.02, -187500.02, -187500.02, 0.000, 0.000, 0.000, 17:03:12.410
192, 22964.99, 13152.26, -187500.02, 187500.00, -187500.02, -187500.02, -187500.02, -187500.02, 0.000, 0.000, 0.000, 17:03:12.410
193, 23369.37, 13551.44, -187500.02, 187500.00, -187500.02, -187500.02, -187500.02, -187500.02, 0.000, 0.000, 0.000, 17:03:12.410
194, 24050.95, 14243.85, -187500.02, 187500.00, -187500.02, -187500.02, -187500.02, -187500.02, 0.000, 0.000, 0.000, 17:03:12.410
195, 23966.75, 14160.97, -187500.02, 187500.00, -187500.02, -187500.02, -187500.02, -187500.02, 0.000, 0.000, 0.000, 17:03:12.410
196, 23597.43, 13794.78, -187500.02, 187500.00, -187500.02, -187500.02, -187500.02, -187500.02, 0.000, 0.000, 0.000, 17:03:12.410
197, 22977.62, 13169.11, -187500.02, 187500.00, -187500.02, -187500.02, -187500.02, -187500.02, 0.008, -0.004, 1.020, 17:03:12.410
198, 23341.55, 13526.31, -187500.02, 187500.00, -187500.02, -187500.02, -187500.02, -187500.02, 0.000, 0.000, 0.000, 17:03:12.411
199, 24038.25, 14241.53, -187500.02, 187500.00, -187500.02, -187500.02, -187500.02, -187500.02, 0.000, 0.000, 0.000, 17:03:12.411
200, 23956.89, 14164.72, -187500.02, 187500.00, -187500.02, -187500.02, -187500.02, -187500.02, 0.000, 0.000, 0.000, 17:03:12.411
201, 23602.30, 13803.36, -187500.02, 187500.00, -187500.02, -187500.02, -187500.02, -187500.02, 0.000, 0.000, 0.000, 17:03:12.411
202, 22978.22, 13169.78, -187500.02, 187500.00, -187500.02, -187500.02, -187500.02, -187500.02, 0.000, 0.000, 0.000, 17:03:12.411
203, 23335.64, 13515.38, -187500.02, 187500.00, -187500.02, -187500.02, -187500.02, -187500.02, 0.000, 0.000, 0.000, 17:03:12.411
204, 24030.83, 14224.49, -187500.02, 187500.00, -187500.02, -187500.02, -187500.02, -187500.02, 0.000, 0.000, 0.000, 17:03:12.411
205, 23963.97, 14163.92, -187500.02, 187500.00, -187500.02, -187500.02, -187500.02, -187500.02, 0.000, 0.000, 0.000, 17:03:12.412
206, 23595.30, 13795.12, -187500.02, 187500.00, -187500.02, -187500.02, -187500.02, -187500.02, 0.000, 0.000, 0.000, 17:03:12.412
207, 22951.62, 13148.55, -187500.02, 187500.00, -187500.02, -187500.02, -187500.02, -187500.02, 0.002, -0.012, 1.030, 17:03:12.412
208, 23326.57, 13511.76, -187500.02, 187500.00, -187500.02, -187500.02, -187500.02, -187500.02, 0.000, 0.000, 0.000, 17:03:12.412
209, 24031.83, 14223.22, -187500.02, 187500.00, -187500.02, -187500.02, -187500.02, -187500.02, 0.000, 0.000, 0.000, 17:03:12.412
210, 23967.42, 14165.71, -187500.02, 187500.00, -187500.02, -187500.02, -187500.02, -187500.02, 0.000, 0.000, 0.000, 17:03:12.412
211, 23603.15, 13806.67, -187500.02, 187500.00, -187500.02, -187500.02, -187500.02, -187500.02, 0.000, 0.000, 0.000, 17:03:12.412
212, 22973.64, 13175.37, -187500.02, 187500.00, -187500.02, -187500.02, -187500.02, -187500.02, 0.000, 0.000, 0.000, 17:03:12.412
213, 23333.81, 13526.52, -187500.02, 187500.00, -187500.02, -187500.02, -187500.02, -187500.02, 0.000, 0.000, 0.000, 17:03:12.413
214, 24021.26, 14219.44, -187500.02, 187500.00, -187500.02, -187500.02, -187500.02, -187500.02, 0.000, 0.000, 0.000, 17:03:12.413
215, 23960.80, 14158.13, -187500.02, 187500.00, -187500.02, -187500.02, -187500.02, -187500.02, 0.000, 0.000, 0.000, 17:03:12.413
216, 23601.79, 13797.31, -187500.02, 187500.00, -187500.02, -187500.02, -187500.02, -187500.02, 0.000, 0.000, 0.000, 17:03:12.413
217, 22972.81, 13170.97, -187500.02, 187500.00, -187500.02, -187500.02, -187500.02, -187500.02, 0.006, -0.016, 1.028, 17:03:12.413
218, 23320.69, 13514.00, -187500.02, 187500.00, -187500.02, -187500.02, -187500.02, -187500.02, 0.000, 0.000, 0.000, 17:03:12.414
219, 24019.05, 14219.38, -187500.02, 187500.00, -187500.02, -187500.02, -187500.02, -187500.02, 0.000, 0.000, 0.000, 17:03:12.414
220, 23945.33, 14150.08, -187500.02, 187500.00, -187500.02, -187500.02, -187500.02, -187500.02, 0.000, 0.000, 0.000, 17:03:12.414
221, 23591.35, 13799.41, -187500.02, 187500.00, -187500.02, -187500.02, -187500.02, -187500.02, 0.000, 0.000, 0.000, 17:03:12.414
222, 22972.92, 13183.19, -187500.02, 187500.00, -187500.02, -187500.02, -187500.02, -187500.02, 0.000, 0.000, 0.000, 17:03:12.414
223, 23312.47, 13519.54, -187500.02, 187500.00, -187500.02, -187500.02, -187500.02, -187500.02, 0.000, 0.000, 0.000, 17:03:12.414
224, 24005.24, 14214.66, -187500.02, 187500.00, -187500.02, -187500.02, -187500.02, -187500.02, 0.000, 0.000, 0.000, 17:03:12.879
225, 23948.17, 14152.43, -187500.02, 187500.00, -187500.02, -187500.02, -187500.02, -187500.02, 0.000, 0.000, 0.000, 17:03:12.879
226, 23599.04, 13799.56, -187500.02, 187500.00, -187500.02, -187500.02, -187500.02, -187500.02, 0.000, 0.000, 0.000, 17:03:12.879
227, 22974.66, 13171.08, -187500.02, 187500.00, -187500.02, -187500.02, -187500.02, -187500.02, 0.010, -0.014, 1.028, 17:03:12.879
228, 23307.91, 13498.35, -187500.02, 187500.00, -187500.02, -187500.02, -187500.02, -187500.02, 0.000, 0.000, 0.000, 17:03:12.880
229, 24020.48, 14220.38, -187500.02, 187500.00, -187500.02, -187500.02, -187500.02, -187500.02, 0.000, 0.000, 0.000, 17:03:12.880
230, 23958.88, 14161.33, -187500.02, 187500.00, -187500.02, -187500.02, -187500.02, -187500.02, 0.000, 0.000, 0.000, 17:03:12.880
231, 23605.63, 13813.89, -187500.02, 187500.00, -187500.02, -187500.02, -187500.02, -187500.02, 0.000, 0.000, 0.000, 17:03:12.880
232, 22978.08, 13182.86, -187500.02, 187500.00, -187500.02, -187500.02, -187500.02, -187500.02, 0.000, 0.000, 0.000, 17:03:12.880
233, 23317.41, 13511.20, -187500.02, 187500.00, -187500.02, -187500.02, -187500.02, -187500.02, 0.000, 0.000, 0.000, 17:03:12.880
234, 24022.45, 14223.49, -187500.02, 187500.00, -187500.02, -187500.02, -187500.02, -187500.02, 0.000, 0.000, 0.000, 17:03:12.881
235, 23974.21, 14178.02, -187500.02, 187500.00, -187500.02, -187500.02, -187500.02, -187500.02, 0.000, 0.000, 0.000, 17:03:12.881
236, 23626.84, 13838.88, -187500.02, 187500.00, -187500.02, -187500.02, -187500.02, -187500.02, 0.000, 0.000, 0.000, 17:03:12.881
237, 22994.04, 13203.22, -187500.02, 187500.00, -187500.02, -187500.02, -187500.02, -187500.02, 0.008, -0.008, 1.026, 17:03:12.881
238, 23299.32, 13496.90, -187500.02, 187500.00, -187500.02, -187500.02, -187500.02, -187500.02, 0.000, 0.000, 0.000, 17:03:12.881
239, 24015.65, 14221.68, -187500.02, 187500.00, -187500.02, -187500.02, -187500.02, -187500.02, 0.000, 0.000, 0.000, 17:03:12.882
240, 23968.47, 14180.13, -187500.02, 187500.00, -187500.02, -187500.02, -187500.02, -187500.02, 0.000, 0.000, 0.000, 17:03:12.882
241, 23621.57, 13828.58, -187500.02, 187500.00, -187500.02, -187500.02, -187500.02, -187500.02, 0.000, 0.000, 0.000, 17:03:12.882
242, 22976.77, 13176.40, -187500.02, 187500.00, -187500.02, -187500.02, -187500.02, -187500.02, 0.000, 0.000, 0.000, 17:03:12.882
243, 23279.81, 13469.07, -187500.02, 187500.00, -187500.02, -187500.02, -187500.02, -187500.02, 0.000, 0.000, 0.000, 17:03:12.882
244, 24005.08, 14206.01, -187500.02, 187500.00, -187500.02, -187500.02, -187500.02, -187500.02, 0.000, 0.000, 0.000, 17:03:12.882
245, 23957.98, 14164.59, -187500.02, 187500.00, -187500.02, -187500.02, -187500.02, -187500.02, 0.000, 0.000, 0.000, 17:03:12.883
246, 23616.65, 13823.86, -187500.02, 187500.00, -187500.02, -187500.02, -187500.02, -187500.02, 0.000, 0.000, 0.000, 17:03:12.883
247, 22984.46, 13187.08, -187500.02, 187500.00, -187500.02, -187500.02, -187500.02, -187500.02, 0.004, -0.010, 1.028, 17:03:12.883
248, 23283.72, 13476.63, -187500.02, 187500.00, -187500.02, -187500.02, -187500.02, -187500.02, 0.000, 0.000, 0.000, 17:03:12.883
249, 24008.19, 14207.93, -187500.02, 187500.00, -187500.02, -187500.02, -187500.02, -187500.02, 0.000, 0.000, 0.000, 17:03:12.883
250, 23982.35, 14185.53, -187500.02, 187500.00, -187500.02, -187500.02, -187500.02, -187500.02, 0.000, 0.000, 0.000, 17:03:12.883
251, 23632.48, 13837.05, -187500.02, 187500.00, -187500.02, -187500.02, -187500.02, -187500.02, 0.000, 0.000, 0.000, 17:03:12.883
252, 22987.09, 13189.54, -187500.02, 187500.00, -187500.02, -187500.02, -187500.02, -187500.02, 0.000, 0.000, 0.000, 17:03:12.884
253, 23282.89, 13472.78, -187500.02, 187500.00, -187500.02, -187500.02, -187500.02, -187500.02, 0.000, 0.000, 0.000, 17:03:12.884
254, 24009.51, 14208.02, -187500.02, 187500.00, -187500.02, -187500.02, -187500.02, -187500.02, 0.000, 0.000, 0.000, 17:03:12.884
255, 23963.06, 14169.26, -187500.02, 187500.00, -187500.02, -187500.02, -187500.02, -187500.02, 0.000, 0.000, 0.000, 17:03:12.884
0, 23629.93, 13839.37, -187500.02, 187500.00, -187500.02, -187500.02, -187500.02, -187500.02, 0.000, 0.000, 0.000, 17:03:12.884
1, 23004.88, 13209.28, -187500.02, 187500.00, -187500.02, -187500.02, -187500.02, -187500.02, 0.006, -0.016, 1.036, 17:03:12.884
2, 23277.29, 13470.19, -187500.02, 187500.00, -187500.02, -187500.02, -187500.02, -187500.02, 0.000, 0.000, 0.000, 17:03:12.885
3, 24010.00, 14209.32, -187500.02, 187500.00, -187500.02, -187500.02, -187500.02, -187500.02, 0.000, 0.000, 0.000, 17:03:12.885
4, 23967.64, 14171.54, -187500.02, 187500.00, -187500.02, -187500.02, -187500.02, -187500.02, 0.000, 0.000, 0.000, 17:03:12.885
5, 23631.74, 13839.37, -187500.02, 187500.00, -187500.02, -187500.02, -187500.02, -187500.02, 0.000, 0.000, 0.000, 17:03:12.885
6, 23009.20, 13216.50, -187500.02, 187500.00, -187500.02, -187500.02, -187500.02, -187500.02, 0.000, 0.000, 0.000, 17:03:12.885
7, 23282.20, 13474.88, -187500.02, 187500.00, -187500.02, -187500.02, -187500.02, -187500.02, 0.000, 0.000, 0.000, 17:03:12.886
8, 24002.82, 14203.55, -187500.02, 187500.00, -187500.02, -187500.02, -187500.02, -187500.02, 0.000, 0.000, 0.000, 17:03:12.886
9, 23973.61, 14182.38, -187500.02, 187500.00, -187500.02, -187500.02, -187500.02, -187500.02, 0.000, 0.000, 0.000, 17:03:12.886
10, 23634.80, 13838.99, -187500.02, 187500.00, -187500.02, -187500.02, -187500.02, -187500.02, 0.000, 0.000, 0.000, 17:03:12.886
11, 22985.13, 13181.43, -187500.02, 187500.00, -187500.02, -187500.02, -187500.02, -187500.02, 0.008, -0.014, 1.026, 17:03:12.886
12, 23267.96, 13454.95, -187500.02, 187500.00, -187500.02, -187500.02, -187500.02, -187500.02, 0.000, 0.000, 0.000, 17:03:12.886
13, 24004.05, 14208.33, -187500.02, 187500.00, -187500.02, -187500.02, -187500.02, -187500.02, 0.000, 0.000, 0.000, 17:03:12.887
14, 23959.57, 14168.05, -187500.02, 187500.00, -187500.02, -187500.02, -187500.02, -187500.02, 0.000, 0.000, 0.000, 17:03:12.887
15, 23628.61, 13835.08, -187500.02, 187500.00, -187500.02, -187500.02, -187500.02, -187500.02, 0.000, 0.000, 0.000, 17:03:12.887
16, 22992.28, 13200.74, -187500.02, 187500.00, -187500.02, -187500.02, -187500.02, -187500.02, 0.000, 0.000, 0.000, 17:03:12.887
17, 23262.35, 13462.32, -187500.02, 187500.00, -187500.02, -187500.02, -187500.02, -187500.02, 0.000, 0.000, 0.000, 17:03:12.887
18, 23997.39, 14199.15, -187500.02, 187500.00, -187500.02, -187500.02, -187500.02, -187500.02, 0.000, 0.000, 0.000, 17:03:12.887
19, 23966.86, 14169.08, -187500.02, 187500.00, -187500.02, -187500.02, -187500.02, -187500.02, 0.000, 0.000, 0.000, 17:03:12.887
20, 23633.46, 13839.10, -187500.02, 187500.00, -187500.02, -187500.02, -187500.02, -187500.02, 0.008, -0.014, 1.022, 17:03:12.888
21, 22990.31, 13206.21, -187500.02, 187500.00, -187500.02, -187500.02, -187500.02, -187500.02, 0.000, 0.000, 0.000, 17:03:12.888
22, 23249.48, 13447.37, -187500.02, 187500.00, -187500.02, -187500.02, -187500.02, -187500.02, 0.000, 0.000, 0.000, 17:03:12.888
23, 23995.36, 14186.94, -187500.02, 187500.00, -187500.02, -187500.02, -187500.02, -187500.02, 0.000, 0.000, 0.000, 17:03:12.888
24, 23964.33, 14159.43, -187500.02, 187500.00, -187500.02, -187500.02, -187500.02, -187500.02, 0.000, 0.000, 0.000, 17:03:12.888
25, 23621.75, 13819.73, -187500.02, 187500.00, -187500.02, -187500.02, -187500.02, -187500.02, 0.000, 0.000, 0.000, 17:03:12.888
26, 22990.58, 13190.41, -187500.02, 187500.00, -187500.02, -187500.02, -187500.02, -187500.02, 0.000, 0.000, 0.000, 17:03:12.889
27, 23238.66, 13433.11, -187500.02, 187500.00, -187500.02, -187500.02, -187500.02, -187500.02, 0.000, 0.000, 0.000, 17:03:12.889
28, 23977.83, 14185.96, -187500.02, 187500.00, -187500.02, -187500.02, -187500.02, -187500.02, 0.000, 0.000, 0.000, 17:03:12.889
29, 23967.24, 14180.04, -187500.02, 187500.00, -187500.02, -187500.02, -187500.02, -187500.02, 0.000, 0.000, 0.000, 17:03:12.889
30, 23635.14, 13848.87, -187500.02, 187500.00, -187500.02, -187500.02, -187500.02, -187500.02, 0.008, -0.016, 1.022, 17:03:12.889
31, 22990.40, 13202.35, -187500.02, 187500.00, -187500.02, -187500.02, -187500.02, -187500.02, 0.000, 0.000, 0.000, 17:03:12.889
32, 23223.35, 13419.85, -187500.02, 187500.00, -187500.02, -187500.02, -187500.02, -187500.02, 0.000, 0.000, 0.000, 17:03:12.890
33, 23969.79, 14166.54, -187500.02, 187500.00, -187500.02, -187500.02, -187500.02, -187500.02, 0.000, 0.000, 0.000, 17:03:12.890
34, 23957.74, 14157.08, -187500.02, 187500.00, -187500.02, -187500.02, -187500.02, -187500.02, 0.000, 0.000, 0.000, 17:03:12.890
35, 23639.61, 13849.63, -187500.02, 187500.00, -187500.02, -187500.02, -187500.02, -187500.02, 0.000, 0.000, 0.000, 17:03:12.890
36, 23014.74, 13224.61, -187500.02, 187500.00, -187500.02, -187500.02, -187500.02, -187500.02, 0.000, 0.000, 0.000, 17:03:12.890
37, 23241.72, 13442.36, -187500.02, 187500.00, -187500.02, -187500.02, -187500.02, -187500.02, 0.000, 0.000, 0.000, 17:03:12.890
38, 23971.48, 14174.78, -187500.02, 187500.00, -187500.02, -187500.02, -187500.02, -187500.02, 0.000, 0.000, 0.000, 17:03:12.890
39, 23966.57, 14169.20, -187500.02, 187500.00, -187500.02, -187500.02, -187500.02, -187500.02, 0.000, 0.000, 0.000, 17:03:12.890
40, 23649.46, 13852.02, -187500.02, 187500.00, -187500.02, -187500.02, -187500.02, -187500.02, 0.008, -0.010, 1.028, 17:03:12.891
41, 23009.47, 13211.38, -187500.02, 187500.00, -187500.02, -187500.02, -187500.02, -187500.02, 0.000, 0.000, 0.000, 17:03:12.891
42, 23233.90, 13430.00, -187500.02, 187500.00, -187500.02, -187500.02, -187500.02, -187500.02, 0.000, 0.000, 0.000, 17:03:12.891
43, 23961.76, 14161.53, -187500.02, 187500.00, -187500.02, -187500.02, -187500.02, -187500.02, 0.000, 0.000, 0.000, 17:03:12.891
44, 23957.45, 14162.40, -187500.02, 187500.00, -187500.02, -187500.02, -187500.02, -187500.02, 0.000, 0.000, 0.000, 17:03:12.891
45, 23663.17, 13866.71, -187500.02, 187500.00, -187500.02, -187500.02, -187500.02, -187500.02, 0.000, 0.000, 0.000, 17:03:12.891
46, 23013.98, 13214.64, -187500.02, 187500.00, -187500.02, -187500.02, -187500.02, -187500.02, 0.000, 0.000, 0.000, 17:03:12.892
47, 23223.53, 13419.96, -187500.02, 187500.00, -187500.02, -187500.02, -187500.02, -187500.02, 0.000, 0.000, 0.000, 17:03:12.892
48, 23981.79, 14185.33, -187500.02, 187500.00, -187500.02, -187500.02, -187500.02, -187500.02, 0.000, 0.000, 0.000, 17:03:12.892
49, 23979.46, 14190.83, -187500.02, 187500.00, -187500.02, -187500.02, -187500.02, -187500.02, 0.000, 0.000, 0.000, 17:03:12.892
50, 23665.33, 13883.96, -187500.02, 187500.00, -187500.02, -187500.02, -187500.02, -187500.02, 0.010, -0.004, 1.030, 17:03:12.892
51, 23024.44, 13230.62, -187500.02, 187500.00, -187500.02, -187500.02, -187500.02, -187500.02, 0.000, 0.000, 0.000, 17:03:12.893
52, 23232.02, 13430.29, -187500.02, 187500.00, -187500.02, -187500.02, -187500.02, -187500.02, 0.000, 0.000, 0.000, 17:03:12.893
53, 23991.89, 14198.12, -187500.02, 187500.00, -187500.02, -187500.02, -187500.02, -187500.02, 0.000, 0.000, 0.000, 17:03:12.893
54, 23984.11, 14184.10, -187500.02, 187500.00, -187500.02, -187500.02, -187500.02, -187500.02, 0.000, 0.000, 0.000, 17:03:12.893
55, 23652.39, 13853.19, -187500.02, 187500.00, -187500.02, -187500.02, -187500.02, -187500.02, 0.000, 0.000, 0.000, 17:03:12.893
56, 23000.95, 13204.65, -187500.02, 187500.00, -187500.02, -187500.02, -187500.02, -187500.02, 0.000, 0.000, 0.000, 17:03:12.893
57, 23215.59, 13408.23, -187500.02, 187500.00, -187500.02, -187500.02, -187500.02, -187500.02, 0.000, 0.000, 0.000, 17:03:12.893
58, 23979.08, 14187.79, -187500.02, 187500.00, -187500.02, -187500.02, -187500.02, -187500.02, 0.000, 0.000, 0.000, 17:03:12.893
59, 23976.09, 14191.95, -187500.02, 187500.00, -187500.02, -187500.02, -187500.02, -187500.02, 0.000, 0.000, 0.000, 17:03:12.894
60, 23662.14, 13869.95, -187500.02, 187500.00, -187500.02, -187500.02, -187500.02, -187500.02, 0.012, -0.008, 1.026, 17:03:12.894
61, 23026.12, 13227.85, -187500.02, 187500.00, -187500.02, -187500.02, -187500.02, -187500.02, 0.000, 0.000, 0.000, 17:03:12.894
62, 23221.67, 13417.15, -187500.02, 187500.00, -187500.02, -187500.02, -187500.02, -187500.02, 0.000, 0.000, 0.000, 17:03:12.894
63, 23978.10, 14180.17, -187500.02, 187500.00, -187500.02, -187500.02, -187500.02, -187500.02, 0.000, 0.000, 0.000, 17:03:12.894
64, 23981.70, 14181.71, -187500.02, 187500.00, -187500.02, -187500.02, -187500.02, -187500.02, 0.000, 0.000, 0.000, 17:03:12.894
65, 23649.22, 13853.86, -187500.02, 187500.00, -187500.02, -187500.02, -187500.02, -187500.02, 0.000, 0.000, 0.000, 17:03:12.894
66, 23019.79, 13224.88, -187500.02, 187500.00, -187500.02, -187500.02, -187500.02, -187500.02, 0.000, 0.000, 0.000, 17:03:12.894
67, 23215.73, 13405.44, -187500.02, 187500.00, -187500.02, -187500.02, -187500.02, -187500.02, 0.000, 0.000, 0.000, 17:03:12.895
68, 23970.19, 14163.27, -187500.02, 187500.00, -187500.02, -187500.02, -187500.02, -187500.02, 0.000, 0.000, 0.000, 17:03:12.895
69, 23982.93, 14184.30, -187500.02, 187500.00, -187500.02, -187500.02, -187500.02, -187500.02, 0.000, 0.000, 0.000, 17:03:12.895
70, 23667.57, 13868.99, -187500.02, 187500.00, -187500.02, -187500.02, -187500.02, -187500.02, 0.008, -0.020, 1.020, 17:03:12.895
71, 23033.09, 13233.55, -187500.02, 187500.00, -187500.02, -187500.02, -187500.02, -187500.02, 0.000, 0.000, 0.000, 17:03:12.895
72, 23212.87, 13405.19, -187500.02, 187500.00, -187500.02, -187500.02, -187500.02, -187500.02, 0.000, 0.000, 0.000, 17:03:12.895
73, 23974.99, 14179.19, -187500.02, 187500.00, -187500.02, -187500.02, -187500.02, -187500.02, 0.000, 0.000, 0.000, 17:03:12.895
74, 23979.82, 14187.46, -187500.02, 187500.00, -187500.02, -187500.02, -187500.02, -187500.02, 0.000, 0.000, 0.000, 17:03:12.896
75, 23681.54, 13883.32, -187500.02, 187500.00, -187500.02, -187500.02, -187500.02, -187500.02, 0.000, 0.000, 0.000, 17:03:12.896
76, 23049.99, 13251.92, -187500.02, 187500.00, -187500.02, -187500.02, -187500.02, -187500.02, 0.000, 0.000, 0.000, 17:03:12.896
77, 23212.06, 13406.89, -187500.02, 187500.00, -187500.02, -187500.02, -187500.02, -187500.02, 0.000, 0.000, 0.000, 17:03:12.896
78, 23973.88, 14171.34, -187500.02, 187500.00, -187500.02, -187500.02, -187500.02, -187500.02, 0.000, 0.000, 0.000, 17:03:12.896
79, 23991.00, 14193.27, -187500.02, 187500.00, -187500.02, -187500.02, -187500.02, -187500.02, 0.000, 0.000, 0.000, 17:03:12.896
80, 23688.00, 13888.57, -187500.02, 187500.00, -187500.02, -187500.02, -187500.02, -187500.02, 0.004, -0.012, 1.028, 17:03:12.897
81, 23045.16, 13241.46, -187500.02, 187500.00, -187500.02, -187500.02, -187500.02, -187500.02, 0.000, 0.000, 0.000, 17:03:12.897
82, 23208.17, 13394.24, -187500.02, 187500.00, -187500.02, -187500.02, -187500.02, -187500.02, 0.000, 0.000, 0.000, 17:03:12.897
83, 23978.59, 14174.45, -187500.02, 187500.00, -187500.02, -187500.02, -187500.02, -187500.02, 0.000, 0.000, 0.000, 17:03:12.897
84, 24003.89, 14212.78, -187500.02, 187500.00, -187500.02, -187500.02, -187500.02, -187500.02, 0.000, 0.000, 0.000, 17:03:12.897
85, 23686.28, 13894.63, -187500.02, 187500.00, -187500.02, -187500.02, -187500.02, -187500.02, 0.000, 0.000, 0.000, 17:03:12.897
86, 23031.26, 13237.84, -187500.02, 187500.00, -187500.02, -187500.02, -187500.02, -187500.02, 0.000, 0.000, 0.000, 17:03:12.898
87, 23187.79, 13382.50, -187500.02, 187500.00, -187500.02, -187500.02, -187500.02, -187500.02, 0.000, 0.000, 0.000, 17:03:12.898
88, 23962.57, 14164.41, -187500.02, 187500.00, -187500.02, -187500.02, -187500.02, -187500.02, 0.000, 0.000, 0.000, 17:03:12.898
89, 24003.96, 14213.09, -187500.02, 187500.00, -187500.02, -187500.02, -187500.02, -187500.02, 0.000, 0.000, 0.000, 17:03:13.359
90, 23694.05, 13904.97, -187500.02, 187500.00, -187500.02, -187500.02, -187500.02, -187500.02, 0.006, -0.010, 1.030, 17:03:13.359
91, 23037.70, 13248.95, -187500.02, 187500.00, -187500.02, -187500.02, -187500.02, -187500.02, 0.000, 0.000, 0.000, 17:03:13.359
92, 23190.20, 13394.19, -187500.02, 187500.00, -187500.02, -187500.02, -187500.02, -187500.02, 0.000, 0.000, 0.000, 17:03:13.360
93, 23963.75, 14175.68, -187500.02, 187500.00, -187500.02, -187500.02, -187500.02, -187500.02, 0.000, 0.000, 0.000, 17:03:13.360
94, 23987.91, 14196.73, -187500.02, 187500.00, -187500.02, -187500.02, -187500.02, -187500.02, 0.000, 0.000, 0.000, 17:03:13.360
95, 23681.52, 13889.98, -187500.02, 187500.00, -187500.02, -187500.02, -187500.02, -187500.02, 0.000, 0.000, 0.000, 17:03:13.360
96, 23044.16, 13251.59, -187500.02, 187500.00, -187500.02, -187500.02, -187500.02, -187500.02, 0.000, 0.000, 0.000, 17:03:13.360
97, 23204.42, 13398.51, -187500.02, 187500.00, -187500.02, -187500.02, -187500.02, -187500.02, 0.000, 0.000, 0.000, 17:03:13.360
98, 23976.20, 14178.47, -187500.02, 187500.00, -187500.02, -187500.02, -187500.02, -187500.02, 0.000, 0.000, 0.000, 17:03:13.361
99, 24012.23, 14222.64, -187500.02, 187500.00, -187500.02, -187500.02, -187500.02, -187500.02, 0.000, 0.000, 0.000, 17:03:13.361
100, 23700.56, 13912.15, -187500.02, 187500.00, -187500.02, -187500.02, -187500.02, -187500.02, 0.010, -0.012, 1.030, 17:03:13.361
101, 23060.65, 13272.71, -187500.02, 187500.00, -187500.02, -187500.02, -187500.02, -187500.02, 0.000, 0.000, 0.000, 17:03:13.361
102, 23185.78, 13391.53, -187500.02, 187500.00, -187500.02, -187500.02, -187500.02, -187500.02, 0.000, 0.000, 0.000, 17:03:13.361
103, 23948.75, 14156.45, -187500.02, 187500.00, -187500.02, -187500.02, -187500.02, -187500.02, 0.000, 0.000, 0.000, 17:03:13.361
104, 23992.05, 14199.57, -187500.02, 187500.00, -187500.02, -187500.02, -187500.02, -187500.02, 0.000, 0.000, 0.000, 17:03:13.361
105, 23697.63, 13903.81, -187500.02, 187500.00, -187500.02, -187500.02, -187500.02, -187500.02, 0.000, 0.000, 0.000, 17:03:13.361
106, 23059.42, 13262.12, -187500.02, 187500.00, -187500.02, -187500.02, -187500.02, -187500.02, 0.000, 0.000, 0.000, 17:03:13.362
107, 23173.97, 13366.59, -187500.02, 187500.00, -187500.02, -187500.02, -187500.02, -187500.02, 0.000, 0.000, 0.000, 17:03:13.362
108, 23960.02, 14165.73, -187500.02, 187500.00, -187500.02, -187500.02, -187500.02, -187500.02, 0.000, 0.000, 0.000, 17:03:13.362
109, 23992.56, 14207.19, -187500.02, 187500.00, -187500.02, -187500.02, -187500.02, -187500.02, 0.000, 0.000, 0.000, 17:03:13.362
110, 23705.68, 13916.89, -187500.02, 187500.00, -187500.02, -187500.02, -187500.02, -187500.02, 0.010, -0.012, 1.028, 17:03:13.362
111, 23064.23, 13277.47, -187500.02, 187500.00, -187500.02, -187500.02, -187500.02, -187500.02, 0.000, 0.000, 0.000, 17:03:13.362
112, 23180.95, 13391.49, -187500.02, 187500.00, -187500.02, -187500.02, -187500.02, -187500.02, 0.000, 0.000, 0.000, 17:03:13.362
113, 23964.33, 14185.04, -187500.02, 187500.00, -187500.02, -187500.02, -187500.02, -187500.02, 0.000, 0.000, 0.000, 17:03:13.362
114, 24022.87, 14238.73, -187500.02, 187500.00, -187500.02, -187500.02, -187500.02, -187500.02, 0.000, 0.000, 0.000, 17:03:13.362
115, 23720.95, 13926.68, -187500.02, 187500.00, -187500.02, -187500.02, -187500.02, -187500.02, 0.000, 0.000, 0.000, 17:03:13.363
116, 23083.16, 13288.33, -187500.02, 187500.00, -187500.02, -187500.02, -187500.02, -187500.02, 0.000, 0.000, 0.000, 17:03:13.363
117, 23187.90, 13383.87, -187500.02, 187500.00, -187500.02, -187500.02, -187500.02, -187500.02, 0.000, 0.000, 0.000, 17:03:13.363
118, 23966.75, 14174.40, -187500.02, 187500.00, -187500.02, -187500.02, -187500.02, -187500.02, 0.000, 0.000, 0.000, 17:03:13.363
119, 24014.85, 14233.93, -187500.02, 187500.00, -187500.02, -187500.02, -187500.02, -187500.02, 0.000, 0.000, 0.000, 17:03:13.363
120, 23711.13, 13922.32, -187500.02, 187500.00, -187500.02, -187500.02, -187500.02, -187500.02, 0.006, -0.014, 1.022, 17:03:13.364
121, 23068.81, 13283.40, -187500.02, 187500.00, -187500.02, -187500.02, -187500.02, -187500.02, 0.000, 0.000, 0.000, 17:03:13.364
122, 23185.06, 13387.64, -187500.02, 187500.00, -187500.02, -187500.02, -187500.02, -187500.02, 0.000, 0.000, 0.000, 17:03:13.364
123, 23966.86, 14175.23, -187500.02, 187500.00, -187500.02, -187500.02, -187500.02, -187500.02, 0.000, 0.000, 0.000, 17:03:13.364
124, 24021.66, 14239.36, -187500.02, 187500.00, -187500.02, -187500.02, -187500.02, -187500.02, 0.000, 0.000, 0.000, 17:03:13.364
125, 23716.83, 13934.90, -187500.02, 187500.00, -187500.02, -187500.02, -187500.02, -187500.02, 0.000, 0.000, 0.000, 17:03:13.364
126, 23069.10, 13284.83, -187500.02, 187500.00, -187500.02, -187500.02, -187500.02, -187500.02, 0.000, 0.000, 0.000, 17:03:13.364
127, 23162.80, 13367.13, -187500.02, 187500.00, -187500.02, -187500.02, -187500.02, -187500.02, 0.000, 0.000, 0.000, 17:03:13.364
128, 23948.17, 14163.58, -187500.02, 187500.00, -187500.02, -187500.02, -187500.02, -187500.02, 0.000, 0.000, 0.000, 17:03:13.365
129, 24005.24, 14221.95, -187500.02, 187500.00, -187500.02, -187500.02, -187500.02, -187500.02, 0.000, 0.000, 0.000, 17:03:13.365
130, 23717.12, 13926.77, -187500.02, 187500.00, -187500.02, -187500.02, -187500.02, -187500.02, 0.004, -0.012, 1.026, 17:03:13.365
131, 23078.71, 13284.51, -187500.02, 187500.00, -187500.02, -187500.02, -187500.02, -187500.02, 0.000, 0.000, 0.000, 17:03:13.365
132, 23174.67, 13369.83, -187500.02, 187500.00, -187500.02, -187500.02, -187500.02, -187500.02, 0.000, 0.000, 0.000, 17:03:13.365
133, 23964.42, 14163.36, -187500.02, 187500.00, -187500.02, -187500.02, -187500.02, -187500.02, 0.000, 0.000, 0.000, 17:03:13.365
134, 24026.67, 14232.74, -187500.02, 187500.00, -187500.02, -187500.02, -187500.02, -187500.02, 0.000, 0.000, 0.000, 17:03:13.365
135, 23726.67, 13940.69, -187500.02, 187500.00, -187500.02, -187500.02, -187500.02, -187500.02, 0.000, 0.000, 0.000, 17:03:13.365
136, 23089.15, 13309.79, -187500.02, 187500.00, -187500.02, -187500.02, -187500.02, -187500.02, 0.000, 0.000, 0.000, 17:03:13.365
137, 23170.49, 13378.84, -187500.02, 187500.00, -187500.02, -187500.02, -187500.02, -187500.02, 0.000, 0.000, 0.000, 17:03:13.366
138, 23951.44, 14162.47, -187500.02, 187500.00, -187500.02, -187500.02, -187500.02, -187500.02, 0.000, 0.000, 0.000, 17:03:13.366
139, 24026.47, 14241.08, -187500.02, 187500.00, -187500.02, -187500.02, -187500.02, -187500.02, 0.006, -0.014, 1.030, 17:03:13.366
140, 23739.05, 13948.96, -187500.02, 187500.00, -187500.02, -187500.02, -187500.02, -187500.02, 0.000, 0.000, 0.000, 17:03:13.366
141, 23090.74, 13299.94, -187500.02, 187500.00, -187500.02, -187500.02, -187500.02, -187500.02, 0.000, 0.000, 0.000, 17:03:13.366
142, 23163.29, 13362.88, -187500.02, 187500.00, -187500.02, -187500.02, -187500.02, -187500.02, 0.000, 0.000, 0.000, 17:03:13.366
143, 23958.05, 14170.25, -187500.02, 187500.00, -187500.02, -187500.02, -187500.02, -187500.02, 0.000, 0.000, 0.000, 17:03:13.366
144, 24026.22, 14247.52, -187500.02, 187500.00, -187500.02, -187500.02, -187500.02, -187500.02, 0.000, 0.000, 0.000, 17:03:13.367
145, 23719.63, 13935.78, -187500.02, 187500.00, -187500.02, -187500.02, -187500.02, -187500.02, 0.000, 0.000, 0.000, 17:03:13.367
146, 23100.13, 13319.29, -187500.02, 187500.00, -187500.02, -187500.02, -187500.02, -187500.02, 0.000, 0.000, 0.000, 17:03:13.367
147, 23166.93, 13373.92, -187500.02, 187500.00, -187500.02, -187500.02, -187500.02, -187500.02, 0.000, 0.000, 0.000, 17:03:13.367
148, 23958.68, 14163.92, -187500.02, 187500.00, -187500.02, -187500.02, -187500.02, -187500.02, 0.000, 0.000, 0.000, 17:03:13.367
149, 24032.77, 14245.66, -187500.02, 187500.00, -187500.02, -187500.02, -187500.02, -187500.02, 0.010, -0.014, 1.018, 17:03:13.367
150, 23731.94, 13953.93, -187500.02, 187500.00, -187500.02, -187500.02, -187500.02, -187500.02, 0.000, 0.000, 0.000, 17:03:13.368
151, 23090.22, 13303.83, -187500.02, 187500.00, -187500.02, -187500.02, -187500.02, -187500.02, 0.000, 0.000, 0.000, 17:03:13.368
152, 23157.37, 13357.60, -187500.02, 187500.00, -187500.02, -187500.02, -187500.02, -187500.02, 0.000, 0.000, 0.000, 17:03:13.368
153, 23952.82, 14167.65, -187500.02, 187500.00, -187500.02, -187500.02, -187500.02, -187500.02, 0.000, 0.000, 0.000, 17:03:13.368
154, 24030.09, 14247.85, -187500.02, 187500.00, -187500.02, -187500.02, -187500.02, -187500.02, 0.000, 0.000, 0.000, 17:03:13.368
155, 23747.21, 13966.69, -187500.02, 187500.00, -187500.02, -187500.02, -187500.02, -187500.02, 0.000, 0.000, 0.000, 17:03:13.368
156, 23107.03, 13336.12, -187500.02, 187500.00, -187500.02, -187500.02, -187500.02, -187500.02, 0.000, 0.000, 0.000, 17:03:13.369
157, 23154.15, 13365.14, -187500.02, 187500.00, -187500.02, -187500.02, -187500.02, -187500.02, 0.000, 0.000, 0.000, 17:03:13.369
158, 23956.84, 14163.47, -187500.02, 187500.00, -187500.02, -187500.02, -187500.02, -187500.02, 0.000, 0.000, 0.000, 17:03:13.369
159, 24027.41, 14235.45, -187500.02, 187500.00, -187500.02, -187500.02, -187500.02, -187500.02, 0.008, -0.014, 1.020, 17:03:13.369
160, 23740.21, 13948.67, -187500.02, 187500.00, -187500.02, -187500.02, -187500.02, -187500.02, 0.000, 0.000, 0.000, 17:03:13.369
161, 23105.40, 13312.12, -187500.02, 187500.00, -187500.02, -187500.02, -187500.02, -187500.02, 0.000, 0.000, 0.000, 17:03:13.369
162, 23155.69, 13350.32, -187500.02, 187500.00, -187500.02, -187500.02, -187500.02, -187500.02, 0.000, 0.000, 0.000, 17:03:13.370
163, 23940.80, 14143.54, -187500.02, 187500.00, -187500.02, -187500.02, -187500.02, -187500.02, 0.000, 0.000, 0.000, 17:03:13.370
164, 24039.68, 14251.79, -187500.02, 187500.00, -187500.02, -187500.02, -187500.02, -187500.02, 0.000, 0.000, 0.000, 17:03:13.370
165, 23745.17, 13959.40, -187500.02, 187500.00, -187500.02, -187500.02, -187500.02, -187500.02, 0.000, 0.000, 0.000, 17:03:13.370
166, 23104.80, 13322.60, -187500.02, 187500.00, -187500.02, -187500.02, -187500.02, -187500.02, 0.000, 0.000, 0.000, 17:03:13.370
167, 23148.72, 13356.87, -187500.02, 187500.00, -187500.02, -187500.02, -187500.02, -187500.02, 0.000, 0.000, 0.000, 17:03:13.370
168, 23950.94, 14160.63, -187500.02, 187500.00, -187500.02, -187500.02, -187500.02, -187500.02, 0.000, 0.000, 0.000, 17:03:13.370
169, 24042.72, 14260.23, -187500.02, 187500.00, -187500.02, -187500.02, -187500.02, -187500.02, 0.006, -0.016, 1.026, 17:03:13.371
170, 23755.43, 13976.48, -187500.02, 187500.00, -187500.02, -187500.02, -187500.02, -187500.02, 0.000, 0.000, 0.000, 17:03:13.371
171, 23125.18, 13336.82, -187500.02, 187500.00, -187500.02, -187500.02, -187500.02, -187500.02, 0.000, 0.000, 0.000, 17:03:13.371
172, 23149.23, 13352.84, -187500.02, 187500.00, -187500.02, -187500.02, -187500.02, -187500.02, 0.000, 0.000, 0.000, 17:03:13.371
173, 23941.47, 14154.31, -187500.02, 187500.00, -187500.02, -187500.02, -187500.02, -187500.02, 0.000, 0.000, 0.000, 17:03:13.371
174, 24043.93, 14264.61, -187500.02, 187500.00, -187500.02, -187500.02, -187500.02, -187500.02, 0.000, 0.000, 0.000, 17:03:13.371
175, 23768.44, 13983.00, -187500.02, 187500.00, -187500.02, -187500.02, -187500.02, -187500.02, 0.000, 0.000, 0.000, 17:03:13.371
176, 23126.03, 13341.22, -187500.02, 187500.00, -187500.02, -187500.02, -187500.02, -187500.02, 0.000, 0.000, 0.000, 17:03:13.371
177, 23150.44, 13358.65, -187500.02, 187500.00, -187500.02, -187500.02, -187500.02, -187500.02, 0.000, 0.000, 0.000, 17:03:13.372
178, 23945.13, 14158.40, -187500.02, 187500.00, -187500.02, -187500.02, -187500.02, -187500.02, 0.000, 0.000, 0.000, 17:03:13.372
179, 24040.64, 14255.16, -187500.02, 187500.00, -187500.02, -187500.02, -187500.02, -187500.02, 0.006, -0.014, 1.022, 17:03:13.372
180, 23754.45, 13967.11, -187500.02, 187500.00, -187500.02, -187500.02, -187500.02, -187500.02, 0.000, 0.000, 0.000, 17:03:13.372
181, 23118.39, 13334.29, -187500.02, 187500.00, -187500.02, -187500.02, -187500.02, -187500.02, 0.000, 0.000, 0.000, 17:03:13.372
182, 23139.06, 13350.54, -187500.02, 187500.00, -187500.02, -187500.02, -187500.02, -187500.02, 0.000, 0.000, 0.000, 17:03:13.372
183, 23940.30, 14161.04, -187500.02, 187500.00, -187500.02, -187500.02, -187500.02, -187500.02, 0.000, 0.000, 0.000, 17:03:13.372
184, 24029.67, 14255.34, -187500.02, 187500.00, -187500.02, -187500.02, -187500.02, -187500.02, 0.000, 0.000, 0.000, 17:03:13.372
185, 23776.73, 13997.58, -187500.02, 187500.00, -187500.02, -187500.02, -187500.02, -187500.02, 0.000, 0.000, 0.000, 17:03:13.373
186, 23151.73, 13374.63, -187500.02, 187500.00, -187500.02, -187500.02, -187500.02, -187500.02, 0.000, 0.000, 0.000, 17:03:13.373
187, 23145.86, 13356.46, -187500.02, 187500.00, -187500.02, -187500.02, -187500.02, -187500.02, 0.000, 0.000, 0.000, 17:03:13.373
188, 23941.04, 14149.19, -187500.02, 187500.00, -187500.02, -187500.02, -187500.02, -187500.02, 0.000, 0.000, 0.000, 17:03:13.373
189, 24040.15, 14252.32, -187500.02, 187500.00, -187500.02, -187500.02, -187500.02, -187500.02, 0.004, -0.012, 1.024, 17:03:13.373
190, 23754.12, 13974.62, -187500.02, 187500.00, -187500.02, -187500.02, -187500.02, -187500.02, 0.000, 0.000, 0.000, 17:03:13.373
191, 23131.71, 13356.06, -187500.02, 187500.00, -187500.02, -187500.02, -187500.02, -187500.02, 0.000, 0.000, 0.000, 17:03:13.374
192, 23132.78, 13341.73, -187500.02, 187500.00, -187500.02, -187500.02, -187500.02, -187500.02, 0.000, 0.000, 0.000, 17:03:13.374
193, 23920.84, 14133.41, -187500.02, 187500.00, -187500.02, -187500.02, -187500.02, -187500.02, 0.000, 0.000, 0.000, 17:03:13.374
194, 24040.08, 14255.29, -187500.02, 187500.00, -187500.02, -187500.02, -187500.02, -187500.02, 0.000, 0.000, 0.000, 17:03:13.374
195, 23772.38, 13989.46, -187500.02, 187500.00, -187500.02, -187500.02, -187500.02, -187500.02, 0.000, 0.000, 0.000, 17:03:13.374
196, 23143.64, 13364.29, -187500.02, 187500.00, -187500.02, -187500.02, -187500.02, -187500.02, 0.000, 0.000, 0.000, 17:03:13.374
197, 23141.68, 13354.16, -187500.02, 187500.00, -187500.02, -187500.02, -187500.02, -187500.02, 0.000, 0.000, 0.000, 17:03:13.374
198, 23934.74, 14154.08, -187500.02, 187500.00, -187500.02, -187500.02, -187500.02, -187500.02, 0.000, 0.000, 0.000, 17:03:13.374
199, 24048.40, 14272.95, -187500.02, 187500.00, -187500.02, -187500.02, -187500.02, -187500.02, 0.006, -0.016, 1.026, 17:03:13.375
200, 23761.04, 13981.49, -187500.02, 187500.00, -187500.02, -187500.02, -187500.02, -187500.02, 0.000, 0.000, 0.000, 17:03:13.375
201, 23138.90, 13357.27, -187500.02, 187500.00, -187500.02, -187500.02, -187500.02, -187500.02, 0.000, 0.000, 0.000, 17:03:13.375
202, 23131.10, 13341.04, -187500.02, 187500.00, -187500.02, -187500.02, -187500.02, -187500.02, 0.000, 0.000, 0.000, 17:03:13.375
203, 23923.54, 14139.96, -187500.02, 187500.00, -187500.02, -187500.02, -187500.02, -187500.02, 0.000, 0.000, 0.000, 17:03:13.375
204, 24039.39, 14260.50, -187500.02, 187500.00, -187500.02, -187500.02, -187500.02, -187500.02, 0.000, 0.000, 0.000, 17:03:13.375
205, 23770.16, 13993.31, -187500.02, 187500.00, -187500.02, -187500.02, -187500.02, -187500.02, 0.000, 0.000, 0.000, 17:03:13.375
206, 23156.43, 13379.44, -187500.02, 187500.00, -187500.02, -187500.02, -187500.02, -187500.02, 0.000, 0.000, 0.000, 17:03:13.375
207, 23127.73, 13336.44, -187500.02, 187500.00, -187500.02, -187500.02, -187500.02, -187500.02, 0.000, 0.000, 0.000, 17:03:13.376
208, 23928.01, 14147.25, -187500.02, 187500.00, -187500.02, -187500.02, -187500.02, -187500.02, 0.000, 0.000, 0.000, 17:03:13.376
209, 24054.14, 14280.13, -187500.02, 187500.00, -187500.02, -187500.02, -187500.02, -187500.02, 0.008, -0.012, 1.022, 17:03:13.840
210, 23780.20, 14008.26, -187500.02, 187500.00, -187500.02, -187500.02, -187500.02, -187500.02, 0.000, 0.000, 0.000, 17:03:13.840
211, 23154.33, 13379.87, -187500.02, 187500.00, -187500.02, -187500.02, -187500.02, -187500.02, 0.000, 0.000, 0.000, 17:03:13.840
212, 23128.29, 13343.25, -187500.02, 187500.00, -187500.02, -187500.02, -187500.02, -187500.02, 0.000, 0.000, 0.000, 17:03:13.840
213, 23930.51, 14154.89, -187500.02, 187500.00, -187500.02, -187500.02, -187500.02, -187500.02, 0.000, 0.000, 0.000, 17:03:13.840
214, 24051.44, 14282.36, -187500.02, 187500.00, -187500.02, -187500.02, -187500.02, -187500.02, 0.000, 0.000, 0.000, 17:03:13.840
215, 23776.96, 14007.70, -187500.02, 187500.00, -187500.02, -187500.02, -187500.02, -187500.02, 0.000, 0.000, 0.000, 17:03:13.841
216, 23145.21, 13378.99, -187500.02, 187500.00, -187500.02, -187500.02, -187500.02, -187500.02, 0.000, 0.000, 0.000, 17:03:13.841
217, 23113.58, 13333.28, -187500.02, 187500.00, -187500.02, -187500.02, -187500.02, -187500.02, 0.000, 0.000, 0.000, 17:03:13.841
218, 23921.91, 14143.80, -187500.02, 187500.00, -187500.02, -187500.02, -187500.02, -187500.02, 0.000, 0.000, 0.000, 17:03:13.841
219, 24058.99, 14279.23, -187500.02, 187500.00, -187500.02, -187500.02, -187500.02, -187500.02, 0.002, -0.010, 1.026, 17:03:13.841
220, 23778.03, 13996.64, -187500.02, 187500.00, -187500.02, -187500.02, -187500.02, -187500.02, 0.000, 0.000, 0.000, 17:03:13.841
221, 23160.85, 13378.48, -187500.02, 187500.00, -187500.02, -187500.02, -187500.02, -187500.02, 0.000, 0.000, 0.000, 17:03:13.842
222, 23119.62, 13333.15, -187500.02, 187500.00, -187500.02, -187500.02, -187500.02, -187500.02, 0.000, 0.000, 0.000, 17:03:13.842
223, 23928.97, 14143.98, -187500.02, 187500.00, -187500.02, -187500.02, -187500.02, -187500.02, 0.000, 0.000, 0.000, 17:03:13.842
224, 24054.32, 14277.00, -187500.02, 187500.00, -187500.02, -187500.02, -187500.02, -187500.02, 0.000, 0.000, 0.000, 17:03:13.842
225, 23789.92, 14009.96, -187500.02, 187500.00, -187500.02, -187500.02, -187500.02, -187500.02, 0.000, 0.000, 0.000, 17:03:13.842
226, 23163.13, 13383.96, -187500.02, 187500.00, -187500.02, -187500.02, -187500.02, -187500.02, 0.000, 0.000, 0.000, 17:03:13.843
227, 23110.56, 13325.73, -187500.02, 187500.00, -187500.02, -187500.02, -187500.02, -187500.02, 0.000, 0.000, 0.000, 17:03:13.843
228, 23915.92, 14138.22, -187500.02, 187500.00, -187500.02, -187500.02, -187500.02, -187500.02, 0.000, 0.000, 0.000, 17:03:13.843
229, 24042.85, 14271.68, -187500.02, 187500.00, -187500.02, -187500.02, -187500.02, -187500.02, 0.004, -0.010, 1.024, 17:03:13.843
230, 23780.49, 14006.68, -187500.02, 187500.00, -187500.02, -187500.02, -187500.02, -187500.02, 0.000, 0.000, 0.000, 17:03:13.843
231, 23165.41, 13388.63, -187500.02, 187500.00, -187500.02, -187500.02, -187500.02, -187500.02, 0.000, 0.000, 0.000, 17:03:13.843
232, 23105.38, 13322.00, -187500.02, 187500.00, -187500.02, -187500.02, -187500.02, -187500.02, 0.000, 0.000, 0.000, 17:03:13.844
233, 23909.73, 14126.95, -187500.02, 187500.00, -187500.02, -187500.02, -187500.02, -187500.02, 0.000, 0.000, 0.000, 17:03:13.844
234, 24049.87, 14270.34, -187500.02, 187500.00, -187500.02, -187500.02, -187500.02, -187500.02, 0.000, 0.000, 0.000, 17:03:13.844
235, 23776.40, 13999.63, -187500.02, 187500.00, -187500.02, -187500.02, -187500.02, -187500.02, 0.000, 0.000, 0.000, 17:03:13.844
236, 23163.47, 13383.93, -187500.02, 187500.00, -187500.02, -187500.02, -187500.02, -187500.02, 0.000, 0.000, 0.000, 17:03:13.844
237, 23100.06, 13311.65, -187500.02, 187500.00, -187500.02, -187500.02, -187500.02, -187500.02, 0.000, 0.000, 0.000, 17:03:13.844
238, 23914.49, 14140.14, -187500.02, 187500.00, -187500.02, -187500.02, -187500.02, -187500.02, 0.000, 0.000, 0.000, 17:03:13.845
239, 24056.69, 14294.66, -187500.02, 187500.00, -187500.02, -187500.02, -187500.02, -187500.02, 0.002, -0.014, 1.028, 17:03:13.845
240, 23792.04, 14022.19, -187500.02, 187500.00, -187500.02, -187500.02, -187500.02, -187500.02, 0.000, 0.000, 0.000, 17:03:13.845
241, 23187.19, 13413.91, -187500.02, 187500.00, -187500.02, -187500.02, -187500.02, -187500.02, 0.000, 0.000, 0.000, 17:03:13.845
242, 23111.84, 13323.67, -187500.02, 187500.00, -187500.02, -187500.02, -187500.02, -187500.02, 0.000, 0.000, 0.000, 17:03:13.845
243, 23924.03, 14139.69, -187500.02, 187500.00, -187500.02, -187500.02, -187500.02, -187500.02, 0.000, 0.000, 0.000, 17:03:13.845
244, 24057.12, 14288.75, -187500.02, 187500.00, -187500.02, -187500.02, -187500.02, -187500.02, 0.000, 0.000, 0.000, 17:03:13.845
245, 23795.85, 14025.76, -187500.02, 187500.00, -187500.02, -187500.02, -187500.02, -187500.02, 0.000, 0.000, 0.000, 17:03:13.846
246, 23193.00, 13413.80, -187500.02, 187500.00, -187500.02, -187500.02, -187500.02, -187500.02, 0.000, 0.000, 0.000, 17:03:13.846
247, 23109.29, 13318.24, -187500.02, 187500.00, -187500.02, -187500.02, -187500.02, -187500.02, 0.000, 0.000, 0.000, 17:03:13.846
248, 23905.95, 14122.41, -187500.02, 187500.00, -187500.02, -187500.02, -187500.02, -187500.02, 0.000, 0.000, 0.000, 17:03:13.846
249, 24068.36, 14289.83, -187500.02, 187500.00, -187500.02, -187500.02, -187500.02, -187500.02, 0.006, -0.008, 1.022, 17:03:13.846
250, 23802.66, 14021.00, -187500.02, 187500.00, -187500.02, -187500.02, -187500.02, -187500.02, 0.000, 0.000, 0.000, 17:03:13.846
251, 23188.82, 13418.27, -187500.02, 187500.00, -187500.02, -187500.02, -187500.02, -187500.02, 0.000, 0.000, 0.000, 17:03:13.847
252, 23105.62, 13329.31, -187500.02, 187500.00, -187500.02, -187500.02, -187500.02, -187500.02, 0.000, 0.000, 0.000, 17:03:13.847
253, 23899.56, 14129.61, -187500.02, 187500.00, -187500.02, -187500.02, -187500.02, -187500.02, 0.000, 0.000, 0.000, 17:03:13.847
254, 24048.20, 14281.18, -187500.02, 187500.00, -187500.02, -187500.02, -187500.02, -187500.02, 0.000, 0.000, 0.000, 17:03:13.847
255, 23796.40, 14033.16, -187500.02, 187500.00, -187500.02, -187500.02, -187500.02, -187500.02, 0.000, 0.000, 0.000, 17:03:13.847
0, 23190.22, 13423.67, -187500.02, 187500.00, -187500.02, -187500.02, -187500.02, -187500.02, 0.000, 0.000, 0.000, 17:03:13.847
1, 23100.82, 13316.86, -187500.02, 187500.00, -187500.02, -187500.02, -187500.02, -187500.02, 0.000, 0.000, 0.000, 17:03:13.848
2, 23905.03, 14125.25, -187500.02, 187500.00, -187500.02, -187500.02, -187500.02, -187500.02, 0.004, -0.014, 1.020, 17:03:13.848
3, 24056.87, 14287.32, -187500.02, 187500.00, -187500.02, -187500.02, -187500.02, -187500.02, 0.000, 0.000, 0.000, 17:03:13.848
4, 23810.66, 14043.85, -187500.02, 187500.00, -187500.02, -187500.02, -187500.02, -187500.02, 0.000, 0.000, 0.000, 17:03:13.848
5, 23198.70, 13432.19, -187500.02, 187500.00, -187500.02, -187500.02, -187500.02, -187500.02, 0.000, 0.000, 0.000, 17:03:13.848
6, 23094.00, 13327.41, -187500.02, 187500.00, -187500.02, -187500.02, -187500.02, -187500.02, 0.000, 0.000, 0.000, 17:03:13.849
7, 23902.93, 14134.30, -187500.02, 187500.00, -187500.02, -187500.02, -187500.02, -187500.02, 0.000, 0.000, 0.000, 17:03:13.849
8, 24070.10, 14298.77, -187500.02, 187500.00, -187500.02, -187500.02, -187500.02, -187500.02, 0.000, 0.000, 0.000, 17:03:13.849
9, 23808.38, 14034.17, -187500.02, 187500.00, -187500.02, -187500.02, -187500.02, -187500.02, 0.000, 0.000, 0.000, 17:03:13.849
10, 23198.90, 13433.42, -187500.02, 187500.00, -187500.02, -187500.02, -187500.02, -187500.02, 0.000, 0.000, 0.000, 17:03:13.849
11, 23089.26, 13320.16, -187500.02, 187500.00, -187500.02, -187500.02, -187500.02, -187500.02, 0.000, 0.000, 0.000, 17:03:13.849
12, 23894.33, 14122.57, -187500.02, 187500.00, -187500.02, -187500.02, -187500.02, -187500.02, 0.008, -0.010, 1.022, 17:03:13.850
13, 24048.42, 14277.87, -187500.02, 187500.00, -187500.02, -187500.02, -187500.02, -187500.02, 0.000, 0.000, 0.000, 17:03:13.850
14, 23788.02, 14018.52, -187500.02, 187500.00, -187500.02, -187500.02, -187500.02, -187500.02, 0.000, 0.000, 0.000, 17:03:13.850
15, 23204.73, 13437.96, -187500.02, 187500.00, -187500.02, -187500.02, -187500.02, -187500.02, 0.000, 0.000, 0.000, 17:03:13.850
16, 23092.90, 13310.51, -187500.02, 187500.00, -187500.02, -187500.02, -187500.02, -187500.02, 0.000, 0.000, 0.000, 17:03:13.850
17, 23902.82, 14120.65, -187500.02, 187500.00, -187500.02, -187500.02, -187500.02, -187500.02, 0.000, 0.000, 0.000, 17:03:13.851
18, 24077.25, 14305.90, -187500.02, 187500.00, -187500.02, -187500.02, -187500.02, -187500.02, 0.000, 0.000, 0.000, 17:03:13.851
19, 23819.31, 14053.01, -187500.02, 187500.00, -187500.02, -187500.02, -187500.02, -187500.02, 0.000, 0.000, 0.000, 17:03:13.851
20, 23220.69, 13450.18, -187500.02, 187500.00, -187500.02, -187500.02, -187500.02, -187500.02, 0.000, 0.000, 0.000, 17:03:13.851
21, 23103.39, 13305.88, -187500.02, 187500.00, -187500.02, -187500.02, -187500.02, -187500.02, 0.000, 0.000, 0.000, 17:03:13.851
22, 23899.58, 14105.05, -187500.02, 187500.00, -187500.02, -187500.02, -187500.02, -187500.02, 0.010, -0.010, 1.026, 17:03:13.851
23, 24071.22, 14289.87, -187500.02, 187500.00, -187500.02, -187500.02, -187500.02, -187500.02, 0.000, 0.000, 0.000, 17:03:13.852
24, 23838.71, 14062.13, -187500.02, 187500.00, -187500.02, -187500.02, -187500.02, -187500.02, 0.000, 0.000, 0.000, 17:03:13.852
25, 23233.95, 13459.46, -187500.02, 187500.00, -187500.02, -187500.02, -187500.02, -187500.02, 0.000, 0.000, 0.000, 17:03:13.852
26, 23098.85, 13312.23, -187500.02, 187500.00, -187500.02, -187500.02, -187500.02, -187500.02, 0.000, 0.000, 0.000, 17:03:13.852
27, 23893.86, 14112.51, -187500.02, 187500.00, -187500.02, -187500.02, -187500.02, -187500.02, 0.000, 0.000, 0.000, 17:03:13.852
28, 24072.74, 14301.54, -187500.02, 187500.00, -187500.02, -187500.02, -187500.02, -187500.02, 0.000, 0.000, 0.000, 17:03:13.852
29, 23825.24, 14057.84, -187500.02, 187500.00, -187500.02, -187500.02, -187500.02, -187500.02, 0.000, 0.000, 0.000, 17:03:13.853
30, 23233.68, 13466.17, -187500.02, 187500.00, -187500.02, -187500.02, -187500.02, -187500.02, 0.000, 0.000, 0.000, 17:03:13.853
31, 23095.63, 13324.19, -187500.02, 187500.00, -187500.02, -187500.02, -187500.02, -187500.02, 0.000, 0.000, 0.000, 17:03:13.853
32, 23894.15, 14128.16, -187500.02, 187500.00, -187500.02, -187500.02, -187500.02, -187500.02, 0.012, -0.014, 1.026, 17:03:13.853
33, 24077.70, 14314.12, -187500.02, 187500.00, -187500.02, -187500.02, -187500.02, -187500.02, 0.000, 0.000, 0.000, 17:03:13.853
34, 23824.86, 14058.60, -187500.02, 187500.00, -187500.02, -187500.02, -187500.02, -187500.02, 0.000, 0.000, 0.000, 17:03:13.853
35, 23218.10, 13452.38, -187500.02, 187500.00, -187500.02, -187500.02, -187500.02, -187500.02, 0.000, 0.000, 0.000, 17:03:13.853
36, 23065.79, 13291.06, -187500.02, 187500.00, -187500.02, -187500.02, -187500.02, -187500.02, 0.000, 0.000, 0.000, 17:03:13.853
37, 23867.17, 14091.50, -187500.02, 187500.00, -187500.02, -187500.02, -187500.02, -187500.02, 0.000, 0.000, 0.000, 17:03:13.854
38, 24071.17, 14302.01, -187500.02, 187500.00, -187500.02, -187500.02, -187500.02, -187500.02, 0.000, 0.000, 0.000, 17:03:13.854
39, 23826.76, 14058.38, -187500.02, 187500.00, -187500.02, -187500.02, -187500.02, -187500.02, 0.000, 0.000, 0.000, 17:03:13.854
40, 23225.23, 13459.82, -187500.02, 187500.00, -187500.02, -187500.02, -187500.02, -187500.02, 0.000, 0.000, 0.000, 17:03:13.854
41, 23074.98, 13302.86, -187500.02, 187500.00, -187500.02, -187500.02, -187500.02, -187500.02, 0.000, 0.000, 0.000, 17:03:13.854
42, 23872.98, 14100.35, -187500.02, 187500.00, -187500.02, -187500.02, -187500.02, -187500.02, 0.010, -0.010, 1.020, 17:03:13.854
43, 24072.29, 14309.72, -187500.02, 187500.00, -187500.02, -187500.02, -187500.02, -187500.02, 0.000, 0.000, 0.000, 17:03:13.855
44, 23823.90, 14057.75, -187500.02, 187500.00, -187500.02, -187500.02, -187500.02, -187500.02, 0.000, 0.000, 0.000, 17:03:13.855
45, 23229.36, 13453.69, -187500.02, 187500.00, -187500.02, -187500.02, -187500.02, -187500.02, 0.000, 0.000, 0.000, 17:03:13.855
46, 23077.59, 13291.22, -187500.02, 187500.00, -187500.02, -187500.02, -187500.02, -187500.02, 0.000, 0.000, 0.000, 17:03:13.855
47, 23875.39, 14097.87, -187500.02, 187500.00, -187500.02, -187500.02, -187500.02, -187500.02, 0.000, 0.000, 0.000, 17:03:13.855
48, 24084.18, 14321.39, -187500.02, 187500.00, -187500.02, -187500.02, -187500.02, -187500.02, 0.000, 0.000, 0.000, 17:03:13.856
49, 23826.02, 14061.88, -187500.02, 187500.00, -187500.02, -187500.02, -187500.02, -187500.02, 0.000, 0.000, 0.000, 17:03:13.856
50, 23229.63, 13461.81, -187500.02, 187500.00, -187500.02, -187500.02, -187500.02, -187500.02, 0.000, 0.000, 0.000, 17:03:13.856
51, 23063.36, 13285.63, -187500.02, 187500.00, -187500.02, -187500.02, -187500.02, -187500.02, 0.000, 0.000, 0.000, 17:03:13.856
52, 23861.94, 14090.20, -187500.02, 187500.00, -187500.02, -187500.02, -187500.02, -187500.02, 0.010, -0.018, 1.018, 17:03:13.856
53, 24073.59, 14310.17, -187500.02, 187500.00, -187500.02, -187500.02, -187500.02, -187500.02, 0.000, 0.000, 0.000, 17:03:13.856
54, 23804.90, 14041.23, -187500.02, 187500.00, -187500.02, -187500.02, -187500.02, -187500.02, 0.000, 0.000, 0.000, 17:03:13.856
55, 23232.69, 13467.48, -187500.02, 187500.00, -187500.02, -187500.02, -187500.02, -187500.02, 0.000, 0.000, 0.000, 17:03:13.856
56, 23070.42, 13286.57, -187500.02, 187500.00, -187500.02, -187500.02, -187500.02, -187500.02, 0.000, 0.000, 0.000, 17:03:13.857
57, 23862.36, 14077.89, -187500.02, 187500.00, -187500.02, -187500.02, -187500.02, -187500.02, 0.000, 0.000, 0.000, 17:03:13.857
58, 24072.87, 14298.83, -187500.02, 187500.00, -187500.02, -187500.02, -187500.02, -187500.02, 0.000, 0.000, 0.000, 17:03:13.857
59, 23825.57, 14057.26, -187500.02, 187500.00, -187500.02, -187500.02, -187500.02, -187500.02, 0.000, 0.000, 0.000, 17:03:13.857
60, 23245.90, 13481.97, -187500.02, 187500.00, -187500.02, -187500.02, -187500.02, -187500.02, 0.000, 0.000, 0.000, 17:03:13.857
61, 23072.72, 13300.41, -187500.02, 187500.00, -187500.02, -187500.02, -187500.02, -187500.02, 0.000, 0.000, 0.000, 17:03:13.857
62, 23862.97, 14082.00, -187500.02, 187500.00, -187500.02, -187500.02, -187500.02, -187500.02, 0.010, -0.014, 1.024, 17:03:13.857
63, 24073.16, 14297.70, -187500.02, 187500.00, -187500.02, -187500.02, -187500.02, -187500.02, 0.000, 0.000, 0.000, 17:03:13.858
64, 23835.54, 14063.29, -187500.02, 187500.00, -187500.02, -187500.02, -187500.02, -187500.02, 0.000, 0.000, 0.000, 17:03:13.858
65, 23245.95, 13476.27, -187500.02, 187500.00, -187500.02, -187500.02, -187500.02, -187500.02, 0.000, 0.000, 0.000, 17:03:13.858
66, 23059.51, 13282.59, -187500.02, 187500.00, -187500.02, -187500.02, -187500.02, -187500.02, 0.000, 0.000, 0.000, 17:03:13.858
67, 23853.22, 14080.12, -187500.02, 187500.00, -187500.02, -187500.02, -187500.02, -187500.02, 0.000, 0.000, 0.000, 17:03:13.858
68, 24081.52, 14322.62, -187500.02, 187500.00, -187500.02, -187500.02, -187500.02, -187500.02, 0.000, 0.000, 0.000, 17:03:13.858
69, 23843.70, 14085.67, -187500.02, 187500.00, -187500.02, -187500.02, -187500.02, -187500.02, 0.000, 0.000, 0.000, 17:03:13.858
70, 23257.97, 13493.05, -187500.02, 187500.00, -187500.02, -187500.02, -187500.02, -187500.02, 0.000, 0.000, 0.000, 17:03:13.858
71, 23058.53, 13283.33, -187500.02, 187500.00, -187500.02, -187500.02, -187500.02, -187500.02, 0.000, 0.000, 0.000, 17:03:13.859
72, 23845.76, 14074.69, -187500.02, 187500.00, -187500.02, -187500.02, -187500.02, -187500.02, 0.014, -0.012, 1.028, 17:03:13.859
73, 24082.37, 14329.81, -187500.02, 187500.00, -187500.02, -187500.02, -187500.02, -187500.02, 0.000, 0.000, 0.000, 17:03:14.319
74, 23841.29, 14082.67, -187500.02, 187500.00, -187500.02, -187500.02, -187500.02, -187500.02, 0.000, 0.000, 0.000, 17:03:14.319
75, 23264.19, 13498.91, -187500.02, 187500.00, -187500.02, -187500.02, -187500.02, -187500.02, 0.000, 0.000, 0.000, 17:03:14.319
76, 23058.77, 13287.26, -187500.02, 187500.00, -187500.02, -187500.02, -187500.02, -187500.02, 0.000, 0.000, 0.000, 17:03:14.319
77, 23835.88, 14064.57, -187500.02, 187500.00, -187500.02, -187500.02, -187500.02, -187500.02, 0.000, 0.000, 0.000, 17:03:14.319
78, 24064.42, 14303.04, -187500.02, 187500.00, -187500.02, -187500.02, -187500.02, -187500.02, 0.000, 0.000, 0.000, 17:03:14.319
79, 23829.84, 14068.92, -187500.02, 187500.00, -187500.02, -187500.02, -187500.02, -187500.02, 0.000, 0.000, 0.000, 17:03:14.320
80, 23251.83, 13482.21, -187500.02, 187500.00, -187500.02, -187500.02, -187500.02, -187500.02, 0.000, 0.000, 0.000, 17:03:14.320
81, 23059.49, 13280.85, -187500.02, 187500.00, -187500.02, -187500.02, -187500.02, -187500.02, 0.000, 0.000, 0.000, 17:03:14.320
82, 23859.23, 14088.64, -187500.02, 187500.00, -187500.02, -187500.02, -187500.02, -187500.02, 0.006, -0.014, 1.026, 17:03:14.320
83, 24085.03, 14320.96, -187500.02, 187500.00, -187500.02, -187500.02, -187500.02, -187500.02, 0.000, 0.000, 0.000, 17:03:14.320
84, 23848.39, 14080.01, -187500.02, 187500.00, -187500.02, -187500.02, -187500.02, -187500.02, 0.000, 0.000, 0.000, 17:03:14.320
85, 23274.83, 13507.27, -187500.02, 187500.00, -187500.02, -187500.02, -187500.02, -187500.02, 0.000, 0.000, 0.000, 17:03:14.320
86, 23051.26, 13277.23, -187500.02, 187500.00, -187500.02, -187500.02, -187500.02, -187500.02, 0.000, 0.000, 0.000, 17:03:14.321
87, 23857.04, 14081.87, -187500.02, 187500.00, -187500.02, -187500.02, -187500.02, -187500.02, 0.000, 0.000, 0.000, 17:03:14.321
88, 24089.84, 14324.07, -187500.02, 187500.00, -187500.02, -187500.02, -187500.02, -187500.02, 0.000, 0.000, 0.000, 17:03:14.321
89, 23847.90, 14081.96, -187500.02, 187500.00, -187500.02, -187500.02, -187500.02, -187500.02, 0.000, 0.000, 0.000, 17:03:14.321
90, 23265.79, 13497.41, -187500.02, 187500.00, -187500.02, -187500.02, -187500.02, -187500.02, 0.000, 0.000, 0.000, 17:03:14.321
91, 23053.61, 13272.60, -187500.02, 187500.00, -187500.02, -187500.02, -187500.02, -187500.02, 0.000, 0.000, 0.000, 17:03:14.321
92, 23862.63, 14085.35, -187500.02, 187500.00, -187500.02, -187500.02, -187500.02, -187500.02, 0.010, -0.014, 1.032, 17:03:14.321
93, 24089.44, 14332.25, -187500.02, 187500.00, -187500.02, -187500.02, -187500.02, -187500.02, 0.000, 0.000, 0.000, 17:03:14.321
94, 23849.78, 14093.85, -187500.02, 187500.00, -187500.02, -187500.02, -187500.02, -187500.02, 0.000, 0.000, 0.000, 17:03:14.321
95, 23267.47, 13511.50, -187500.02, 187500.00, -187500.02, -187500.02, -187500.02, -187500.02, 0.000, 0.000, 0.000, 17:03:14.322
96, 23041.94, 13267.62, -187500.02, 187500.00, -187500.02, -187500.02, -187500.02, -187500.02, 0.000, 0.000, 0.000, 17:03:14.322
97, 23831.68, 14060.48, -187500.02, 187500.00, -187500.02, -187500.02, -187500.02, -187500.02, 0.000, 0.000, 0.000, 17:03:14.322
98, 24090.40, 14331.18, -187500.02, 187500.00, -187500.02, -187500.02, -187500.02, -187500.02, 0.000, 0.000, 0.000, 17:03:14.322
99, 23852.69, 14087.41, -187500.02, 187500.00, -187500.02, -187500.02, -187500.02, -187500.02, 0.000, 0.000, 0.000, 17:03:14.322
100, 23272.35, 13501.03, -187500.02, 187500.00, -187500.02, -187500.02, -187500.02, -187500.02, 0.000, 0.000, 0.000, 17:03:14.322
101, 23033.07, 13254.43, -187500.02, 187500.00, -187500.02, -187500.02, -187500.02, -187500.02, 0.000, 0.000, 0.000, 17:03:14.322
102, 23816.30, 14045.14, -187500.02, 187500.00, -187500.02, -187500.02, -187500.02, -187500.02, 0.010, -0.014, 1.028, 17:03:14.322
103, 24074.46, 14311.33, -187500.02, 187500.00, -187500.02, -187500.02, -187500.02, -187500.02, 0.000, 0.000, 0.000, 17:03:14.323
104, 23837.08, 14074.27, -187500.02, 187500.00, -187500.02, -187500.02, -187500.02, -187500.02, 0.000, 0.000, 0.000, 17:03:14.323
105, 23277.06, 13520.50, -187500.02, 187500.00, -187500.02, -187500.02, -187500.02, -187500.02, 0.000, 0.000, 0.000, 17:03:14.323
106, 23027.35, 13263.55, -187500.02, 187500.00, -187500.02, -187500.02, -187500.02, -187500.02, 0.000, 0.000, 0.000, 17:03:14.323
107, 23810.49, 14047.11, -187500.02, 187500.00, -187500.02, -187500.02, -187500.02, -187500.02, 0.000, 0.000, 0.000, 17:03:14.323
108, 24081.48, 14323.80, -187500.02, 187500.00, -187500.02, -187500.02, -187500.02, -187500.02, 0.000, 0.000, 0.000, 17:03:14.323
109, 23854.56, 14098.52, -187500.02, 187500.00, -187500.02, -187500.02, -187500.02, -187500.02, 0.000, 0.000, 0.000, 17:03:14.323
110, 23283.10, 13531.59, -187500.02, 187500.00, -187500.02, -187500.02, -187500.02, -187500.02, 0.000, 0.000, 0.000, 17:03:14.323
111, 23029.98, 13269.85, -187500.02, 187500.00, -187500.02, -187500.02, -187500.02, -187500.02, 0.000, 0.000, 0.000, 17:03:14.324
112, 23812.36, 14048.03, -187500.02, 187500.00, -187500.02, -187500.02, -187500.02, -187500.02, 0.010, -0.012, 1.024, 17:03:14.324
113, 24074.01, 14311.31, -187500.02, 187500.00, -187500.02, -187500.02, -187500.02, -187500.02, 0.000, 0.000, 0.000, 17:03:14.324
114, 23845.71, 14087.10, -187500.02, 187500.00, -187500.02, -187500.02, -187500.02, -187500.02, 0.000, 0.000, 0.000, 17:03:14.324
115, 23281.17, 13524.46, -187500.02, 187500.00, -187500.02, -187500.02, -187500.02, -187500.02, 0.000, 0.000, 0.000, 17:03:14.324
116, 23039.22, 13268.04, -187500.02, 187500.00, -187500.02, -187500.02, -187500.02, -187500.02, 0.000, 0.000, 0.000, 17:03:14.324
117, 23812.07, 14044.70, -187500.02, 187500.00, -187500.02, -187500.02, -187500.02, -187500.02, 0.000, 0.000, 0.000, 17:03:14.324
118, 24092.79, 14334.89, -187500.02, 187500.00, -187500.02, -187500.02, -187500.02, -187500.02, 0.000, 0.000, 0.000, 17:03:14.324
119, 23861.34, 14108.62, -187500.02, 187500.00, -187500.02, -187500.02, -187500.02, -187500.02, 0.000, 0.000, 0.000, 17:03:14.325
120, 23289.47, 13538.58, -187500.02, 187500.00, -187500.02, -187500.02, -187500.02, -187500.02, 0.000, 0.000, 0.000, 17:03:14.325
121, 23026.39, 13258.58, -187500.02, 187500.00, -187500.02, -187500.02, -187500.02, -187500.02, 0.012, -0.014, 1.024, 17:03:14.325
122, 23814.84, 14050.10, -187500.02, 187500.00, -187500.02, -187500.02, -187500.02, -187500.02, 0.000, 0.000, 0.000, 17:03:14.325
123, 24080.32, 14327.76, -187500.02, 187500.00, -187500.02, -187500.02, -187500.02, -187500.02, 0.000, 0.000, 0.000, 17:03:14.325
124, 23851.95, 14094.76, -187500.02, 187500.00, -187500.02, -187500.02, -187500.02, -187500.02, 0.000, 0.000, 0.000, 17:03:14.325
125, 23293.85, 13538.92, -187500.02, 187500.00, -187500.02, -187500.02, -187500.02, -187500.02, 0.000, 0.000, 0.000, 17:03:14.325
126, 23018.99, 13252.55, -187500.02, 187500.00, -187500.02, -187500.02, -187500.02, -187500.02, 0.000, 0.000, 0.000, 17:03:14.325
127, 23798.28, 14039.67, -187500.02, 187500.00, -187500.02, -187500.02, -187500.02, -187500.02, 0.000, 0.000, 0.000, 17:03:14.326
128, 24070.17, 14323.42, -187500.02, 187500.00, -187500.02, -187500.02, -187500.02, -187500.02, 0.000, 0.000, 0.000, 17:03:14.326
129, 23857.33, 14104.24, -187500.02, 187500.00, -187500.02, -187500.02, -187500.02, -187500.02, 0.000, 0.000, 0.000, 17:03:14.326
130, 23309.20, 13556.09, -187500.02, 187500.00, -187500.02, -187500.02, -187500.02, -187500.02, 0.000, 0.000, 0.000, 17:03:14.326
131, 23027.55, 13269.20, -187500.02, 187500.00, -187500.02, -187500.02, -187500.02, -187500.02, 0.010, -0.016, 1.026, 17:03:14.326
132, 23805.68, 14036.31, -187500.02, 187500.00, -187500.02, -187500.02, -187500.02, -187500.02, 0.000, 0.000, 0.000, 17:03:14.326
133, 24090.17, 14318.30, -187500.02, 187500.00, -187500.02, -187500.02, -187500.02, -187500.02, 0.000, 0.000, 0.000, 17:03:14.326
134, 23869.07, 14105.34, -187500.02, 187500.00, -187500.02, -187500.02, -187500.02, -187500.02, 0.000, 0.000, 0.000, 17:03:14.326
135, 23302.95, 13546.14, -187500.02, 187500.00, -187500.02, -187500.02, -187500.02, -187500.02, 0.000, 0.000, 0.000, 17:03:14.327
136, 23019.93, 13258.63, -187500.02, 187500.00, -187500.02, -187500.02, -187500.02, -187500.02, 0.000, 0.000, 0.000, 17:03:14.328
137, 23801.90, 14040.34, -187500.02, 187500.00, -187500.02, -187500.02, -187500.02, -187500.02, 0.000, 0.000, 0.000, 17:03:14.328
138, 24079.51, 14324.79, -187500.02, 187500.00, -187500.02, -187500.02, -187500.02, -187500.02, 0.000, 0.000, 0.000, 17:03:14.328
139, 23859.23, 14107.84, -187500.02, 187500.00, -187500.02, -187500.02, -187500.02, -187500.02, 0.000, 0.000, 0.000, 17:03:14.329
140, 23314.46, 13565.68, -187500.02, 187500.00, -187500.02, -187500.02, -187500.02, -187500.02, 0.000, 0.000, 0.000, 17:03:14.329
141, 23024.49, 13263.06, -187500.02, 187500.00, -187500.02, -187500.02, -187500.02, -187500.02, 0.006, -0.016, 1.028, 17:03:14.329
142, 23787.37, 14030.59, -187500.02, 187500.00, -187500.02, -187500.02, -187500.02, -187500.02, 0.000, 0.000, 0.000, 17:03:14.329
143, 24084.67, 14338.26, -187500.02, 187500.00, -187500.02, -187500.02, -187500.02, -187500.02, 0.000, 0.000, 0.000, 17:03:14.329
144, 23861.56, 14110.97, -187500.02, 187500.00, -187500.02, -187500.02, -187500.02, -187500.02, 0.000, 0.000, 0.000, 17:03:14.330
145, 23310.70, 13561.27, -187500.02, 187500.00, -187500.02, -187500.02, -187500.02, -187500.02, 0.000, 0.000, 0.000, 17:03:14.330
146, 23007.37, 13252.35, -187500.02, 187500.00, -187500.02, -187500.02, -187500.02, -187500.02, 0.000, 0.000, 0.000, 17:03:14.330
147, 23797.14, 14038.55, -187500.02, 187500.00, -187500.02, -187500.02, -187500.02, -187500.02, 0.000, 0.000, 0.000, 17:03:14.330
148, 24089.95, 14335.25, -187500.02, 187500.00, -187500.02, -187500.02, -187500.02, -187500.02, 0.000, 0.000, 0.000, 17:03:14.330
149, 23853.04, 14101.18, -187500.02, 187500.00, -187500.02, -187500.02, -187500.02, -187500.02, 0.000, 0.000, 0.000, 17:03:14.330
150, 23316.24, 13573.32, -187500.02, 187500.00, -187500.02, -187500.02, -187500.02, -187500.02, 0.000, 0.000, 0.000, 17:03:14.330
151, 23007.23, 13255.03, -187500.02, 187500.00, -187500.02, -187500.02, -187500.02, -187500.02, 0.008, -0.008, 1.026, 17:03:14.330
152, 23794.06, 14044.61, -187500.02, 187500.00, -187500.02, -187500.02, -187500.02, -187500.02, 0.000, 0.000, 0.000, 17:03:14.331
153, 24096.14, 14348.68, -187500.02, 187500.00, -187500.02, -187500.02, -187500.02, -187500.02, 0.000, 0.000, 0.000, 17:03:14.331
154, 23872.80, 14119.42, -187500.02, 187500.00, -187500.02, -187500.02, -187500.02, -187500.02, 0.000, 0.000, 0.000, 17:03:14.331
155, 23318.52, 13566.79, -187500.02, 187500.00, -187500.02, -187500.02, -187500.02, -187500.02, 0.000, 0.000, 0.000, 17:03:14.331
