%OpenBCI Raw EEG Data
%
%Sample Rate = 250.0 Hz
%First Column = SampleIndex
%Last Column = Timestamp 
%Other Columns = EEG data in microvolts followed by Accel Data (in G) interleaved with Aux Data
0, -15025.80, 17768.54, -187500.02, -187500.02, -187500.02, -126724.64, -187500.02, -187500.02, -0.002, -0.016, 1.034, 17:33:17.614
1, -14336.54, 18121.86, -187500.02, -187500.02, -187500.02, -127143.40, -187500.02, -187500.02, 0.000, 0.000, 0.000, 17:33:18.096
2, -13798.92, 18584.98, -187500.02, -187500.02, -187500.02, -127588.31, -187500.02, -187500.02, 0.000, 0.000, 0.000, 17:33:18.096
3, -13937.56, 18551.10, -187500.02, -187500.02, -187500.02, -127635.77, -187500.02, -187500.02, 0.000, 0.000, 0.000, 17:33:18.096
4, -14497.77, 18223.13, -187500.02, -187500.02, -187500.02, -127257.95, -187500.02, -187500.02, 0.000, 0.000, 0.000, 17:33:18.096
5, -15027.93, 17770.66, -187500.02, -187500.02, -187500.02, -126804.39, -187500.02, -187500.02, 0.000, 0.000, 0.000, 17:33:18.096
6, -14351.92, 18104.94, -187500.02, -187500.02, -187500.02, -127215.82, -187500.02, -187500.02, 0.000, 0.000, 0.000, 17:33:18.096
7, -13814.58, 18571.46, -187500.02, -187500.02, -187500.02, -127586.39, -187500.02, -187500.02, 0.008, -0.004, 1.036, 17:33:18.096
8, -13948.78, 18540.77, -187500.02, -187500.02, -187500.02, -127590.37, -187500.02, -187500.02, 0.000, 0.000, 0.000, 17:33:18.096
9, -14495.60, 18219.46, -187500.02, -187500.02, -187500.02, -127228.16, -187500.02, -187500.02, 0.000, 0.000, 0.000, 17:33:18.097
10, -15021.89, 17770.29, -187500.02, -187500.02, -187500.02, -126800.37, -187500.02, -187500.02, 0.000, 0.000, 0.000, 17:33:18.097
11, -14351.96, 18103.84, -187500.02, -187500.02, -187500.02, -127181.58, -187500.02, -187500.02, 0.000, 0.000, 0.000, 17:33:18.097
12, -13806.16, 18575.15, -187500.02, -187500.02, -187500.02, -127577.96, -187500.02, -187500.02, 0.000, 0.000, 0.000, 17:33:18.097
13, -13919.46, 18562.61, -187500.02, -187500.02, -187500.02, -127665.05, -187500.02, -187500.02, 0.000, 0.000, 0.000, 17:33:18.097
14, -14485.65, 18224.00, -187500.02, -187500.02, -187500.02, -127272.59, -187500.02, -187500.02, 0.000, 0.000, 0.000, 17:33:18.097
15, -15025.78, 17769.26, -187500.02, -187500.02, -187500.02, -126833.43, -187500.02, -187500.02, 0.000, 0.000, 0.000, 17:33:18.097
16, -14350.98, 18104.94, -187500.02, -187500.02, -187500.02, -127226.05, -187500.02, -187500.02, 0.000, 0.000, 0.000, 17:33:18.097
17, -13807.61, 18567.64, -187500.02, -187500.02, -187500.02, -127600.25, -187500.02, -187500.02, 0.002, -0.014, 1.022, 17:33:18.098
18, -13932.42, 18549.35, -187500.02, -187500.02, -187500.02, -127617.66, -187500.02, -187500.02, 0.000, 0.000, 0.000, 17:33:18.098
19, -14476.35, 18236.61, -187500.02, -187500.02, -187500.02, -127273.71, -187500.02, -187500.02, 0.000, 0.000, 0.000, 17:33:18.098
20, -15024.10, 17776.21, -187500.02, -187500.02, -187500.02, -126834.79, -187500.02, -187500.02, 0.000, 0.000, 0.000, 17:33:18.098
21, -14354.40, 18106.77, -187500.02, -187500.02, -187500.02, -127239.88, -187500.02, -187500.02, 0.000, 0.000, 0.000, 17:33:18.098
22, -13813.40, 18572.11, -187500.02, -187500.02, -187500.02, -127617.95, -187500.02, -187500.02, 0.000, 0.000, 0.000, 17:33:18.098
23, -13946.59, 18546.11, -187500.02, -187500.02, -187500.02, -127620.32, -187500.02, -187500.02, 0.000, 0.000, 0.000, 17:33:18.098
24, -14485.56, 18231.33, -187500.02, -187500.02, -187500.02, -127259.41, -187500.02, -187500.02, 0.000, 0.000, 0.000, 17:33:18.098
25, -15024.71, 17783.34, -187500.02, -187500.02, -187500.02, -126826.68, -187500.02, -187500.02, 0.000, 0.000, 0.000, 17:33:18.098
26, -14355.50, 18110.75, -187500.02, -187500.02, -187500.02, -127235.65, -187500.02, -187500.02, 0.000, 0.000, 0.000, 17:33:18.099
27, -13803.01, 18585.25, -187500.02, -187500.02, -187500.02, -127666.48, -187500.02, -187500.02, -0.004, -0.014, 1.028, 17:33:18.099
28, -13924.31, 18568.73, -187500.02, -187500.02, -187500.02, -127725.58, -187500.02, -187500.02, 0.000, 0.000, 0.000, 17:33:18.099
29, -14470.05, 18244.30, -187500.02, -187500.02, -187500.02, -127339.70, -187500.02, -187500.02, 0.000, 0.000, 0.000, 17:33:18.099
30, -15020.82, 17788.05, -187500.02, -187500.02, -187500.02, -126897.13, -187500.02, -187500.02, 0.000, 0.000, 0.000, 17:33:18.099
31, -14367.28, 18106.23, -187500.02, -187500.02, -187500.02, -127304.67, -187500.02, -187500.02, 0.000, 0.000, 0.000, 17:33:18.099
32, -13809.47, 18577.09, -187500.02, -187500.02, -187500.02, -127698.51, -187500.02, -187500.02, 0.000, 0.000, 0.000, 17:33:18.099
33, -13934.46, 18556.95, -187500.02, -187500.02, -187500.02, -127711.60, -187500.02, -187500.02, 0.000, 0.000, 0.000, 17:33:18.099
34, -14473.27, 18243.20, -187500.02, -187500.02, -187500.02, -127356.03, -187500.02, -187500.02, 0.000, 0.000, 0.000, 17:33:18.100
35, -15030.97, 17782.40, -187500.02, -187500.02, -187500.02, -126905.06, -187500.02, -187500.02, 0.000, 0.000, 0.000, 17:33:18.100
36, -14385.63, 18089.47, -187500.02, -187500.02, -187500.02, -127255.74, -187500.02, -187500.02, 0.002, -0.018, 1.022, 17:33:18.100
37, -13818.29, 18565.20, -187500.02, -187500.02, -187500.02, -127675.48, -187500.02, -187500.02, 0.000, 0.000, 0.000, 17:33:18.100
38, -13940.72, 18548.08, -187500.02, -187500.02, -187500.02, -127726.40, -187500.02, -187500.02, 0.000, 0.000, 0.000, 17:33:18.100
39, -14473.69, 18238.44, -187500.02, -187500.02, -187500.02, -127364.51, -187500.02, -187500.02, 0.000, 0.000, 0.000, 17:33:18.100
40, -15040.40, 17769.88, -187500.02, -187500.02, -187500.02, -126917.54, -187500.02, -187500.02, 0.000, 0.000, 0.000, 17:33:18.100
41, -14389.25, 18083.14, -187500.02, -187500.02, -187500.02, -127284.55, -187500.02, -187500.02, 0.000, 0.000, 0.000, 17:33:18.100
42, -13819.61, 18562.07, -187500.02, -187500.02, -187500.02, -127684.02, -187500.02, -187500.02, 0.000, 0.000, 0.000, 17:33:18.101
43, -13941.25, 18543.36, -187500.02, -187500.02, -187500.02, -127725.95, -187500.02, -187500.02, 0.000, 0.000, 0.000, 17:33:18.101
44, -14473.22, 18235.07, -187500.02, -187500.02, -187500.02, -127372.04, -187500.02, -187500.02, 0.000, 0.000, 0.000, 17:33:18.101
45, -15028.49, 17778.49, -187500.02, -187500.02, -187500.02, -126906.31, -187500.02, -187500.02, 0.000, 0.000, 0.000, 17:33:18.101
46, -14393.23, 18075.72, -187500.02, -187500.02, -187500.02, -127254.87, -187500.02, -187500.02, 0.002, -0.022, 1.024, 17:33:18.101
47, -13821.29, 18559.39, -187500.02, -187500.02, -187500.02, -127675.95, -187500.02, -187500.02, 0.000, 0.000, 0.000, 17:33:18.101
48, -13941.10, 18544.55, -187500.02, -187500.02, -187500.02, -127734.88, -187500.02, -187500.02, 0.000, 0.000, 0.000, 17:33:18.101
49, -14468.37, 18238.06, -187500.02, -187500.02, -187500.02, -127397.59, -187500.02, -187500.02, 0.000, 0.000, 0.000, 17:33:18.101
50, -15038.28, 17768.81, -187500.02, -187500.02, -187500.02, -126933.54, -187500.02, -187500.02, 0.000, 0.000, 0.000, 17:33:18.101
51, -14414.39, 18058.87, -187500.02, -187500.02, -187500.02, -127263.23, -187500.02, -187500.02, 0.000, 0.000, 0.000, 17:33:18.102
52, -13833.76, 18551.84, -187500.02, -187500.02, -187500.02, -127670.09, -187500.02, -187500.02, 0.000, 0.000, 0.000, 17:33:18.102
53, -13945.68, 18543.05, -187500.02, -187500.02, -187500.02, -127719.80, -187500.02, -187500.02, 0.000, 0.000, 0.000, 17:33:18.102
54, -14472.26, 18232.61, -187500.02, -187500.02, -187500.02, -127353.35, -187500.02, -187500.02, 0.000, 0.000, 0.000, 17:33:18.102
55, -15033.13, 17774.42, -187500.02, -187500.02, -187500.02, -126921.60, -187500.02, -187500.02, 0.000, 0.000, 0.000, 17:33:18.102
56, -14405.61, 18070.51, -187500.02, -187500.02, -187500.02, -127284.33, -187500.02, -187500.02, 0.000, -0.016, 1.022, 17:33:18.102
57, -13825.38, 18558.29, -187500.02, -187500.02, -187500.02, -127723.45, -187500.02, -187500.02, 0.000, 0.000, 0.000, 17:33:18.102
58, -13934.48, 18546.72, -187500.02, -187500.02, -187500.02, -127764.22, -187500.02, -187500.02, 0.000, 0.000, 0.000, 17:33:18.102
59, -14457.33, 18238.93, -187500.02, -187500.02, -187500.02, -127410.44, -187500.02, -187500.02, 0.000, 0.000, 0.000, 17:33:18.103
60, -15038.95, 17767.63, -187500.02, -187500.02, -187500.02, -126947.53, -187500.02, -187500.02, 0.000, 0.000, 0.000, 17:33:18.103
61, -14415.56, 18063.18, -187500.02, -187500.02, -187500.02, -127301.77, -187500.02, -187500.02, 0.000, 0.000, 0.000, 17:33:18.103
62, -13832.76, 18552.26, -187500.02, -187500.02, -187500.02, -127709.73, -187500.02, -187500.02, 0.000, 0.000, 0.000, 17:33:18.103
63, -13936.47, 18549.04, -187500.02, -187500.02, -187500.02, -127781.03, -187500.02, -187500.02, 0.000, 0.000, 0.000, 17:33:18.104
64, -14461.85, 18235.96, -187500.02, -187500.02, -187500.02, -127443.09, -187500.02, -187500.02, 0.000, 0.000, 0.000, 17:33:18.104
65, -15034.12, 17774.87, -187500.02, -187500.02, -187500.02, -126982.65, -187500.02, -187500.02, 0.000, 0.000, 0.000, 17:33:18.104
66, -14432.12, 18046.93, -187500.02, -187500.02, -187500.02, -127299.69, -187500.02, -187500.02, 0.004, -0.016, 1.030, 17:33:18.104
67, -13844.00, 18537.06, -187500.02, -187500.02, -187500.02, -127701.88, -187500.02, -187500.02, 0.000, 0.000, 0.000, 17:33:18.104
68, -13944.96, 18536.66, -187500.02, -187500.02, -187500.02, -127768.22, -187500.02, -187500.02, 0.000, 0.000, 0.000, 17:33:18.104
69, -14461.31, 18239.09, -187500.02, -187500.02, -187500.02, -127424.79, -187500.02, -187500.02, 0.000, 0.000, 0.000, 17:33:18.104
70, -15042.14, 17770.40, -187500.02, -187500.02, -187500.02, -126966.76, -187500.02, -187500.02, 0.000, 0.000, 0.000, 17:33:18.105
71, -14431.87, 18050.73, -187500.02, -187500.02, -187500.02, -127333.68, -187500.02, -187500.02, 0.000, 0.000, 0.000, 17:33:18.105
72, -13836.94, 18544.91, -187500.02, -187500.02, -187500.02, -127769.70, -187500.02, -187500.02, 0.000, 0.000, 0.000, 17:33:18.105
73, -13942.73, 18539.01, -187500.02, -187500.02, -187500.02, -127823.97, -187500.02, -187500.02, 0.000, 0.000, 0.000, 17:33:18.105
74, -14461.33, 18235.69, -187500.02, -187500.02, -187500.02, -127451.99, -187500.02, -187500.02, 0.000, 0.000, 0.000, 17:33:18.105
75, -15051.51, 17764.45, -187500.02, -187500.02, -187500.02, -126941.63, -187500.02, -187500.02, 0.000, 0.000, 0.000, 17:33:18.105
76, -14429.26, 18053.44, -187500.02, -187500.02, -187500.02, -127329.44, -187500.02, -187500.02, 0.000, -0.016, 1.028, 17:33:18.105
77, -13828.06, 18552.35, -187500.02, -187500.02, -187500.02, -127791.27, -187500.02, -187500.02, 0.000, 0.000, 0.000, 17:33:18.105
78, -13938.57, 18547.07, -187500.02, -187500.02, -187500.02, -127826.13, -187500.02, -187500.02, 0.000, 0.000, 0.000, 17:33:18.106
79, -14448.03, 18248.70, -187500.02, -187500.02, -187500.02, -127468.44, -187500.02, -187500.02, 0.000, 0.000, 0.000, 17:33:18.106
80, -15038.34, 17774.24, -187500.02, -187500.02, -187500.02, -126981.06, -187500.02, -187500.02, 0.000, 0.000, 0.000, 17:33:18.106
81, -14426.96, 18056.83, -187500.02, -187500.02, -187500.02, -127377.00, -187500.02, -187500.02, 0.000, 0.000, 0.000, 17:33:18.106
82, -13833.20, 18545.11, -187500.02, -187500.02, -187500.02, -127782.75, -187500.02, -187500.02, 0.000, 0.000, 0.000, 17:33:18.106
83, -13931.51, 18544.68, -187500.02, -187500.02, -187500.02, -127840.87, -187500.02, -187500.02, 0.000, 0.000, 0.000, 17:33:18.106
84, -14432.34, 18257.87, -187500.02, -187500.02, -187500.02, -127520.50, -187500.02, -187500.02, 0.000, 0.000, 0.000, 17:33:18.106
85, -15036.96, 17776.63, -187500.02, -187500.02, -187500.02, -127010.12, -187500.02, -187500.02, 0.000, 0.000, 0.000, 17:33:18.106
86, -14440.28, 18046.33, -187500.02, -187500.02, -187500.02, -127331.78, -187500.02, -187500.02, 0.000, -0.014, 1.026, 17:33:18.106
87, -13831.30, 18550.36, -187500.02, -187500.02, -187500.02, -127772.78, -187500.02, -187500.02, 0.000, 0.000, 0.000, 17:33:18.107
88, -13933.83, 18549.40, -187500.02, -187500.02, -187500.02, -127812.97, -187500.02, -187500.02, 0.000, 0.000, 0.000, 17:33:18.107
89, -14425.84, 18266.27, -187500.02, -187500.02, -187500.02, -127503.06, -187500.02, -187500.02, 0.000, 0.000, 0.000, 17:33:18.107
90, -15026.54, 17787.88, -187500.02, -187500.02, -187500.02, -127048.00, -187500.02, -187500.02, 0.000, 0.000, 0.000, 17:33:18.107
91, -14454.76, 18035.40, -187500.02, -187500.02, -187500.02, -127359.48, -187500.02, -187500.02, 0.000, 0.000, 0.000, 17:33:18.107
92, -13844.58, 18536.84, -187500.02, -187500.02, -187500.02, -127768.22, -187500.02, -187500.02, 0.000, 0.000, 0.000, 17:33:18.107
93, -13930.05, 18549.85, -187500.02, -187500.02, -187500.02, -127837.87, -187500.02, -187500.02, 0.000, 0.000, 0.000, 17:33:18.107
94, -14426.04, 18266.36, -187500.02, -187500.02, -187500.02, -127536.39, -187500.02, -187500.02, 0.000, 0.000, 0.000, 17:33:18.107
95, -15035.71, 17786.27, -187500.02, -187500.02, -187500.02, -127044.43, -187500.02, -187500.02, 0.000, 0.000, 0.000, 17:33:18.108
96, -14446.92, 18051.29, -187500.02, -187500.02, -187500.02, -127378.05, -187500.02, -187500.02, -0.002, -0.008, 1.024, 17:33:18.108
97, -13842.03, 18541.64, -187500.02, -187500.02, -187500.02, -127770.52, -187500.02, -187500.02, 0.000, 0.000, 0.000, 17:33:18.108
98, -13936.56, 18547.41, -187500.02, -187500.02, -187500.02, -127816.48, -187500.02, -187500.02, 0.000, 0.000, 0.000, 17:33:18.108
99, -14430.44, 18260.12, -187500.02, -187500.02, -187500.02, -127506.64, -187500.02, -187500.02, 0.000, 0.000, 0.000, 17:33:18.108
100, -15050.86, 17770.96, -187500.02, -187500.02, -187500.02, -126943.46, -187500.02, -187500.02, 0.000, 0.000, 0.000, 17:33:18.108
101, -14463.10, 18034.10, -187500.02, -187500.02, -187500.02, -127281.27, -187500.02, -187500.02, 0.000, 0.000, 0.000, 17:33:18.108
102, -13842.21, 18543.48, -187500.02, -187500.02, -187500.02, -127760.45, -187500.02, -187500.02, 0.000, 0.000, 0.000, 17:33:18.109
103, -13934.90, 18552.35, -187500.02, -187500.02, -187500.02, -127817.84, -187500.02, -187500.02, 0.000, 0.000, 0.000, 17:33:18.109
104, -14430.40, 18258.78, -187500.02, -187500.02, -187500.02, -127467.91, -187500.02, -187500.02, 0.000, 0.000, 0.000, 17:33:18.109
105, -15035.17, 17787.47, -187500.02, -187500.02, -187500.02, -127000.75, -187500.02, -187500.02, 0.000, 0.000, 0.000, 17:33:18.109
106, -14469.31, 18028.45, -187500.02, -187500.02, -187500.02, -127329.63, -187500.02, -187500.02, 0.004, -0.006, 1.020, 17:33:18.109
107, -13841.47, 18539.16, -187500.02, -187500.02, -187500.02, -127769.16, -187500.02, -187500.02, 0.000, 0.000, 0.000, 17:33:18.109
108, -13930.48, 18555.19, -187500.02, -187500.02, -187500.02, -127862.48, -187500.02, -187500.02, 0.000, 0.000, 0.000, 17:33:18.109
109, -14430.06, 18264.01, -187500.02, -187500.02, -187500.02, -127503.60, -187500.02, -187500.02, 0.000, 0.000, 0.000, 17:33:18.109
110, -15040.02, 17785.97, -187500.02, -187500.02, -187500.02, -127002.97, -187500.02, -187500.02, 0.000, 0.000, 0.000, 17:33:18.109
111, -14471.37, 18027.98, -187500.02, -187500.02, -187500.02, -127344.88, -187500.02, -187500.02, 0.000, 0.000, 0.000, 17:33:18.109
112, -13845.68, 18534.60, -187500.02, -187500.02, -187500.02, -127765.98, -187500.02, -187500.02, 0.000, 0.000, 0.000, 17:33:18.109
113, -13922.92, 18556.33, -187500.02, -187500.02, -187500.02, -127845.78, -187500.02, -187500.02, 0.000, 0.000, 0.000, 17:33:18.109
114, -14413.95, 18275.95, -187500.02, -187500.02, -187500.02, -127542.88, -187500.02, -187500.02, 0.000, 0.000, 0.000, 17:33:18.109
115, -15032.91, 17796.66, -187500.02, -187500.02, -187500.02, -127063.00, -187500.02, -187500.02, 0.000, 0.000, 0.000, 17:33:18.110
116, -14489.25, 18013.79, -187500.02, -187500.02, -187500.02, -127340.77, -187500.02, -187500.02, 0.004, -0.012, 1.030, 17:33:18.110
117, -13855.76, 18528.72, -187500.02, -187500.02, -187500.02, -127766.52, -187500.02, -187500.02, 0.000, 0.000, 0.000, 17:33:18.110
118, -13930.86, 18556.69, -187500.02, -187500.02, -187500.02, -127858.66, -187500.02, -187500.02, 0.000, 0.000, 0.000, 17:33:18.110
119, -14418.13, 18275.43, -187500.02, -187500.02, -187500.02, -127545.09, -187500.02, -187500.02, 0.000, 0.000, 0.000, 17:33:18.110
120, -15038.79, 17790.83, -187500.02, -187500.02, -187500.02, -127053.01, -187500.02, -187500.02, 0.000, 0.000, 0.000, 17:33:18.110
121, -14484.82, 18014.46, -187500.02, -187500.02, -187500.02, -127366.38, -187500.02, -187500.02, 0.000, 0.000, 0.000, 17:33:18.575
122, -13849.57, 18524.43, -187500.02, -187500.02, -187500.02, -127789.99, -187500.02, -187500.02, 0.000, 0.000, 0.000, 17:33:18.575
123, -13928.65, 18546.34, -187500.02, -187500.02, -187500.02, -127875.13, -187500.02, -187500.02, 0.000, 0.000, 0.000, 17:33:18.575
124, -14413.83, 18267.70, -187500.02, -187500.02, -187500.02, -127561.34, -187500.02, -187500.02, 0.000, 0.000, 0.000, 17:33:18.576
125, -15046.79, 17782.44, -187500.02, -187500.02, -187500.02, -127048.00, -187500.02, -187500.02, 0.000, 0.000, 0.000, 17:33:18.576
126, -14497.54, 18010.95, -187500.02, -187500.02, -187500.02, -127365.00, -187500.02, -187500.02, 0.000, -0.016, 1.028, 17:33:18.576
127, -13848.85, 18532.79, -187500.02, -187500.02, -187500.02, -127831.30, -187500.02, -187500.02, 0.000, 0.000, 0.000, 17:33:18.576
128, -13932.54, 18549.40, -187500.02, -187500.02, -187500.02, -127889.52, -187500.02, -187500.02, 0.000, 0.000, 0.000, 17:33:18.576
129, -14403.26, 18285.60, -187500.02, -187500.02, -187500.02, -127596.91, -187500.02, -187500.02, 0.000, 0.000, 0.000, 17:33:18.576
130, -15037.11, 17799.16, -187500.02, -187500.02, -187500.02, -127093.78, -187500.02, -187500.02, 0.000, 0.000, 0.000, 17:33:18.576
131, -14500.94, 18012.98, -187500.02, -187500.02, -187500.02, -127377.31, -187500.02, -187500.02, 0.000, 0.000, 0.000, 17:33:18.576
132, -13857.30, 18527.94, -187500.02, -187500.02, -187500.02, -127824.34, -187500.02, -187500.02, 0.000, 0.000, 0.000, 17:33:18.577
133, -13926.28, 18556.35, -187500.02, -187500.02, -187500.02, -127922.70, -187500.02, -187500.02, 0.000, 0.000, 0.000, 17:33:18.577
134, -14398.43, 18286.16, -187500.02, -187500.02, -187500.02, -127612.23, -187500.02, -187500.02, 0.000, 0.000, 0.000, 17:33:18.577
135, -15032.69, 17805.53, -187500.02, -187500.02, -187500.02, -127117.02, -187500.02, -187500.02, 0.000, 0.000, 0.000, 17:33:18.577
136, -14500.13, 18017.47, -187500.02, -187500.02, -187500.02, -127422.77, -187500.02, -187500.02, 0.000, -0.016, 1.034, 17:33:18.577
137, -13854.77, 18528.50, -187500.02, -187500.02, -187500.02, -127844.35, -187500.02, -187500.02, 0.000, 0.000, 0.000, 17:33:18.577
138, -13918.34, 18566.52, -187500.02, -187500.02, -187500.02, -127921.02, -187500.02, -187500.02, 0.000, 0.000, 0.000, 17:33:18.577
139, -14385.65, 18307.62, -187500.02, -187500.02, -187500.02, -127643.70, -187500.02, -187500.02, 0.000, 0.000, 0.000, 17:33:18.577
140, -15034.21, 17809.78, -187500.02, -187500.02, -187500.02, -127120.11, -187500.02, -187500.02, 0.000, 0.000, 0.000, 17:33:18.578
141, -14513.12, 18006.19, -187500.02, -187500.02, -187500.02, -127391.62, -187500.02, -187500.02, 0.000, 0.000, 0.000, 17:33:18.578
142, -13861.66, 18526.60, -187500.02, -187500.02, -187500.02, -127810.06, -187500.02, -187500.02, 0.000, 0.000, 0.000, 17:33:18.578
143, -13920.11, 18568.00, -187500.02, -187500.02, -187500.02, -127911.54, -187500.02, -187500.02, 0.000, 0.000, 0.000, 17:33:18.578
144, -14392.13, 18292.73, -187500.02, -187500.02, -187500.02, -127582.70, -187500.02, -187500.02, 0.000, 0.000, 0.000, 17:33:18.578
145, -15024.40, 17811.66, -187500.02, -187500.02, -187500.02, -127085.89, -187500.02, -187500.02, 0.000, 0.000, 0.000, 17:33:18.578
146, -14505.10, 18014.63, -187500.02, -187500.02, -187500.02, -127387.75, -187500.02, -187500.02, 0.000, -0.016, 1.036, 17:33:18.578
147, -13862.46, 18525.06, -187500.02, -187500.02, -187500.02, -127793.08, -187500.02, -187500.02, 0.000, 0.000, 0.000, 17:33:18.578
148, -13912.71, 18571.13, -187500.02, -187500.02, -187500.02, -127890.64, -187500.02, -187500.02, 0.000, 0.000, 0.000, 17:33:18.578
149, -14381.58, 18308.34, -187500.02, -187500.02, -187500.02, -127595.29, -187500.02, -187500.02, 0.000, 0.000, 0.000, 17:33:18.579
150, -15032.62, 17814.54, -187500.02, -187500.02, -187500.02, -127027.06, -187500.02, -187500.02, 0.000, 0.000, 0.000, 17:33:18.579
151, -14508.43, 18017.76, -187500.02, -187500.02, -187500.02, -127304.55, -187500.02, -187500.02, 0.000, 0.000, 0.000, 17:33:18.579
152, -13842.23, 18546.65, -187500.02, -187500.02, -187500.02, -127803.00, -187500.02, -187500.02, 0.000, 0.000, 0.000, 17:33:18.579
153, -13899.92, 18587.80, -187500.02, -187500.02, -187500.02, -127913.30, -187500.02, -187500.02, 0.000, 0.000, 0.000, 17:33:18.579
154, -14364.26, 18325.41, -187500.02, -187500.02, -187500.02, -127665.00, -187500.02, -187500.02, 0.000, 0.000, 0.000, 17:33:18.579
155, -15023.59, 17825.09, -187500.02, -187500.02, -187500.02, -127155.09, -187500.02, -187500.02, 0.000, 0.000, 0.000, 17:33:18.579
156, -14524.23, 18006.59, -187500.02, -187500.02, -187500.02, -127428.45, -187500.02, -187500.02, 0.000, -0.014, 1.030, 17:33:18.579
157, -13858.42, 18533.48, -187500.02, -187500.02, -187500.02, -127884.59, -187500.02, -187500.02, 0.000, 0.000, 0.000, 17:33:18.580
158, -13919.41, 18568.40, -187500.02, -187500.02, -187500.02, -127942.86, -187500.02, -187500.02, 0.000, 0.000, 0.000, 17:33:18.580
159, -14377.33, 18311.04, -187500.02, -187500.02, -187500.02, -127659.44, -187500.02, -187500.02, 0.000, 0.000, 0.000, 17:33:18.580
160, -15025.83, 17824.69, -187500.02, -187500.02, -187500.02, -127150.27, -187500.02, -187500.02, 0.000, 0.000, 0.000, 17:33:18.580
161, -14531.81, 18002.97, -187500.02, -187500.02, -187500.02, -127427.72, -187500.02, -187500.02, 0.000, 0.000, 0.000, 17:33:18.580
162, -13862.17, 18527.92, -187500.02, -187500.02, -187500.02, -127862.61, -187500.02, -187500.02, 0.000, 0.000, 0.000, 17:33:18.580
163, -13914.52, 18570.81, -187500.02, -187500.02, -187500.02, -127955.93, -187500.02, -187500.02, 0.000, 0.000, 0.000, 17:33:18.580
164, -14370.14, 18313.10, -187500.02, -187500.02, -187500.02, -127679.51, -187500.02, -187500.02, 0.000, 0.000, 0.000, 17:33:18.580
165, -15024.71, 17822.43, -187500.02, -187500.02, -187500.02, -127174.36, -187500.02, -187500.02, 0.002, -0.012, 1.028, 17:33:18.580
166, -14530.69, 18000.20, -187500.02, -187500.02, -187500.02, -127439.59, -187500.02, -187500.02, 0.000, 0.000, 0.000, 17:33:18.581
167, -13865.46, 18522.29, -187500.02, -187500.02, -187500.02, -127852.91, -187500.02, -187500.02, 0.000, 0.000, 0.000, 17:33:18.581
168, -13913.00, 18576.38, -187500.02, -187500.02, -187500.02, -127951.06, -187500.02, -187500.02, 0.000, 0.000, 0.000, 17:33:18.581
169, -14366.16, 18316.85, -187500.02, -187500.02, -187500.02, -127664.95, -187500.02, -187500.02, 0.000, 0.000, 0.000, 17:33:18.581
170, -15016.28, 17826.66, -187500.02, -187500.02, -187500.02, -127149.28, -187500.02, -187500.02, 0.000, 0.000, 0.000, 17:33:18.581
171, -14530.62, 17999.81, -187500.02, -187500.02, -187500.02, -127398.57, -187500.02, -187500.02, 0.000, 0.000, 0.000, 17:33:18.581
172, -13853.03, 18531.81, -187500.02, -187500.02, -187500.02, -127838.16, -187500.02, -187500.02, 0.000, 0.000, 0.000, 17:33:18.581
173, -13899.01, 18585.01, -187500.02, -187500.02, -187500.02, -127940.24, -187500.02, -187500.02, 0.000, 0.000, 0.000, 17:33:18.581
174, -14364.26, 18322.42, -187500.02, -187500.02, -187500.02, -127660.40, -187500.02, -187500.02, 0.000, 0.000, 0.000, 17:33:18.582
175, -15021.47, 17830.30, -187500.02, -187500.02, -187500.02, -127146.15, -187500.02, -187500.02, 0.006, -0.016, 1.028, 17:33:18.582
176, -14535.99, 18001.04, -187500.02, -187500.02, -187500.02, -127422.51, -187500.02, -187500.02, 0.000, 0.000, 0.000, 17:33:18.582
177, -13853.70, 18537.66, -187500.02, -187500.02, -187500.02, -127920.33, -187500.02, -187500.02, 0.000, 0.000, 0.000, 17:33:18.582
178, -13898.11, 18589.68, -187500.02, -187500.02, -187500.02, -128029.88, -187500.02, -187500.02, 0.000, 0.000, 0.000, 17:33:18.582
179, -14357.40, 18323.89, -187500.02, -187500.02, -187500.02, -127736.70, -187500.02, -187500.02, 0.000, 0.000, 0.000, 17:33:18.582
180, -15019.79, 17832.58, -187500.02, -187500.02, -187500.02, -127198.68, -187500.02, -187500.02, 0.000, 0.000, 0.000, 17:33:18.582
181, -14546.43, 17992.06, -187500.02, -187500.02, -187500.02, -127474.88, -187500.02, -187500.02, 0.000, 0.000, 0.000, 17:33:18.582
182, -13855.47, 18531.38, -187500.02, -187500.02, -187500.02, -127952.69, -187500.02, -187500.02, 0.000, 0.000, 0.000, 17:33:18.583
183, -13896.21, 18589.30, -187500.02, -187500.02, -187500.02, -128032.13, -187500.02, -187500.02, 0.000, 0.000, 0.000, 17:33:18.583
184, -14341.37, 18340.23, -187500.02, -187500.02, -187500.02, -127773.99, -187500.02, -187500.02, 0.000, 0.000, 0.000, 17:33:18.583
185, -15012.24, 17844.94, -187500.02, -187500.02, -187500.02, -127265.38, -187500.02, -187500.02, 0.010, -0.018, 1.032, 17:33:18.583
186, -14545.51, 18001.51, -187500.02, -187500.02, -187500.02, -127538.71, -187500.02, -187500.02, 0.000, 0.000, 0.000, 17:33:18.583
187, -13866.58, 18524.88, -187500.02, -187500.02, -187500.02, -128006.91, -187500.02, -187500.02, 0.000, 0.000, 0.000, 17:33:18.583
188, -13910.47, 18579.28, -187500.02, -187500.02, -187500.02, -128059.76, -187500.02, -187500.02, 0.000, 0.000, 0.000, 17:33:18.583
189, -14351.34, 18326.02, -187500.02, -187500.02, -187500.02, -127771.42, -187500.02, -187500.02, 0.000, 0.000, 0.000, 17:33:18.583
190, -15034.63, 17817.74, -187500.02, -187500.02, -187500.02, -127230.35, -187500.02, -187500.02, 0.000, 0.000, 0.000, 17:33:18.584
191, -14574.54, 17973.78, -187500.02, -187500.02, -187500.02, -127484.60, -187500.02, -187500.02, 0.000, 0.000, 0.000, 17:33:18.584
192, -13892.53, 18504.94, -187500.02, -187500.02, -187500.02, -127959.58, -187500.02, -187500.02, 0.000, 0.000, 0.000, 17:33:18.584
193, -13939.82, 18551.01, -187500.02, -187500.02, -187500.02, -128048.87, -187500.02, -187500.02, 0.000, 0.000, 0.000, 17:33:18.584
194, -14383.93, 18304.27, -187500.02, -187500.02, -187500.02, -127782.59, -187500.02, -187500.02, 0.000, 0.000, 0.000, 17:33:18.584
195, -15062.93, 17803.25, -187500.02, -187500.02, -187500.02, -127258.27, -187500.02, -187500.02, 0.010, -0.018, 1.024, 17:33:18.584
196, -14637.02, 17933.56, -187500.02, -187500.02, -187500.02, -127480.87, -187500.02, -187500.02, 0.000, 0.000, 0.000, 17:33:18.584
197, -13945.01, 18468.98, -187500.02, -187500.02, -187500.02, -127954.32, -187500.02, -187500.02, 0.000, 0.000, 0.000, 17:33:18.584
198, -13990.49, 18523.96, -187500.02, -187500.02, -187500.02, -128065.43, -187500.02, -187500.02, 0.000, 0.000, 0.000, 17:33:18.584
199, -14425.84, 18273.85, -187500.02, -187500.02, -187500.02, -127810.87, -187500.02, -187500.02, 0.000, 0.000, 0.000, 17:33:18.585
200, -15128.15, 17750.97, -187500.02, -187500.02, -187500.02, -127256.50, -187500.02, -187500.02, 0.000, 0.000, 0.000, 17:33:18.585
201, -14712.34, 17872.48, -187500.02, -187500.02, -187500.02, -127504.72, -187500.02, -187500.02, 0.000, 0.000, 0.000, 17:33:18.585
202, -14031.73, 18398.82, -187500.02, -187500.02, -187500.02, -127989.03, -187500.02, -187500.02, 0.000, 0.000, 0.000, 17:33:18.585
203, -14075.81, 18450.36, -187500.02, -187500.02, -187500.02, -128116.02, -187500.02, -187500.02, 0.000, 0.000, 0.000, 17:33:18.585
204, -14522.49, 18194.07, -187500.02, -187500.02, -187500.02, -127853.63, -187500.02, -187500.02, 0.000, 0.000, 0.000, 17:33:18.585
205, -15212.98, 17684.25, -187500.02, -187500.02, -187500.02, -127300.27, -187500.02, -187500.02, 0.014, -0.016, 1.024, 17:33:18.585
206, -14764.13, 17830.97, -187500.02, -187500.02, -187500.02, -127527.92, -187500.02, -187500.02, 0.000, 0.000, 0.000, 17:33:18.585
207, -14068.39, 18366.61, -187500.02, -187500.02, -187500.02, -127988.59, -187500.02, -187500.02, 0.000, 0.000, 0.000, 17:33:18.586
208, -14117.58, 18409.23, -187500.02, -187500.02, -187500.02, -128124.55, -187500.02, -187500.02, 0.000, 0.000, 0.000, 17:33:18.586
209, -14564.82, 18147.92, -187500.02, -187500.02, -187500.02, -127894.80, -187500.02, -187500.02, 0.000, 0.000, 0.000, 17:33:18.586
210, -15246.75, 17647.46, -187500.02, -187500.02, -187500.02, -127356.62, -187500.02, -187500.02, 0.000, 0.000, 0.000, 17:33:18.586
211, -14825.06, 17767.60, -187500.02, -187500.02, -187500.02, -127543.34, -187500.02, -187500.02, 0.000, 0.000, 0.000, 17:33:18.586
212, -14109.78, 18315.49, -187500.02, -187500.02, -187500.02, -128018.30, -187500.02, -187500.02, 0.000, 0.000, 0.000, 17:33:18.586
213, -14134.15, 18382.57, -187500.02, -187500.02, -187500.02, -128108.98, -187500.02, -187500.02, 0.000, 0.000, 0.000, 17:33:18.586
214, -14558.41, 18142.84, -187500.02, -187500.02, -187500.02, -127850.88, -187500.02, -187500.02, 0.000, 0.000, 0.000, 17:33:18.586
215, -15238.61, 17650.86, -187500.02, -187500.02, -187500.02, -127332.34, -187500.02, -187500.02, 0.006, -0.020, 1.030, 17:33:18.587
216, -14807.94, 17786.20, -187500.02, -187500.02, -187500.02, -127552.05, -187500.02, -187500.02, 0.000, 0.000, 0.000, 17:33:18.587
217, -14090.79, 18338.15, -187500.02, -187500.02, -187500.02, -128018.25, -187500.02, -187500.02, 0.000, 0.000, 0.000, 17:33:18.587
218, -14097.49, 18419.83, -187500.02, -187500.02, -187500.02, -128135.44, -187500.02, -187500.02, 0.000, 0.000, 0.000, 17:33:18.587
219, -14513.43, 18188.20, -187500.02, -187500.02, -187500.02, -127904.63, -187500.02, -187500.02, 0.000, 0.000, 0.000, 17:33:18.587
220, -15203.75, 17683.98, -187500.02, -187500.02, -187500.02, -127344.30, -187500.02, -187500.02, 0.000, 0.000, 0.000, 17:33:18.587
221, -14775.64, 17819.66, -187500.02, -187500.02, -187500.02, -127520.74, -187500.02, -187500.02, 0.000, 0.000, 0.000, 17:33:18.587
222, -14047.02, 18382.70, -187500.02, -187500.02, -187500.02, -128014.18, -187500.02, -187500.02, 0.000, 0.000, 0.000, 17:33:18.587
223, -14057.10, 18467.70, -187500.02, -187500.02, -187500.02, -128143.30, -187500.02, -187500.02, 0.000, 0.000, 0.000, 17:33:18.587
224, -14474.23, 18231.20, -187500.02, -187500.02, -187500.02, -127864.65, -187500.02, -187500.02, 0.000, 0.000, 0.000, 17:33:18.588
225, -15148.20, 17743.24, -187500.02, -187500.02, -187500.02, -127313.37, -187500.02, -187500.02, 0.012, -0.014, 1.032, 17:33:18.588
226, -14728.50, 17870.87, -187500.02, -187500.02, -187500.02, -127499.64, -187500.02, -187500.02, 0.000, 0.000, 0.000, 17:33:18.588
227, -13989.78, 18434.47, -187500.02, -187500.02, -187500.02, -127988.12, -187500.02, -187500.02, 0.000, 0.000, 0.000, 17:33:18.588
228, -14006.81, 18514.40, -187500.02, -187500.02, -187500.02, -128111.70, -187500.02, -187500.02, 0.000, 0.000, 0.000, 17:33:18.588
229, -14410.04, 18290.41, -187500.02, -187500.02, -187500.02, -127862.59, -187500.02, -187500.02, 0.000, 0.000, 0.000, 17:33:18.588
230, -15085.04, 17800.91, -187500.02, -187500.02, -187500.02, -127359.50, -187500.02, -187500.02, 0.000, 0.000, 0.000, 17:33:18.588
231, -14674.17, 17916.58, -187500.02, -187500.02, -187500.02, -127545.15, -187500.02, -187500.02, 0.000, 0.000, 0.000, 17:33:18.588
232, -13958.98, 18459.52, -187500.02, -187500.02, -187500.02, -127960.98, -187500.02, -187500.02, 0.000, 0.000, 0.000, 17:33:18.589
233, -13965.84, 18547.54, -187500.02, -187500.02, -187500.02, -128063.73, -187500.02, -187500.02, 0.000, 0.000, 0.000, 17:33:18.589
234, -14380.40, 18317.54, -187500.02, -187500.02, -187500.02, -127844.20, -187500.02, -187500.02, 0.000, 0.000, 0.000, 17:33:18.589
235, -15072.58, 17822.56, -187500.02, -187500.02, -187500.02, -127307.09, -187500.02, -187500.02, 0.008, -0.016, 1.032, 17:33:18.589
236, -14662.43, 17937.07, -187500.02, -187500.02, -187500.02, -127533.30, -187500.02, -187500.02, 0.000, 0.000, 0.000, 17:33:18.589
237, -13934.12, 18487.98, -187500.02, -187500.02, -187500.02, -128013.09, -187500.02, -187500.02, 0.000, 0.000, 0.000, 17:33:18.589
238, -13934.19, 18577.61, -187500.02, -187500.02, -187500.02, -128145.85, -187500.02, -187500.02, 0.000, 0.000, 0.000, 17:33:18.589
239, -14355.16, 18339.49, -187500.02, -187500.02, -187500.02, -127907.23, -187500.02, -187500.02, 0.000, 0.000, 0.000, 17:33:18.589
240, -15058.64, 17829.00, -187500.02, -187500.02, -187500.02, -127335.36, -187500.02, -187500.02, 0.000, 0.000, 0.000, 17:33:18.590
241, -14662.50, 17926.93, -187500.02, -187500.02, -187500.02, -127512.12, -187500.02, -187500.02, 0.000, 0.000, 0.000, 17:33:19.056
242, -13922.14, 18483.10, -187500.02, -187500.02, -187500.02, -128010.47, -187500.02, -187500.02, 0.000, 0.000, 0.000, 17:33:19.056
243, -13935.89, 18564.55, -187500.02, -187500.02, -187500.02, -128107.97, -187500.02, -187500.02, 0.000, 0.000, 0.000, 17:33:19.056
244, -14358.07, 18321.37, -187500.02, -187500.02, -187500.02, -127853.90, -187500.02, -187500.02, 0.000, 0.000, 0.000, 17:33:19.056
245, -15048.00, 17824.15, -187500.02, -187500.02, -187500.02, -127289.73, -187500.02, -187500.02, 0.004, -0.014, 1.028, 17:33:19.056
246, -14645.29, 17943.80, -187500.02, -187500.02, -187500.02, -127514.28, -187500.02, -187500.02, 0.000, 0.000, 0.000, 17:33:19.056
247, -13912.44, 18500.63, -187500.02, -187500.02, -187500.02, -128033.11, -187500.02, -187500.02, 0.000, 0.000, 0.000, 17:33:19.057
248, -13918.83, 18583.62, -187500.02, -187500.02, -187500.02, -128152.70, -187500.02, -187500.02, 0.000, 0.000, 0.000, 17:33:19.057
249, -14328.50, 18353.08, -187500.02, -187500.02, -187500.02, -127943.91, -187500.02, -187500.02, 0.000, 0.000, 0.000, 17:33:19.057
250, -15032.98, 17847.13, -187500.02, -187500.02, -187500.02, -127391.20, -187500.02, -187500.02, 0.000, 0.000, 0.000, 17:33:19.057
251, -14655.01, 17940.43, -187500.02, -187500.02, -187500.02, -127560.55, -187500.02, -187500.02, 0.000, 0.000, 0.000, 17:33:19.057
252, -13920.91, 18496.13, -187500.02, -187500.02, -187500.02, -128031.16, -187500.02, -187500.02, 0.000, 0.000, 0.000, 17:33:19.057
253, -13919.24, 18586.14, -187500.02, -187500.02, -187500.02, -128132.94, -187500.02, -187500.02, 0.000, 0.000, 0.000, 17:33:19.057
254, -14321.59, 18362.56, -187500.02, -187500.02, -187500.02, -127881.73, -187500.02, -187500.02, 0.000, 0.000, 0.000, 17:33:19.057
255, -15021.80, 17867.71, -187500.02, -187500.02, -187500.02, -127331.65, -187500.02, -187500.02, 0.000, -0.016, 1.030, 17:33:19.057
0, -14643.05, 17966.22, -187500.02, -187500.02, -187500.02, -127539.32, -187500.02, -187500.02, 0.000, 0.000, 0.000, 17:33:19.058
1, -13909.40, 18513.19, -187500.02, -187500.02, -187500.02, -128002.71, -187500.02, -187500.02, 0.000, 0.000, 0.000, 17:33:19.058
2, -13910.07, 18603.54, -187500.02, -187500.02, -187500.02, -128117.71, -187500.02, -187500.02, 0.000, 0.000, 0.000, 17:33:19.058
3, -14318.55, 18374.56, -187500.02, -187500.02, -187500.02, -127891.96, -187500.02, -187500.02, 0.000, 0.000, 0.000, 17:33:19.058
4, -15024.26, 17867.29, -187500.02, -187500.02, -187500.02, -127351.43, -187500.02, -187500.02, 0.000, 0.000, 0.000, 17:33:19.058
5, -14655.77, 17952.27, -187500.02, -187500.02, -187500.02, -127541.53, -187500.02, -187500.02, 0.000, 0.000, 0.000, 17:33:19.058
6, -13908.01, 18509.66, -187500.02, -187500.02, -187500.02, -128032.91, -187500.02, -187500.02, 0.000, 0.000, 0.000, 17:33:19.058
7, -13906.45, 18595.69, -187500.02, -187500.02, -187500.02, -128159.27, -187500.02, -187500.02, 0.000, 0.000, 0.000, 17:33:19.059
8, -14309.47, 18375.73, -187500.02, -187500.02, -187500.02, -127958.50, -187500.02, -187500.02, 0.000, 0.000, 0.000, 17:33:19.059
9, -15023.25, 17869.08, -187500.02, -187500.02, -187500.02, -127399.89, -187500.02, -187500.02, 0.000, -0.020, 1.034, 17:33:19.059
10, -14672.67, 17939.60, -187500.02, -187500.02, -187500.02, -127553.66, -187500.02, -187500.02, 0.000, 0.000, 0.000, 17:33:19.059
11, -13923.68, 18499.33, -187500.02, -187500.02, -187500.02, -128044.71, -187500.02, -187500.02, 0.000, 0.000, 0.000, 17:33:19.059
12, -13912.37, 18596.40, -187500.02, -187500.02, -187500.02, -128152.23, -187500.02, -187500.02, 0.000, 0.000, 0.000, 17:33:19.059
13, -14308.36, 18369.94, -187500.02, -187500.02, -187500.02, -127956.87, -187500.02, -187500.02, 0.000, 0.000, 0.000, 17:33:19.059
14, -15019.63, 17860.14, -187500.02, -187500.02, -187500.02, -127375.01, -187500.02, -187500.02, 0.000, 0.000, 0.000, 17:33:19.059
15, -14662.01, 17941.43, -187500.02, -187500.02, -187500.02, -127534.24, -187500.02, -187500.02, 0.000, 0.000, 0.000, 17:33:19.060
16, -13908.13, 18504.74, -187500.02, -187500.02, -187500.02, -128048.29, -187500.02, -187500.02, 0.000, 0.000, 0.000, 17:33:19.060
17, -13894.94, 18606.75, -187500.02, -187500.02, -187500.02, -128190.34, -187500.02, -187500.02, 0.000, 0.000, 0.000, 17:33:19.060
18, -14290.23, 18381.02, -187500.02, -187500.02, -187500.02, -127977.97, -187500.02, -187500.02, 0.000, 0.000, 0.000, 17:33:19.060
19, -15003.92, 17870.93, -187500.02, -187500.02, -187500.02, -127408.56, -187500.02, -187500.02, -0.004, -0.022, 1.034, 17:33:19.060
20, -14662.57, 17945.79, -187500.02, -187500.02, -187500.02, -127584.58, -187500.02, -187500.02, 0.000, 0.000, 0.000, 17:33:19.060
21, -13913.20, 18502.62, -187500.02, -187500.02, -187500.02, -128064.59, -187500.02, -187500.02, 0.000, 0.000, 0.000, 17:33:19.060
22, -13904.55, 18600.45, -187500.02, -187500.02, -187500.02, -128166.51, -187500.02, -187500.02, 0.000, 0.000, 0.000, 17:33:19.060
23, -14300.71, 18374.90, -187500.02, -187500.02, -187500.02, -127928.33, -187500.02, -187500.02, 0.000, 0.000, 0.000, 17:33:19.060
24, -15005.15, 17877.24, -187500.02, -187500.02, -187500.02, -127393.74, -187500.02, -187500.02, 0.000, 0.000, 0.000, 17:33:19.061
25, -14663.08, 17948.70, -187500.02, -187500.02, -187500.02, -127607.27, -187500.02, -187500.02, 0.000, 0.000, 0.000, 17:33:19.061
26, -13902.76, 18511.63, -187500.02, -187500.02, -187500.02, -128129.07, -187500.02, -187500.02, 0.000, 0.000, 0.000, 17:33:19.061
27, -13893.42, 18606.84, -187500.02, -187500.02, -187500.02, -128255.24, -187500.02, -187500.02, 0.000, 0.000, 0.000, 17:33:19.061
28, -14291.46, 18382.50, -187500.02, -187500.02, -187500.02, -128035.19, -187500.02, -187500.02, 0.000, 0.000, 0.000, 17:33:19.061
29, -15002.40, 17877.91, -187500.02, -187500.02, -187500.02, -127453.58, -187500.02, -187500.02, 0.000, -0.022, 1.030, 17:33:19.061
30, -14664.26, 17943.67, -187500.02, -187500.02, -187500.02, -127596.54, -187500.02, -187500.02, 0.000, 0.000, 0.000, 17:33:19.061
31, -13903.99, 18503.00, -187500.02, -187500.02, -187500.02, -128098.49, -187500.02, -187500.02, 0.000, 0.000, 0.000, 17:33:19.061
32, -13891.18, 18601.99, -187500.02, -187500.02, -187500.02, -128211.79, -187500.02, -187500.02, 0.000, 0.000, 0.000, 17:33:19.062
33, -14273.53, 18393.94, -187500.02, -187500.02, -187500.02, -128014.63, -187500.02, -187500.02, 0.000, 0.000, 0.000, 17:33:19.062
34, -14995.36, 17885.51, -187500.02, -187500.02, -187500.02, -127456.33, -187500.02, -187500.02, 0.000, 0.000, 0.000, 17:33:19.062
35, -14674.34, 17938.46, -187500.02, -187500.02, -187500.02, -127604.18, -187500.02, -187500.02, 0.000, 0.000, 0.000, 17:33:19.062
36, -13906.16, 18504.76, -187500.02, -187500.02, -187500.02, -128134.59, -187500.02, -187500.02, 0.000, 0.000, 0.000, 17:33:19.062
37, -13891.18, 18604.94, -187500.02, -187500.02, -187500.02, -128240.76, -187500.02, -187500.02, 0.000, 0.000, 0.000, 17:33:19.062
38, -14277.09, 18391.93, -187500.02, -187500.02, -187500.02, -128018.47, -187500.02, -187500.02, 0.004, -0.024, 1.032, 17:33:19.062
39, -14987.87, 17894.78, -187500.02, -187500.02, -187500.02, -127486.16, -187500.02, -187500.02, 0.000, 0.000, 0.000, 17:33:19.062
40, -14678.41, 17935.55, -187500.02, -187500.02, -187500.02, -127634.00, -187500.02, -187500.02, 0.000, 0.000, 0.000, 17:33:19.062
41, -13912.44, 18495.87, -187500.02, -187500.02, -187500.02, -128093.59, -187500.02, -187500.02, 0.000, 0.000, 0.000, 17:33:19.063
42, -13873.57, 18616.39, -187500.02, -187500.02, -187500.02, -128265.95, -187500.02, -187500.02, 0.000, 0.000, 0.000, 17:33:19.063
43, -14265.49, 18394.77, -187500.02, -187500.02, -187500.02, -128066.23, -187500.02, -187500.02, 0.000, 0.000, 0.000, 17:33:19.063
44, -14988.79, 17888.84, -187500.02, -187500.02, -187500.02, -127490.28, -187500.02, -187500.02, 0.000, 0.000, 0.000, 17:33:19.063
45, -14684.65, 17931.08, -187500.02, -187500.02, -187500.02, -127604.07, -187500.02, -187500.02, 0.000, 0.000, 0.000, 17:33:19.063
46, -13905.65, 18502.35, -187500.02, -187500.02, -187500.02, -128137.95, -187500.02, -187500.02, 0.000, 0.000, 0.000, 17:33:19.063
47, -13882.96, 18610.55, -187500.02, -187500.02, -187500.02, -128256.34, -187500.02, -187500.02, 0.000, 0.000, 0.000, 17:33:19.063
48, -14264.50, 18396.47, -187500.02, -187500.02, -187500.02, -128039.75, -187500.02, -187500.02, 0.006, -0.024, 1.032, 17:33:19.063
49, -14977.77, 17900.44, -187500.02, -187500.02, -187500.02, -127502.41, -187500.02, -187500.02, 0.000, 0.000, 0.000, 17:33:19.064
50, -14682.50, 17931.04, -187500.02, -187500.02, -187500.02, -127627.14, -187500.02, -187500.02, 0.000, 0.000, 0.000, 17:33:19.064
51, -13906.72, 18496.80, -187500.02, -187500.02, -187500.02, -128123.80, -187500.02, -187500.02, 0.000, 0.000, 0.000, 17:33:19.064
52, -13883.72, 18608.36, -187500.02, -187500.02, -187500.02, -128232.65, -187500.02, -187500.02, 0.000, 0.000, 0.000, 17:33:19.064
53, -14267.07, 18396.18, -187500.02, -187500.02, -187500.02, -127992.99, -187500.02, -187500.02, 0.000, 0.000, 0.000, 17:33:19.064
54, -14977.68, 17900.15, -187500.02, -187500.02, -187500.02, -127427.65, -187500.02, -187500.02, 0.000, 0.000, 0.000, 17:33:19.064
55, -14686.68, 17930.88, -187500.02, -187500.02, -187500.02, -127575.51, -187500.02, -187500.02, 0.000, 0.000, 0.000, 17:33:19.064
56, -13914.14, 18494.57, -187500.02, -187500.02, -187500.02, -128085.48, -187500.02, -187500.02, 0.000, 0.000, 0.000, 17:33:19.065
57, -13880.57, 18612.43, -187500.02, -187500.02, -187500.02, -128232.78, -187500.02, -187500.02, 0.000, 0.000, 0.000, 17:33:19.065
58, -14255.70, 18407.55, -187500.02, -187500.02, -187500.02, -128059.95, -187500.02, -187500.02, 0.002, -0.024, 1.028, 17:33:19.065
59, -14979.78, 17897.18, -187500.02, -187500.02, -187500.02, -127467.99, -187500.02, -187500.02, 0.000, 0.000, 0.000, 17:33:19.065
60, -14689.50, 17932.38, -187500.02, -187500.02, -187500.02, -127602.55, -187500.02, -187500.02, 0.000, 0.000, 0.000, 17:33:19.065
61, -13916.96, 18501.75, -187500.02, -187500.02, -187500.02, -128132.96, -187500.02, -187500.02, 0.000, 0.000, 0.000, 17:33:19.065
62, -13878.78, 18623.16, -187500.02, -187500.02, -187500.02, -128300.77, -187500.02, -187500.02, 0.000, 0.000, 0.000, 17:33:19.065
63, -14252.77, 18408.85, -187500.02, -187500.02, -187500.02, -128124.30, -187500.02, -187500.02, 0.000, 0.000, 0.000, 17:33:19.065
64, -14985.12, 17895.16, -187500.02, -187500.02, -187500.02, -127543.92, -187500.02, -187500.02, 0.000, 0.000, 0.000, 17:33:19.066
65, -14717.55, 17912.53, -187500.02, -187500.02, -187500.02, -127650.45, -187500.02, -187500.02, 0.000, 0.000, 0.000, 17:33:19.066
66, -13929.88, 18481.72, -187500.02, -187500.02, -187500.02, -128178.11, -187500.02, -187500.02, 0.000, 0.000, 0.000, 17:33:19.066
67, -13891.81, 18606.42, -187500.02, -187500.02, -187500.02, -128310.12, -187500.02, -187500.02, 0.000, 0.000, 0.000, 17:33:19.066
68, -14266.04, 18400.02, -187500.02, -187500.02, -187500.02, -128114.16, -187500.02, -187500.02, 0.006, -0.024, 1.032, 17:33:19.066
69, -14987.87, 17894.83, -187500.02, -187500.02, -187500.02, -127539.20, -187500.02, -187500.02, 0.000, 0.000, 0.000, 17:33:19.066
70, -14729.62, 17903.30, -187500.02, -187500.02, -187500.02, -127620.61, -187500.02, -187500.02, 0.000, 0.000, 0.000, 17:33:19.066
71, -13947.24, 18470.81, -187500.02, -187500.02, -187500.02, -128122.99, -187500.02, -187500.02, 0.000, 0.000, 0.000, 17:33:19.066
72, -13898.14, 18601.03, -187500.02, -187500.02, -187500.02, -128273.20, -187500.02, -187500.02, 0.000, 0.000, 0.000, 17:33:19.067
73, -14260.75, 18399.24, -187500.02, -187500.02, -187500.02, -128077.03, -187500.02, -187500.02, 0.000, 0.000, 0.000, 17:33:19.067
74, -14977.03, 17905.74, -187500.02, -187500.02, -187500.02, -127557.34, -187500.02, -187500.02, 0.000, 0.000, 0.000, 17:33:19.067
75, -14727.05, 17907.52, -187500.02, -187500.02, -187500.02, -127667.95, -187500.02, -187500.02, 0.000, 0.000, 0.000, 17:33:19.067
76, -13946.62, 18473.85, -187500.02, -187500.02, -187500.02, -128152.13, -187500.02, -187500.02, 0.000, 0.000, 0.000, 17:33:19.067
77, -13897.82, 18609.64, -187500.02, -187500.02, -187500.02, -128291.16, -187500.02, -187500.02, 0.000, 0.000, 0.000, 17:33:19.067
78, -14270.56, 18404.29, -187500.02, -187500.02, -187500.02, -128117.63, -187500.02, -187500.02, 0.004, -0.026, 1.026, 17:33:19.067
79, -14995.05, 17900.97, -187500.02, -187500.02, -187500.02, -127525.26, -187500.02, -187500.02, 0.000, 0.000, 0.000, 17:33:19.067
80, -14733.64, 17910.09, -187500.02, -187500.02, -187500.02, -127595.42, -187500.02, -187500.02, 0.000, 0.000, 0.000, 17:33:19.067
81, -13936.47, 18485.25, -187500.02, -187500.02, -187500.02, -128141.23, -187500.02, -187500.02, 0.000, 0.000, 0.000, 17:33:19.068
82, -13882.47, 18620.30, -187500.02, -187500.02, -187500.02, -128306.79, -187500.02, -187500.02, 0.000, 0.000, 0.000, 17:33:19.068
83, -14257.26, 18412.72, -187500.02, -187500.02, -187500.02, -128118.79, -187500.02, -187500.02, 0.000, 0.000, 0.000, 17:33:19.068
84, -14982.46, 17911.01, -187500.02, -187500.02, -187500.02, -127586.30, -187500.02, -187500.02, 0.000, 0.000, 0.000, 17:33:19.068
85, -14736.42, 17910.18, -187500.02, -187500.02, -187500.02, -127716.57, -187500.02, -187500.02, 0.000, 0.000, 0.000, 17:33:19.068
86, -13959.67, 18467.97, -187500.02, -187500.02, -187500.02, -128196.13, -187500.02, -187500.02, 0.000, 0.000, 0.000, 17:33:19.068
87, -13903.66, 18602.19, -187500.02, -187500.02, -187500.02, -128308.38, -187500.02, -187500.02, 0.000, 0.000, 0.000, 17:33:19.068
88, -14260.08, 18408.81, -187500.02, -187500.02, -187500.02, -128144.29, -187500.02, -187500.02, 0.002, -0.024, 1.028, 17:33:19.068
89, -14988.90, 17909.87, -187500.02, -187500.02, -187500.02, -127583.55, -187500.02, -187500.02, 0.000, 0.000, 0.000, 17:33:19.069
90, -14755.24, 17897.00, -187500.02, -187500.02, -187500.02, -127663.99, -187500.02, -187500.02, 0.000, 0.000, 0.000, 17:33:19.069
91, -13959.94, 18466.21, -187500.02, -187500.02, -187500.02, -128170.58, -187500.02, -187500.02, 0.000, 0.000, 0.000, 17:33:19.069
92, -13904.24, 18603.00, -187500.02, -187500.02, -187500.02, -128288.15, -187500.02, -187500.02, 0.000, 0.000, 0.000, 17:33:19.069
93, -14255.07, 18408.49, -187500.02, -187500.02, -187500.02, -128112.23, -187500.02, -187500.02, 0.000, 0.000, 0.000, 17:33:19.069
94, -14975.62, 17914.27, -187500.02, -187500.02, -187500.02, -127553.38, -187500.02, -187500.02, 0.000, 0.000, 0.000, 17:33:19.069
95, -14751.97, 17896.88, -187500.02, -187500.02, -187500.02, -127630.76, -187500.02, -187500.02, 0.000, 0.000, 0.000, 17:33:19.069
96, -13959.11, 18464.87, -187500.02, -187500.02, -187500.02, -128158.57, -187500.02, -187500.02, 0.000, 0.000, 0.000, 17:33:19.069
97, -13891.85, 18612.50, -187500.02, -187500.02, -187500.02, -128322.57, -187500.02, -187500.02, 0.000, 0.000, 0.000, 17:33:19.070
98, -14253.71, 18414.01, -187500.02, -187500.02, -187500.02, -128146.93, -187500.02, -187500.02, 0.008, -0.020, 1.030, 17:33:19.070
99, -14979.22, 17917.98, -187500.02, -187500.02, -187500.02, -127593.63, -187500.02, -187500.02, 0.000, 0.000, 0.000, 17:33:19.070
100, -14763.66, 17896.77, -187500.02, -187500.02, -187500.02, -127676.45, -187500.02, -187500.02, 0.000, 0.000, 0.000, 17:33:19.070
101, -13966.98, 18460.44, -187500.02, -187500.02, -187500.02, -128163.87, -187500.02, -187500.02, 0.000, 0.000, 0.000, 17:33:19.070
102, -13897.44, 18609.14, -187500.02, -187500.02, -187500.02, -128309.05, -187500.02, -187500.02, 0.000, 0.000, 0.000, 17:33:19.070
103, -14258.98, 18410.26, -187500.02, -187500.02, -187500.02, -128119.08, -187500.02, -187500.02, 0.000, 0.000, 0.000, 17:33:19.070
104, -14984.63, 17915.84, -187500.02, -187500.02, -187500.02, -127552.88, -187500.02, -187500.02, 0.000, 0.000, 0.000, 17:33:19.070
105, -14765.18, 17895.30, -187500.02, -187500.02, -187500.02, -127610.24, -187500.02, -187500.02, 0.000, 0.000, 0.000, 17:33:19.538
106, -13957.84, 18468.42, -187500.02, -187500.02, -187500.02, -128156.45, -187500.02, -187500.02, 0.000, 0.000, 0.000, 17:33:19.539
107, -13882.87, 18620.99, -187500.02, -187500.02, -187500.02, -128354.71, -187500.02, -187500.02, 0.000, 0.000, 0.000, 17:33:19.539
108, -14237.81, 18424.12, -187500.02, -187500.02, -187500.02, -128208.20, -187500.02, -187500.02, 0.002, -0.018, 1.030, 17:33:19.539
109, -14978.08, 17916.93, -187500.02, -187500.02, -187500.02, -127593.59, -187500.02, -187500.02, 0.000, 0.000, 0.000, 17:33:19.539
110, -14776.09, 17889.35, -187500.02, -187500.02, -187500.02, -127646.38, -187500.02, -187500.02, 0.000, 0.000, 0.000, 17:33:19.539
111, -13973.06, 18464.73, -187500.02, -187500.02, -187500.02, -128184.32, -187500.02, -187500.02, 0.000, 0.000, 0.000, 17:33:19.539
112, -13897.64, 18615.07, -187500.02, -187500.02, -187500.02, -128358.48, -187500.02, -187500.02, 0.000, 0.000, 0.000, 17:33:19.539
113, -14245.15, 18423.04, -187500.02, -187500.02, -187500.02, -128208.75, -187500.02, -187500.02, 0.000, 0.000, 0.000, 17:33:19.539
114, -14969.90, 17927.19, -187500.02, -187500.02, -187500.02, -127636.95, -187500.02, -187500.02, 0.000, 0.000, 0.000, 17:33:19.539
115, -14771.28, 17893.15, -187500.02, -187500.02, -187500.02, -127711.18, -187500.02, -187500.02, 0.000, 0.000, 0.000, 17:33:19.540
116, -13979.61, 18447.36, -187500.02, -187500.02, -187500.02, -128210.07, -187500.02, -187500.02, 0.000, 0.000, 0.000, 17:33:19.540
117, -13915.32, 18588.78, -187500.02, -187500.02, -187500.02, -128343.42, -187500.02, -187500.02, 0.000, 0.000, 0.000, 17:33:19.540
118, -14254.13, 18407.02, -187500.02, -187500.02, -187500.02, -128160.88, -187500.02, -187500.02, 0.008, -0.020, 1.030, 17:33:19.540
119, -14964.58, 17931.24, -187500.02, -187500.02, -187500.02, -127622.66, -187500.02, -187500.02, 0.000, 0.000, 0.000, 17:33:19.540
120, -14775.67, 17894.83, -187500.02, -187500.02, -187500.02, -127703.96, -187500.02, -187500.02, 0.000, 0.000, 0.000, 17:33:19.540
121, -13982.18, 18452.33, -187500.02, -187500.02, -187500.02, -128208.46, -187500.02, -187500.02, 0.000, 0.000, 0.000, 17:33:19.540
122, -13898.52, 18612.45, -187500.02, -187500.02, -187500.02, -128375.61, -187500.02, -187500.02, 0.000, 0.000, 0.000, 17:33:19.540
123, -14247.36, 18418.48, -187500.02, -187500.02, -187500.02, -128184.91, -187500.02, -187500.02, 0.000, 0.000, 0.000, 17:33:19.541
124, -14964.27, 17934.14, -187500.02, -187500.02, -187500.02, -127650.12, -187500.02, -187500.02, 0.000, 0.000, 0.000, 17:33:19.541
125, -14784.76, 17886.96, -187500.02, -187500.02, -187500.02, -127738.59, -187500.02, -187500.02, 0.000, 0.000, 0.000, 17:33:19.541
126, -13992.17, 18442.76, -187500.02, -187500.02, -187500.02, -128223.21, -187500.02, -187500.02, 0.000, 0.000, 0.000, 17:33:19.541
127, -13899.92, 18609.26, -187500.02, -187500.02, -187500.02, -128375.12, -187500.02, -187500.02, 0.000, 0.000, 0.000, 17:33:19.541
128, -14233.97, 18429.21, -187500.02, -187500.02, -187500.02, -128233.61, -187500.02, -187500.02, 0.004, -0.018, 1.026, 17:33:19.541
129, -14960.76, 17938.10, -187500.02, -187500.02, -187500.02, -127663.86, -187500.02, -187500.02, 0.000, 0.000, 0.000, 17:33:19.541
130, -14781.43, 17896.17, -187500.02, -187500.02, -187500.02, -127727.50, -187500.02, -187500.02, 0.000, 0.000, 0.000, 17:33:19.541
131, -13981.98, 18456.48, -187500.02, -187500.02, -187500.02, -128246.99, -187500.02, -187500.02, 0.000, 0.000, 0.000, 17:33:19.542
132, -13898.07, 18617.57, -187500.02, -187500.02, -187500.02, -128405.94, -187500.02, -187500.02, 0.000, 0.000, 0.000, 17:33:19.542
133, -14231.04, 18438.76, -187500.02, -187500.02, -187500.02, -128275.30, -187500.02, -187500.02, 0.000, 0.000, 0.000, 17:33:19.542
134, -14959.15, 17947.24, -187500.02, -187500.02, -187500.02, -127730.23, -187500.02, -187500.02, 0.000, 0.000, 0.000, 17:33:19.542
135, -14796.88, 17886.51, -187500.02, -187500.02, -187500.02, -127739.21, -187500.02, -187500.02, 0.000, 0.000, 0.000, 17:33:19.542
136, -13994.16, 18443.90, -187500.02, -187500.02, -187500.02, -128246.41, -187500.02, -187500.02, 0.000, 0.000, 0.000, 17:33:19.542
137, -13896.50, 18617.28, -187500.02, -187500.02, -187500.02, -128446.44, -187500.02, -187500.02, 0.000, 0.000, 0.000, 17:33:19.542
138, -14228.67, 18437.15, -187500.02, -187500.02, -187500.02, -128293.11, -187500.02, -187500.02, 0.004, -0.016, 1.024, 17:33:19.542
139, -14960.42, 17940.16, -187500.02, -187500.02, -187500.02, -127686.28, -187500.02, -187500.02, 0.000, 0.000, 0.000, 17:33:19.543
140, -14807.07, 17878.69, -187500.02, -187500.02, -187500.02, -127699.11, -187500.02, -187500.02, 0.000, 0.000, 0.000, 17:33:19.543
141, -14002.50, 18442.09, -187500.02, -187500.02, -187500.02, -128229.65, -187500.02, -187500.02, 0.000, 0.000, 0.000, 17:33:19.543
142, -13895.63, 18618.18, -187500.02, -187500.02, -187500.02, -128431.48, -187500.02, -187500.02, 0.000, 0.000, 0.000, 17:33:19.543
143, -14229.39, 18435.29, -187500.02, -187500.02, -187500.02, -128287.14, -187500.02, -187500.02, 0.000, 0.000, 0.000, 17:33:19.543
144, -14958.30, 17948.09, -187500.02, -187500.02, -187500.02, -127681.59, -187500.02, -187500.02, 0.000, 0.000, 0.000, 17:33:19.543
145, -14802.42, 17888.03, -187500.02, -187500.02, -187500.02, -127721.59, -187500.02, -187500.02, 0.000, 0.000, 0.000, 17:33:19.543
146, -13995.05, 18443.18, -187500.02, -187500.02, -187500.02, -128216.89, -187500.02, -187500.02, 0.000, 0.000, 0.000, 17:33:19.543
147, -13895.56, 18614.58, -187500.02, -187500.02, -187500.02, -128396.71, -187500.02, -187500.02, 0.000, 0.000, 0.000, 17:33:19.544
148, -14216.94, 18446.87, -187500.02, -187500.02, -187500.02, -128245.81, -187500.02, -187500.02, 0.008, -0.022, 1.024, 17:33:19.544
149, -14940.67, 17964.19, -187500.02, -187500.02, -187500.02, -127700.23, -187500.02, -187500.02, 0.000, 0.000, 0.000, 17:33:19.544
150, -14797.73, 17895.88, -187500.02, -187500.02, -187500.02, -127725.84, -187500.02, -187500.02, 0.000, 0.000, 0.000, 17:33:19.544
151, -13984.28, 18459.95, -187500.02, -187500.02, -187500.02, -128266.87, -187500.02, -187500.02, 0.000, 0.000, 0.000, 17:33:19.544
152, -13888.17, 18628.81, -187500.02, -187500.02, -187500.02, -128452.16, -187500.02, -187500.02, 0.000, 0.000, 0.000, 17:33:19.544
153, -14222.68, 18446.80, -187500.02, -187500.02, -187500.02, -128276.39, -187500.02, -187500.02, 0.000, 0.000, 0.000, 17:33:19.545
154, -14948.26, 17962.84, -187500.02, -187500.02, -187500.02, -127705.44, -187500.02, -187500.02, 0.000, 0.000, 0.000, 17:33:19.545
155, -14806.60, 17889.33, -187500.02, -187500.02, -187500.02, -127755.91, -187500.02, -187500.02, 0.000, 0.000, 0.000, 17:33:19.545
156, -14002.12, 18441.17, -187500.02, -187500.02, -187500.02, -128261.99, -187500.02, -187500.02, 0.000, 0.000, 0.000, 17:33:19.545
157, -13902.09, 18612.19, -187500.02, -187500.02, -187500.02, -128433.48, -187500.02, -187500.02, 0.000, 0.000, 0.000, 17:33:19.545
158, -14218.88, 18443.09, -187500.02, -187500.02, -187500.02, -128308.66, -187500.02, -187500.02, 0.008, -0.022, 1.026, 17:33:19.545
159, -14946.86, 17957.21, -187500.02, -187500.02, -187500.02, -127727.32, -187500.02, -187500.02, 0.000, 0.000, 0.000, 17:33:19.545
160, -14813.37, 17883.54, -187500.02, -187500.02, -187500.02, -127768.09, -187500.02, -187500.02, 0.000, 0.000, 0.000, 17:33:19.545
161, -13998.25, 18442.27, -187500.02, -187500.02, -187500.02, -128303.13, -187500.02, -187500.02, 0.000, 0.000, 0.000, 17:33:19.545
162, -13890.18, 18620.75, -187500.02, -187500.02, -187500.02, -128466.00, -187500.02, -187500.02, 0.000, 0.000, 0.000, 17:33:19.546
163, -14216.78, 18448.79, -187500.02, -187500.02, -187500.02, -128307.97, -187500.02, -187500.02, 0.000, 0.000, 0.000, 17:33:19.546
164, -14940.26, 17966.85, -187500.02, -187500.02, -187500.02, -127760.94, -187500.02, -187500.02, 0.000, 0.000, 0.000, 17:33:19.546
165, -14821.80, 17875.70, -187500.02, -187500.02, -187500.02, -127755.77, -187500.02, -187500.02, 0.000, 0.000, 0.000, 17:33:19.546
166, -14013.56, 18429.88, -187500.02, -187500.02, -187500.02, -128261.28, -187500.02, -187500.02, 0.000, 0.000, 0.000, 17:33:19.546
167, -13901.53, 18609.59, -187500.02, -187500.02, -187500.02, -128436.59, -187500.02, -187500.02, 0.000, -0.020, 1.028, 17:33:19.546
168, -14210.14, 18448.03, -187500.02, -187500.02, -187500.02, -128297.02, -187500.02, -187500.02, 0.000, 0.000, 0.000, 17:33:19.546
169, -14935.37, 17969.66, -187500.02, -187500.02, -187500.02, -127717.17, -187500.02, -187500.02, 0.000, 0.000, 0.000, 17:33:19.546
170, -14810.02, 17889.06, -187500.02, -187500.02, -187500.02, -127721.73, -187500.02, -187500.02, 0.000, 0.000, 0.000, 17:33:19.547
171, -13988.48, 18451.48, -187500.02, -187500.02, -187500.02, -128297.38, -187500.02, -187500.02, 0.000, 0.000, 0.000, 17:33:19.547
172, -13881.46, 18627.12, -187500.02, -187500.02, -187500.02, -128484.39, -187500.02, -187500.02, 0.000, 0.000, 0.000, 17:33:19.547
173, -14200.98, 18455.61, -187500.02, -187500.02, -187500.02, -128357.46, -187500.02, -187500.02, 0.000, 0.000, 0.000, 17:33:19.547
174, -14929.47, 17970.60, -187500.02, -187500.02, -187500.02, -127791.31, -187500.02, -187500.02, 0.000, 0.000, 0.000, 17:33:19.547
175, -14822.09, 17873.79, -187500.02, -187500.02, -187500.02, -127771.30, -187500.02, -187500.02, 0.000, 0.000, 0.000, 17:33:19.547
176, -14003.01, 18435.12, -187500.02, -187500.02, -187500.02, -128289.58, -187500.02, -187500.02, 0.000, 0.000, 0.000, 17:33:19.547
177, -13885.17, 18625.71, -187500.02, -187500.02, -187500.02, -128492.75, -187500.02, -187500.02, 0.004, -0.018, 1.024, 17:33:19.547
178, -14206.34, 18455.52, -187500.02, -187500.02, -187500.02, -128359.18, -187500.02, -187500.02, 0.000, 0.000, 0.000, 17:33:19.547
179, -14933.04, 17974.67, -187500.02, -187500.02, -187500.02, -127755.62, -187500.02, -187500.02, 0.000, 0.000, 0.000, 17:33:19.548
180, -14829.06, 17881.15, -187500.02, -187500.02, -187500.02, -127778.62, -187500.02, -187500.02, 0.000, 0.000, 0.000, 17:33:19.548
181, -14014.59, 18434.00, -187500.02, -187500.02, -187500.02, -128322.84, -187500.02, -187500.02, 0.000, 0.000, 0.000, 17:33:19.548
182, -13896.68, 18617.91, -187500.02, -187500.02, -187500.02, -128485.96, -187500.02, -187500.02, 0.000, 0.000, 0.000, 17:33:19.548
183, -14199.48, 18459.77, -187500.02, -187500.02, -187500.02, -128334.41, -187500.02, -187500.02, 0.000, 0.000, 0.000, 17:33:19.548
184, -14916.12, 17993.91, -187500.02, -187500.02, -187500.02, -127782.82, -187500.02, -187500.02, 0.000, 0.000, 0.000, 17:33:19.548
185, -14828.28, 17886.25, -187500.02, -187500.02, -187500.02, -127771.35, -187500.02, -187500.02, 0.000, 0.000, 0.000, 17:33:19.548
186, -14009.54, 18439.14, -187500.02, -187500.02, -187500.02, -128281.84, -187500.02, -187500.02, 0.000, 0.000, 0.000, 17:33:19.549
187, -13883.47, 18635.16, -187500.02, -187500.02, -187500.02, -128458.63, -187500.02, -187500.02, 0.008, -0.014, 1.028, 17:33:19.549
188, -14192.78, 18474.14, -187500.02, -187500.02, -187500.02, -128343.17, -187500.02, -187500.02, 0.000, 0.000, 0.000, 17:33:19.549
189, -14922.00, 17994.05, -187500.02, -187500.02, -187500.02, -127771.58, -187500.02, -187500.02, 0.000, 0.000, 0.000, 17:33:19.549
190, -14831.88, 17885.89, -187500.02, -187500.02, -187500.02, -127759.70, -187500.02, -187500.02, 0.000, 0.000, 0.000, 17:33:19.549
191, -14010.12, 18439.47, -187500.02, -187500.02, -187500.02, -128287.34, -187500.02, -187500.02, 0.000, 0.000, 0.000, 17:33:19.549
192, -13886.71, 18629.46, -187500.02, -187500.02, -187500.02, -128454.24, -187500.02, -187500.02, 0.000, 0.000, 0.000, 17:33:19.549
193, -14196.73, 18466.72, -187500.02, -187500.02, -187500.02, -128302.85, -187500.02, -187500.02, 0.000, 0.000, 0.000, 17:33:19.549
194, -14915.12, 17997.82, -187500.02, -187500.02, -187500.02, -127742.88, -187500.02, -187500.02, 0.000, 0.000, 0.000, 17:33:19.550
195, -14836.64, 17882.87, -187500.02, -187500.02, -187500.02, -127746.79, -187500.02, -187500.02, 0.000, 0.000, 0.000, 17:33:19.550
196, -14003.05, 18449.31, -187500.02, -187500.02, -187500.02, -128288.19, -187500.02, -187500.02, 0.000, 0.000, 0.000, 17:33:19.550
197, -13866.31, 18654.27, -187500.02, -187500.02, -187500.02, -128526.04, -187500.02, -187500.02, 0.002, -0.014, 1.028, 17:33:19.550
198, -14180.42, 18482.37, -187500.02, -187500.02, -187500.02, -128410.79, -187500.02, -187500.02, 0.000, 0.000, 0.000, 17:33:19.550
199, -14908.01, 18005.04, -187500.02, -187500.02, -187500.02, -127840.59, -187500.02, -187500.02, 0.000, 0.000, 0.000, 17:33:19.550
200, -14832.95, 17890.80, -187500.02, -187500.02, -187500.02, -127832.86, -187500.02, -187500.02, 0.000, 0.000, 0.000, 17:33:19.550
201, -14004.95, 18445.35, -187500.02, -187500.02, -187500.02, -128379.59, -187500.02, -187500.02, 0.000, 0.000, 0.000, 17:33:19.550
202, -13876.01, 18639.57, -187500.02, -187500.02, -187500.02, -128543.38, -187500.02, -187500.02, 0.000, 0.000, 0.000, 17:33:19.550
203, -14190.34, 18468.87, -187500.02, -187500.02, -187500.02, -128383.37, -187500.02, -187500.02, 0.000, 0.000, 0.000, 17:33:19.551
204, -14907.61, 18000.82, -187500.02, -187500.02, -187500.02, -127822.36, -187500.02, -187500.02, 0.000, 0.000, 0.000, 17:33:19.551
205, -14834.11, 17887.12, -187500.02, -187500.02, -187500.02, -127810.42, -187500.02, -187500.02, 0.000, 0.000, 0.000, 17:33:19.551
206, -14010.63, 18438.22, -187500.02, -187500.02, -187500.02, -128341.55, -187500.02, -187500.02, 0.000, 0.000, 0.000, 17:33:19.551
207, -13874.44, 18639.95, -187500.02, -187500.02, -187500.02, -128501.67, -187500.02, -187500.02, 0.002, -0.014, 1.034, 17:33:19.551
208, -14173.98, 18484.58, -187500.02, -187500.02, -187500.02, -128386.54, -187500.02, -187500.02, 0.000, 0.000, 0.000, 17:33:19.551
209, -14898.00, 18012.85, -187500.02, -187500.02, -187500.02, -127834.56, -187500.02, -187500.02, 0.000, 0.000, 0.000, 17:33:19.551
210, -14841.09, 17884.66, -187500.02, -187500.02, -187500.02, -127823.34, -187500.02, -187500.02, 0.000, 0.000, 0.000, 17:33:19.551
211, -14020.00, 18437.37, -187500.02, -187500.02, -187500.02, -128359.16, -187500.02, -187500.02, 0.000, 0.000, 0.000, 17:33:19.552
212, -13872.77, 18646.81, -187500.02, -187500.02, -187500.02, -128544.25, -187500.02, -187500.02, 0.000, 0.000, 0.000, 17:33:19.552
213, -14167.97, 18489.32, -187500.02, -187500.02, -187500.02, -128438.84, -187500.02, -187500.02, 0.000, 0.000, 0.000, 17:33:19.552
214, -14887.80, 18019.69, -187500.02, -187500.02, -187500.02, -127888.12, -187500.02, -187500.02, 0.000, 0.000, 0.000, 17:33:19.552
215, -14840.60, 17886.94, -187500.02, -187500.02, -187500.02, -127858.30, -187500.02, -187500.02, 0.000, 0.000, 0.000, 17:33:19.552
216, -14013.65, 18439.36, -187500.02, -187500.02, -187500.02, -128393.38, -187500.02, -187500.02, 0.000, 0.000, 0.000, 17:33:19.552
217, -13866.04, 18651.14, -187500.02, -187500.02, -187500.02, -128572.30, -187500.02, -187500.02, 0.004, -0.016, 1.036, 17:33:19.552
218, -14157.44, 18499.67, -187500.02, -187500.02, -187500.02, -128471.68, -187500.02, -187500.02, 0.000, 0.000, 0.000, 17:33:19.552
219, -14888.54, 18021.41, -187500.02, -187500.02, -187500.02, -127910.52, -187500.02, -187500.02, 0.000, 0.000, 0.000, 17:33:19.553
220, -14850.34, 17883.09, -187500.02, -187500.02, -187500.02, -127855.35, -187500.02, -187500.02, 0.000, 0.000, 0.000, 17:33:19.553
221, -14014.23, 18444.68, -187500.02, -187500.02, -187500.02, -128390.41, -187500.02, -187500.02, 0.000, 0.000, 0.000, 17:33:19.553
222, -13857.77, 18663.57, -187500.02, -187500.02, -187500.02, -128616.05, -187500.02, -187500.02, 0.000, 0.000, 0.000, 17:33:19.553
223, -14168.59, 18492.02, -187500.02, -187500.02, -187500.02, -128470.23, -187500.02, -187500.02, 0.000, 0.000, 0.000, 17:33:19.553
224, -14891.49, 18017.23, -187500.02, -187500.02, -187500.02, -127882.15, -187500.02, -187500.02, 0.000, 0.000, 0.000, 17:33:19.553
225, -14846.88, 17884.05, -187500.02, -187500.02, -187500.02, -127850.30, -187500.02, -187500.02, 0.000, 0.000, 0.000, 17:33:19.553
226, -14024.20, 18431.67, -187500.02, -187500.02, -187500.02, -128373.98, -187500.02, -187500.02, 0.000, 0.000, 0.000, 17:33:20.017
227, -13869.97, 18643.54, -187500.02, -187500.02, -187500.02, -128546.53, -187500.02, -187500.02, 0.000, -0.014, 1.036, 17:33:20.017
228, -14155.02, 18497.97, -187500.02, -187500.02, -187500.02, -128465.02, -187500.02, -187500.02, 0.000, 0.000, 0.000, 17:33:20.018
229, -14872.38, 18033.81, -187500.02, -187500.02, -187500.02, -127946.68, -187500.02, -187500.02, 0.000, 0.000, 0.000, 17:33:20.018
230, -14858.86, 17878.33, -187500.02, -187500.02, -187500.02, -127867.77, -187500.02, -187500.02, 0.000, 0.000, 0.000, 17:33:20.018
231, -14028.13, 18428.88, -187500.02, -187500.02, -187500.02, -128397.20, -187500.02, -187500.02, 0.000, 0.000, 0.000, 17:33:20.018
232, -13865.23, 18648.46, -187500.02, -187500.02, -187500.02, -128597.77, -187500.02, -187500.02, 0.000, 0.000, 0.000, 17:33:20.018
233, -14165.80, 18484.06, -187500.02, -187500.02, -187500.02, -128453.93, -187500.02, -187500.02, 0.000, 0.000, 0.000, 17:33:20.018
234, -14880.09, 18027.02, -187500.02, -187500.02, -187500.02, -127878.17, -187500.02, -187500.02, 0.000, 0.000, 0.000, 17:33:20.018
235, -14856.69, 17886.00, -187500.02, -187500.02, -187500.02, -127851.26, -187500.02, -187500.02, 0.000, 0.000, 0.000, 17:33:20.018
236, -14032.85, 18429.08, -187500.02, -187500.02, -187500.02, -128386.96, -187500.02, -187500.02, 0.000, 0.000, 0.000, 17:33:20.018
237, -13867.58, 18647.30, -187500.02, -187500.02, -187500.02, -128564.75, -187500.02, -187500.02, 0.004, -0.014, 1.026, 17:33:20.019
238, -14158.49, 18494.32, -187500.02, -187500.02, -187500.02, -128463.49, -187500.02, -187500.02, 0.000, 0.000, 0.000, 17:33:20.019
239, -14876.52, 18033.07, -187500.02, -187500.02, -187500.02, -127919.45, -187500.02, -187500.02, 0.000, 0.000, 0.000, 17:33:20.019
240, -14873.95, 17870.06, -187500.02, -187500.02, -187500.02, -127834.56, -187500.02, -187500.02, 0.000, 0.000, 0.000, 17:33:20.019
241, -14037.77, 18420.50, -187500.02, -187500.02, -187500.02, -128359.78, -187500.02, -187500.02, 0.000, 0.000, 0.000, 17:33:20.019
242, -13868.16, 18645.51, -187500.02, -187500.02, -187500.02, -128543.23, -187500.02, -187500.02, 0.000, 0.000, 0.000, 17:33:20.019
243, -14152.72, 18499.11, -187500.02, -187500.02, -187500.02, -128452.19, -187500.02, -187500.02, 0.000, 0.000, 0.000, 17:33:20.019
244, -14872.63, 18033.21, -187500.02, -187500.02, -187500.02, -127890.76, -187500.02, -187500.02, 0.000, 0.000, 0.000, 17:33:20.019
245, -14859.53, 17881.26, -187500.02, -187500.02, -187500.02, -127821.11, -187500.02, -187500.02, 0.000, 0.000, 0.000, 17:33:20.020
246, -14016.98, 18437.89, -187500.02, -187500.02, -187500.02, -128417.92, -187500.02, -187500.02, 0.000, 0.000, 0.000, 17:33:20.020
247, -13850.08, 18659.66, -187500.02, -187500.02, -187500.02, -128628.65, -187500.02, -187500.02, 0.000, -0.014, 1.034, 17:33:20.020
248, -14135.67, 18512.05, -187500.02, -187500.02, -187500.02, -128496.98, -187500.02, -187500.02, 0.000, 0.000, 0.000, 17:33:20.020
249, -14854.61, 18053.17, -187500.02, -187500.02, -187500.02, -127973.59, -187500.02, -187500.02, 0.000, 0.000, 0.000, 17:33:20.020
250, -14869.05, 17882.15, -187500.02, -187500.02, -187500.02, -127888.23, -187500.02, -187500.02, 0.000, 0.000, 0.000, 17:33:20.020
251, -14037.48, 18422.87, -187500.02, -187500.02, -187500.02, -128396.24, -187500.02, -187500.02, 0.000, 0.000, 0.000, 17:33:20.020
252, -13856.94, 18653.85, -187500.02, -187500.02, -187500.02, -128605.81, -187500.02, -187500.02, 0.000, 0.000, 0.000, 17:33:20.020
253, -14144.72, 18500.18, -187500.02, -187500.02, -187500.02, -128499.75, -187500.02, -187500.02, 0.000, 0.000, 0.000, 17:33:20.020
254, -14852.53, 18047.42, -187500.02, -187500.02, -187500.02, -127977.26, -187500.02, -187500.02, 0.000, 0.000, 0.000, 17:33:20.021
255, -14867.80, 17877.28, -187500.02, -187500.02, -187500.02, -127897.37, -187500.02, -187500.02, 0.000, 0.000, 0.000, 17:33:20.021
0, -14039.96, 18415.40, -187500.02, -187500.02, -187500.02, -128383.41, -187500.02, -187500.02, 0.000, 0.000, 0.000, 17:33:20.021
1, -13859.22, 18647.88, -187500.02, -187500.02, -187500.02, -128563.79, -187500.02, -187500.02, 0.002, -0.016, 1.034, 17:33:20.021
2, -14139.24, 18504.76, -187500.02, -187500.02, -187500.02, -128463.52, -187500.02, -187500.02, 0.000, 0.000, 0.000, 17:33:20.021
3, -14845.22, 18053.66, -187500.02, -187500.02, -187500.02, -127930.00, -187500.02, -187500.02, 0.000, 0.000, 0.000, 17:33:20.021
4, -14866.03, 17880.01, -187500.02, -187500.02, -187500.02, -127865.43, -187500.02, -187500.02, 0.000, 0.000, 0.000, 17:33:20.021
5, -14033.70, 18418.28, -187500.02, -187500.02, -187500.02, -128395.92, -187500.02, -187500.02, 0.000, 0.000, 0.000, 17:33:20.021
6, -13844.09, 18660.15, -187500.02, -187500.02, -187500.02, -128625.19, -187500.02, -187500.02, 0.000, 0.000, 0.000, 17:33:20.022
7, -14124.25, 18515.45, -187500.02, -187500.02, -187500.02, -128519.33, -187500.02, -187500.02, 0.000, 0.000, 0.000, 17:33:20.022
8, -14834.00, 18056.14, -187500.02, -187500.02, -187500.02, -127957.63, -187500.02, -187500.02, 0.000, 0.000, 0.000, 17:33:20.022
9, -14861.34, 17878.18, -187500.02, -187500.02, -187500.02, -127870.95, -187500.02, -187500.02, 0.000, 0.000, 0.000, 17:33:20.022
10, -14030.21, 18421.55, -187500.02, -187500.02, -187500.02, -128419.04, -187500.02, -187500.02, 0.000, 0.000, 0.000, 17:33:20.022
11, -13840.56, 18664.67, -187500.02, -187500.02, -187500.02, -128666.56, -187500.02, -187500.02, 0.002, -0.020, 1.028, 17:33:20.022
12, -14121.79, 18519.85, -187500.02, -187500.02, -187500.02, -128589.91, -187500.02, -187500.02, 0.000, 0.000, 0.000, 17:33:20.022
13, -14837.29, 18058.71, -187500.02, -187500.02, -187500.02, -128049.49, -187500.02, -187500.02, 0.000, 0.000, 0.000, 17:33:20.022
14, -14876.67, 17870.49, -187500.02, -187500.02, -187500.02, -127946.37, -187500.02, -187500.02, 0.000, 0.000, 0.000, 17:33:20.022
15, -14056.05, 18402.17, -187500.02, -187500.02, -187500.02, -128420.52, -187500.02, -187500.02, 0.000, 0.000, 0.000, 17:33:20.023
16, -13859.56, 18650.27, -187500.02, -187500.02, -187500.02, -128626.93, -187500.02, -187500.02, 0.000, 0.000, 0.000, 17:33:20.023
17, -14130.59, 18512.47, -187500.02, -187500.02, -187500.02, -128527.00, -187500.02, -187500.02, 0.000, 0.000, 0.000, 17:33:20.023
18, -14840.33, 18059.67, -187500.02, -187500.02, -187500.02, -127992.77, -187500.02, -187500.02, 0.000, 0.000, 0.000, 17:33:20.023
19, -14892.32, 17865.32, -187500.02, -187500.02, -187500.02, -127891.05, -187500.02, -187500.02, 0.000, 0.000, 0.000, 17:33:20.023
20, -14069.62, 18399.60, -187500.02, -187500.02, -187500.02, -128387.81, -187500.02, -187500.02, 0.000, 0.000, 0.000, 17:33:20.024
21, -13868.63, 18647.41, -187500.02, -187500.02, -187500.02, -128632.27, -187500.02, -187500.02, 0.006, -0.020, 1.030, 17:33:20.024
22, -14136.23, 18512.68, -187500.02, -187500.02, -187500.02, -128545.08, -187500.02, -187500.02, 0.000, 0.000, 0.000, 17:33:20.024
23, -14845.87, 18057.93, -187500.02, -187500.02, -187500.02, -127989.30, -187500.02, -187500.02, 0.000, 0.000, 0.000, 17:33:20.024
24, -14897.04, 17865.90, -187500.02, -187500.02, -187500.02, -127893.48, -187500.02, -187500.02, 0.000, 0.000, 0.000, 17:33:20.024
25, -14068.48, 18392.98, -187500.02, -187500.02, -187500.02, -128428.76, -187500.02, -187500.02, 0.000, 0.000, 0.000, 17:33:20.025
26, -13867.85, 18640.10, -187500.02, -187500.02, -187500.02, -128643.47, -187500.02, -187500.02, 0.000, 0.000, 0.000, 17:33:20.025
27, -14138.15, 18503.31, -187500.02, -187500.02, -187500.02, -128545.86, -187500.02, -187500.02, 0.000, 0.000, 0.000, 17:33:20.025
28, -14839.12, 18055.94, -187500.02, -187500.02, -187500.02, -128004.75, -187500.02, -187500.02, 0.000, 0.000, 0.000, 17:33:20.025
29, -14898.02, 17861.41, -187500.02, -187500.02, -187500.02, -127915.77, -187500.02, -187500.02, 0.000, 0.000, 0.000, 17:33:20.025
30, -14071.03, 18397.23, -187500.02, -187500.02, -187500.02, -128411.69, -187500.02, -187500.02, 0.000, 0.000, 0.000, 17:33:20.025
31, -13862.62, 18648.13, -187500.02, -187500.02, -187500.02, -128616.76, -187500.02, -187500.02, -0.002, -0.018, 1.038, 17:33:20.025
32, -14117.90, 18520.95, -187500.02, -187500.02, -187500.02, -128568.21, -187500.02, -187500.02, 0.000, 0.000, 0.000, 17:33:20.026
33, -14827.61, 18069.84, -187500.02, -187500.02, -187500.02, -128040.20, -187500.02, -187500.02, 0.000, 0.000, 0.000, 17:33:20.026
34, -14900.70, 17861.95, -187500.02, -187500.02, -187500.02, -127907.98, -187500.02, -187500.02, 0.000, 0.000, 0.000, 17:33:20.026
35, -14061.86, 18403.73, -187500.02, -187500.02, -187500.02, -128454.35, -187500.02, -187500.02, 0.000, 0.000, 0.000, 17:33:20.026
36, -13845.18, 18661.65, -187500.02, -187500.02, -187500.02, -128714.39, -187500.02, -187500.02, 0.000, 0.000, 0.000, 17:33:20.026
37, -14117.96, 18516.95, -187500.02, -187500.02, -187500.02, -128608.58, -187500.02, -187500.02, 0.000, 0.000, 0.000, 17:33:20.026
38, -14818.16, 18077.11, -187500.02, -187500.02, -187500.02, -128090.71, -187500.02, -187500.02, 0.000, 0.000, 0.000, 17:33:20.026
39, -14896.52, 17864.36, -187500.02, -187500.02, -187500.02, -127978.55, -187500.02, -187500.02, 0.000, 0.000, 0.000, 17:33:20.026
40, -14071.14, 18387.95, -187500.02, -187500.02, -187500.02, -128477.80, -187500.02, -187500.02, 0.000, 0.000, 0.000, 17:33:20.027
41, -13849.59, 18652.71, -187500.02, -187500.02, -187500.02, -128701.70, -187500.02, -187500.02, -0.004, -0.020, 1.032, 17:33:20.027
42, -14118.59, 18514.82, -187500.02, -187500.02, -187500.02, -128612.80, -187500.02, -187500.02, 0.000, 0.000, 0.000, 17:33:20.027
43, -14817.02, 18074.31, -187500.02, -187500.02, -187500.02, -128096.93, -187500.02, -187500.02, 0.000, 0.000, 0.000, 17:33:20.027
44, -14903.54, 17863.29, -187500.02, -187500.02, -187500.02, -127983.72, -187500.02, -187500.02, 0.000, 0.000, 0.000, 17:33:20.027
45, -14082.36, 18385.92, -187500.02, -187500.02, -187500.02, -128475.14, -187500.02, -187500.02, 0.000, 0.000, 0.000, 17:33:20.027
46, -13865.88, 18647.12, -187500.02, -187500.02, -187500.02, -128668.64, -187500.02, -187500.02, 0.000, 0.000, 0.000, 17:33:20.027
47, -14124.11, 18520.92, -187500.02, -187500.02, -187500.02, -128599.17, -187500.02, -187500.02, 0.000, 0.000, 0.000, 17:33:20.027
48, -14818.56, 18080.01, -187500.02, -187500.02, -187500.02, -128086.31, -187500.02, -187500.02, 0.000, 0.000, 0.000, 17:33:20.028
49, -14910.78, 17864.70, -187500.02, -187500.02, -187500.02, -127950.59, -187500.02, -187500.02, 0.000, 0.000, 0.000, 17:33:20.028
50, -14083.66, 18387.13, -187500.02, -187500.02, -187500.02, -128457.70, -187500.02, -187500.02, 0.000, -0.020, 1.030, 17:33:20.028
51, -13858.21, 18650.99, -187500.02, -187500.02, -187500.02, -128681.58, -187500.02, -187500.02, 0.000, 0.000, 0.000, 17:33:20.028
52, -14117.45, 18519.94, -187500.02, -187500.02, -187500.02, -128619.24, -187500.02, -187500.02, 0.000, 0.000, 0.000, 17:33:20.028
53, -14816.68, 18081.24, -187500.02, -187500.02, -187500.02, -128089.15, -187500.02, -187500.02, 0.000, 0.000, 0.000, 17:33:20.028
54, -14922.23, 17855.71, -187500.02, -187500.02, -187500.02, -127943.48, -187500.02, -187500.02, 0.000, 0.000, 0.000, 17:33:20.028
55, -14092.73, 18378.41, -187500.02, -187500.02, -187500.02, -128452.16, -187500.02, -187500.02, 0.000, 0.000, 0.000, 17:33:20.028
56, -13859.91, 18651.81, -187500.02, -187500.02, -187500.02, -128683.13, -187500.02, -187500.02, 0.000, 0.000, 0.000, 17:33:20.029
57, -14114.54, 18531.56, -187500.02, -187500.02, -187500.02, -128639.00, -187500.02, -187500.02, 0.000, 0.000, 0.000, 17:33:20.029
58, -14809.68, 18095.35, -187500.02, -187500.02, -187500.02, -128110.41, -187500.02, -187500.02, 0.000, 0.000, 0.000, 17:33:20.029
59, -14923.54, 17855.00, -187500.02, -187500.02, -187500.02, -127941.38, -187500.02, -187500.02, 0.000, 0.000, 0.000, 17:33:20.029
60, -14091.25, 18382.88, -187500.02, -187500.02, -187500.02, -128456.63, -187500.02, -187500.02, 0.002, -0.022, 1.032, 17:33:20.029
61, -13850.17, 18663.06, -187500.02, -187500.02, -187500.02, -128728.19, -187500.02, -187500.02, 0.000, 0.000, 0.000, 17:33:20.029
62, -14107.28, 18529.95, -187500.02, -187500.02, -187500.02, -128670.47, -187500.02, -187500.02, 0.000, 0.000, 0.000, 17:33:20.029
63, -14800.39, 18096.57, -187500.02, -187500.02, -187500.02, -128142.30, -187500.02, -187500.02, 0.000, 0.000, 0.000, 17:33:20.029
64, -14919.19, 17858.39, -187500.02, -187500.02, -187500.02, -127978.20, -187500.02, -187500.02, 0.000, 0.000, 0.000, 17:33:20.029
65, -14088.84, 18380.58, -187500.02, -187500.02, -187500.02, -128499.77, -187500.02, -187500.02, 0.000, 0.000, 0.000, 17:33:20.030
66, -13854.50, 18656.58, -187500.02, -187500.02, -187500.02, -128753.33, -187500.02, -187500.02, 0.000, 0.000, 0.000, 17:33:20.030
67, -14110.21, 18531.70, -187500.02, -187500.02, -187500.02, -128690.50, -187500.02, -187500.02, 0.000, 0.000, 0.000, 17:33:20.030
68, -14801.03, 18100.24, -187500.02, -187500.02, -187500.02, -128180.41, -187500.02, -187500.02, 0.000, 0.000, 0.000, 17:33:20.030
69, -14929.15, 17857.21, -187500.02, -187500.02, -187500.02, -128003.23, -187500.02, -187500.02, 0.000, 0.000, 0.000, 17:33:20.030
70, -14103.41, 18372.93, -187500.02, -187500.02, -187500.02, -128489.36, -187500.02, -187500.02, 0.000, -0.022, 1.026, 17:33:20.030
71, -13858.86, 18653.11, -187500.02, -187500.02, -187500.02, -128739.05, -187500.02, -187500.02, 0.000, 0.000, 0.000, 17:33:20.030
72, -14104.96, 18532.21, -187500.02, -187500.02, -187500.02, -128667.14, -187500.02, -187500.02, 0.000, 0.000, 0.000, 17:33:20.030
73, -14788.61, 18105.49, -187500.02, -187500.02, -187500.02, -128175.20, -187500.02, -187500.02, 0.000, 0.000, 0.000, 17:33:20.031
74, -14923.86, 17857.08, -187500.02, -187500.02, -187500.02, -127994.31, -187500.02, -187500.02, 0.000, 0.000, 0.000, 17:33:20.031
75, -14100.64, 18369.11, -187500.02, -187500.02, -187500.02, -128491.50, -187500.02, -187500.02, 0.000, 0.000, 0.000, 17:33:20.031
76, -13851.33, 18653.83, -187500.02, -187500.02, -187500.02, -128753.89, -187500.02, -187500.02, 0.000, 0.000, 0.000, 17:33:20.031
77, -14104.17, 18529.51, -187500.02, -187500.02, -187500.02, -128683.39, -187500.02, -187500.02, 0.000, 0.000, 0.000, 17:33:20.031
78, -14800.97, 18097.60, -187500.02, -187500.02, -187500.02, -128139.87, -187500.02, -187500.02, 0.000, 0.000, 0.000, 17:33:20.031
79, -14932.69, 17856.83, -187500.02, -187500.02, -187500.02, -127979.09, -187500.02, -187500.02, 0.000, 0.000, 0.000, 17:33:20.031
80, -14106.32, 18370.25, -187500.02, -187500.02, -187500.02, -128497.31, -187500.02, -187500.02, 0.002, -0.024, 1.032, 17:33:20.031
81, -13850.06, 18660.33, -187500.02, -187500.02, -187500.02, -128736.50, -187500.02, -187500.02, 0.000, 0.000, 0.000, 17:33:20.031
82, -14092.89, 18540.35, -187500.02, -187500.02, -187500.02, -128662.05, -187500.02, -187500.02, 0.000, 0.000, 0.000, 17:33:20.032
83, -14777.50, 18118.05, -187500.02, -187500.02, -187500.02, -128141.95, -187500.02, -187500.02, 0.000, 0.000, 0.000, 17:33:20.032
84, -14915.03, 17875.00, -187500.02, -187500.02, -187500.02, -128000.50, -187500.02, -187500.02, 0.000, 0.000, 0.000, 17:33:20.032
85, -14090.43, 18387.62, -187500.02, -187500.02, -187500.02, -128539.34, -187500.02, -187500.02, 0.000, 0.000, 0.000, 17:33:20.032
86, -13843.71, 18671.28, -187500.02, -187500.02, -187500.02, -128768.59, -187500.02, -187500.02, 0.000, 0.000, 0.000, 17:33:20.032
87, -14081.96, 18555.43, -187500.02, -187500.02, -187500.02, -128726.35, -187500.02, -187500.02, 0.000, 0.000, 0.000, 17:33:20.032
88, -14778.68, 18120.49, -187500.02, -187500.02, -187500.02, -128208.41, -187500.02, -187500.02, 0.000, 0.000, 0.000, 17:33:20.032
89, -14941.65, 17856.63, -187500.02, -187500.02, -187500.02, -128020.88, -187500.02, -187500.02, 0.000, 0.000, 0.000, 17:33:20.032
90, -14124.49, 18359.37, -187500.02, -187500.02, -187500.02, -128514.84, -187500.02, -187500.02, 0.002, -0.020, 1.034, 17:33:20.498
91, -13860.67, 18652.87, -187500.02, -187500.02, -187500.02, -128753.89, -187500.02, -187500.02, 0.000, 0.000, 0.000, 17:33:20.498
92, -14095.97, 18542.47, -187500.02, -187500.02, -187500.02, -128703.13, -187500.02, -187500.02, 0.000, 0.000, 0.000, 17:33:20.498
93, -14778.35, 18119.82, -187500.02, -187500.02, -187500.02, -128196.13, -187500.02, -187500.02, 0.000, 0.000, 0.000, 17:33:20.498
94, -14940.22, 17860.29, -187500.02, -187500.02, -187500.02, -127993.84, -187500.02, -187500.02, 0.000, 0.000, 0.000, 17:33:20.499
95, -14112.29, 18368.60, -187500.02, -187500.02, -187500.02, -128522.26, -187500.02, -187500.02, 0.000, 0.000, 0.000, 17:33:20.499
96, -13854.10, 18657.13, -187500.02, -187500.02, -187500.02, -128774.88, -187500.02, -187500.02, 0.000, 0.000, 0.000, 17:33:20.499
97, -14089.96, 18545.67, -187500.02, -187500.02, -187500.02, -128742.11, -187500.02, -187500.02, 0.000, 0.000, 0.000, 17:33:20.499
98, -14780.96, 18115.66, -187500.02, -187500.02, -187500.02, -128230.57, -187500.02, -187500.02, 0.000, 0.000, 0.000, 17:33:20.499
99, -14952.96, 17849.57, -187500.02, -187500.02, -187500.02, -128026.72, -187500.02, -187500.02, 0.000, 0.000, 0.000, 17:33:20.499
100, -14138.84, 18342.96, -187500.02, -187500.02, -187500.02, -128519.71, -187500.02, -187500.02, 0.006, -0.022, 1.040, 17:33:20.499
101, -13870.46, 18636.84, -187500.02, -187500.02, -187500.02, -128746.36, -187500.02, -187500.02, 0.000, 0.000, 0.000, 17:33:20.499
102, -14102.52, 18531.58, -187500.02, -187500.02, -187500.02, -128717.26, -187500.02, -187500.02, 0.000, 0.000, 0.000, 17:33:20.500
103, -14781.12, 18112.80, -187500.02, -187500.02, -187500.02, -128205.60, -187500.02, -187500.02, 0.000, 0.000, 0.000, 17:33:20.500
104, -14961.41, 17845.21, -187500.02, -187500.02, -187500.02, -127999.74, -187500.02, -187500.02, 0.000, 0.000, 0.000, 17:33:20.500
105, -14128.69, 18354.00, -187500.02, -187500.02, -187500.02, -128536.97, -187500.02, -187500.02, 0.000, 0.000, 0.000, 17:33:20.500
106, -13854.82, 18653.33, -187500.02, -187500.02, -187500.02, -128811.91, -187500.02, -187500.02, 0.000, 0.000, 0.000, 17:33:20.500
107, -14097.11, 18535.61, -187500.02, -187500.02, -187500.02, -128728.85, -187500.02, -187500.02, 0.000, 0.000, 0.000, 17:33:20.500
108, -14777.77, 18116.16, -187500.02, -187500.02, -187500.02, -128149.63, -187500.02, -187500.02, 0.000, 0.000, 0.000, 17:33:20.500
109, -14951.04, 17856.61, -187500.02, -187500.02, -187500.02, -127979.89, -187500.02, -187500.02, 0.000, 0.000, 0.000, 17:33:20.500
110, -14121.52, 18360.68, -187500.02, -187500.02, -187500.02, -128529.95, -187500.02, -187500.02, 0.002, -0.024, 1.036, 17:33:20.501
111, -13844.76, 18663.08, -187500.02, -187500.02, -187500.02, -128789.00, -187500.02, -187500.02, 0.000, 0.000, 0.000, 17:33:20.501
112, -14090.03, 18547.28, -187500.02, -187500.02, -187500.02, -128716.00, -187500.02, -187500.02, 0.000, 0.000, 0.000, 17:33:20.501
113, -14766.99, 18126.84, -187500.02, -187500.02, -187500.02, -128230.27, -187500.02, -187500.02, 0.000, 0.000, 0.000, 17:33:20.501
114, -14961.45, 17843.64, -187500.02, -187500.02, -187500.02, -128040.91, -187500.02, -187500.02, 0.000, 0.000, 0.000, 17:33:20.501
115, -14141.08, 18341.24, -187500.02, -187500.02, -187500.02, -128520.49, -187500.02, -187500.02, 0.000, 0.000, 0.000, 17:33:20.501
116, -13858.15, 18649.04, -187500.02, -187500.02, -187500.02, -128787.91, -187500.02, -187500.02, 0.000, 0.000, 0.000, 17:33:20.501
117, -14089.69, 18546.56, -187500.02, -187500.02, -187500.02, -128755.38, -187500.02, -187500.02, 0.000, 0.000, 0.000, 17:33:20.501
118, -14767.57, 18125.34, -187500.02, -187500.02, -187500.02, -128246.19, -187500.02, -187500.02, 0.000, 0.000, 0.000, 17:33:20.502
119, -14961.30, 17844.98, -187500.02, -187500.02, -187500.02, -128015.74, -187500.02, -187500.02, 0.000, 0.000, 0.000, 17:33:20.502
120, -14141.81, 18340.68, -187500.02, -187500.02, -187500.02, -128535.00, -187500.02, -187500.02, 0.008, -0.020, 1.032, 17:33:20.502
121, -13852.96, 18650.56, -187500.02, -187500.02, -187500.02, -128800.56, -187500.02, -187500.02, 0.000, 0.000, 0.000, 17:33:20.502
122, -14086.76, 18540.73, -187500.02, -187500.02, -187500.02, -128741.26, -187500.02, -187500.02, 0.000, 0.000, 0.000, 17:33:20.502
123, -14765.58, 18127.55, -187500.02, -187500.02, -187500.02, -128235.02, -187500.02, -187500.02, 0.000, 0.000, 0.000, 17:33:20.502
124, -14972.25, 17840.74, -187500.02, -187500.02, -187500.02, -128011.25, -187500.02, -187500.02, 0.000, 0.000, 0.000, 17:33:20.502
125, -14155.96, 18331.34, -187500.02, -187500.02, -187500.02, -128518.55, -187500.02, -187500.02, 0.000, 0.000, 0.000, 17:33:20.502
126, -13863.69, 18650.21, -187500.02, -187500.02, -187500.02, -128790.12, -187500.02, -187500.02, 0.000, 0.000, 0.000, 17:33:20.502
127, -14091.25, 18544.86, -187500.02, -187500.02, -187500.02, -128746.09, -187500.02, -187500.02, 0.000, 0.000, 0.000, 17:33:20.503
128, -14746.05, 18141.99, -187500.02, -187500.02, -187500.02, -128268.05, -187500.02, -187500.02, 0.000, 0.000, 0.000, 17:33:20.503
129, -14961.09, 17849.46, -187500.02, -187500.02, -187500.02, -128035.21, -187500.02, -187500.02, 0.000, 0.000, 0.000, 17:33:20.503
130, -14150.42, 18341.42, -187500.02, -187500.02, -187500.02, -128529.50, -187500.02, -187500.02, 0.002, -0.018, 1.036, 17:33:20.503
131, -13849.50, 18660.53, -187500.02, -187500.02, -187500.02, -128801.95, -187500.02, -187500.02, 0.000, 0.000, 0.000, 17:33:20.503
132, -14077.06, 18559.03, -187500.02, -187500.02, -187500.02, -128773.80, -187500.02, -187500.02, 0.000, 0.000, 0.000, 17:33:20.503
133, -14741.76, 18149.21, -187500.02, -187500.02, -187500.02, -128277.46, -187500.02, -187500.02, 0.000, 0.000, 0.000, 17:33:20.503
134, -14956.02, 17858.91, -187500.02, -187500.02, -187500.02, -128065.97, -187500.02, -187500.02, 0.000, 0.000, 0.000, 17:33:20.503
135, -14144.03, 18348.52, -187500.02, -187500.02, -187500.02, -128573.00, -187500.02, -187500.02, 0.000, 0.000, 0.000, 17:33:20.504
136, -13843.93, 18667.30, -187500.02, -187500.02, -187500.02, -128851.08, -187500.02, -187500.02, 0.000, 0.000, 0.000, 17:33:20.504
137, -14072.86, 18561.69, -187500.02, -187500.02, -187500.02, -128827.74, -187500.02, -187500.02, 0.000, 0.000, 0.000, 17:33:20.504
138, -14752.08, 18142.46, -187500.02, -187500.02, -187500.02, -128317.60, -187500.02, -187500.02, 0.000, 0.000, 0.000, 17:33:20.504
139, -14975.80, 17851.85, -187500.02, -187500.02, -187500.02, -128091.63, -187500.02, -187500.02, 0.000, 0.000, 0.000, 17:33:20.504
140, -14163.45, 18335.31, -187500.02, -187500.02, -187500.02, -128580.91, -187500.02, -187500.02, 0.006, -0.016, 1.034, 17:33:20.504
141, -13858.28, 18658.25, -187500.02, -187500.02, -187500.02, -128832.55, -187500.02, -187500.02, 0.000, 0.000, 0.000, 17:33:20.504
142, -14084.97, 18558.27, -187500.02, -187500.02, -187500.02, -128787.51, -187500.02, -187500.02, 0.000, 0.000, 0.000, 17:33:20.504
143, -14742.34, 18158.15, -187500.02, -187500.02, -187500.02, -128329.74, -187500.02, -187500.02, 0.000, 0.000, 0.000, 17:33:20.504
144, -14971.29, 17855.76, -187500.02, -187500.02, -187500.02, -128094.52, -187500.02, -187500.02, 0.000, 0.000, 0.000, 17:33:20.505
145, -14165.93, 18334.93, -187500.02, -187500.02, -187500.02, -128588.38, -187500.02, -187500.02, 0.000, 0.000, 0.000, 17:33:20.505
146, -13859.22, 18661.11, -187500.02, -187500.02, -187500.02, -128848.13, -187500.02, -187500.02, 0.000, 0.000, 0.000, 17:33:20.505
147, -14081.96, 18555.12, -187500.02, -187500.02, -187500.02, -128838.89, -187500.02, -187500.02, 0.000, 0.000, 0.000, 17:33:20.505
148, -14738.54, 18156.46, -187500.02, -187500.02, -187500.02, -128349.84, -187500.02, -187500.02, 0.000, 0.000, 0.000, 17:33:20.505
149, -14976.63, 17854.66, -187500.02, -187500.02, -187500.02, -128090.98, -187500.02, -187500.02, 0.000, 0.000, 0.000, 17:33:20.505
150, -14161.64, 18337.91, -187500.02, -187500.02, -187500.02, -128606.59, -187500.02, -187500.02, 0.002, -0.016, 1.034, 17:33:20.505
151, -13848.76, 18666.88, -187500.02, -187500.02, -187500.02, -128895.76, -187500.02, -187500.02, 0.000, 0.000, 0.000, 17:33:20.505
152, -14074.78, 18567.62, -187500.02, -187500.02, -187500.02, -128843.68, -187500.02, -187500.02, 0.000, 0.000, 0.000, 17:33:20.506
153, -14737.11, 18163.90, -187500.02, -187500.02, -187500.02, -128346.20, -187500.02, -187500.02, 0.000, 0.000, 0.000, 17:33:20.506
154, -14982.64, 17855.11, -187500.02, -187500.02, -187500.02, -128093.02, -187500.02, -187500.02, 0.000, 0.000, 0.000, 17:33:20.506
155, -14163.47, 18342.71, -187500.02, -187500.02, -187500.02, -128602.19, -187500.02, -187500.02, 0.000, 0.000, 0.000, 17:33:20.506
156, -13834.88, 18680.89, -187500.02, -187500.02, -187500.02, -128914.13, -187500.02, -187500.02, 0.000, 0.000, 0.000, 17:33:20.506
157, -14059.40, 18575.84, -187500.02, -187500.02, -187500.02, -128888.11, -187500.02, -187500.02, 0.000, 0.000, 0.000, 17:33:20.506
158, -14722.13, 18169.38, -187500.02, -187500.02, -187500.02, -128366.00, -187500.02, -187500.02, 0.000, 0.000, 0.000, 17:33:20.506
159, -14970.28, 17866.13, -187500.02, -187500.02, -187500.02, -128131.75, -187500.02, -187500.02, 0.000, 0.000, 0.000, 17:33:20.506
160, -14165.37, 18339.63, -187500.02, -187500.02, -187500.02, -128623.04, -187500.02, -187500.02, 0.006, -0.016, 1.030, 17:33:20.507
161, -13848.38, 18672.07, -187500.02, -187500.02, -187500.02, -128916.92, -187500.02, -187500.02, 0.000, 0.000, 0.000, 17:33:20.507
162, -14064.70, 18575.04, -187500.02, -187500.02, -187500.02, -128895.55, -187500.02, -187500.02, 0.000, 0.000, 0.000, 17:33:20.507
163, -14722.62, 18174.27, -187500.02, -187500.02, -187500.02, -128397.06, -187500.02, -187500.02, 0.000, 0.000, 0.000, 17:33:20.507
164, -14989.79, 17854.08, -187500.02, -187500.02, -187500.02, -128116.59, -187500.02, -187500.02, 0.000, 0.000, 0.000, 17:33:20.507
165, -14183.21, 18319.85, -187500.02, -187500.02, -187500.02, -128585.02, -187500.02, -187500.02, 0.000, 0.000, 0.000, 17:33:20.507
166, -13837.38, 18661.74, -187500.02, -187500.02, -187500.02, -128873.31, -187500.02, -187500.02, 0.000, 0.000, 0.000, 17:33:20.508
167, -14042.01, 18572.73, -187500.02, -187500.02, -187500.02, -128868.82, -187500.02, -187500.02, 0.000, 0.000, 0.000, 17:33:20.508
168, -14707.47, 18166.49, -187500.02, -187500.02, -187500.02, -128382.58, -187500.02, -187500.02, 0.000, 0.000, 0.000, 17:33:20.508
169, -14989.91, 17838.48, -187500.02, -187500.02, -187500.02, -128135.38, -187500.02, -187500.02, 0.004, -0.018, 1.026, 17:33:20.508
170, -14201.67, 18292.47, -187500.02, -187500.02, -187500.02, -128612.85, -187500.02, -187500.02, 0.000, 0.000, 0.000, 17:33:20.508
171, -13860.67, 18634.83, -187500.02, -187500.02, -187500.02, -128901.01, -187500.02, -187500.02, 0.000, 0.000, 0.000, 17:33:20.509
172, -14074.65, 18539.83, -187500.02, -187500.02, -187500.02, -128901.55, -187500.02, -187500.02, 0.000, 0.000, 0.000, 17:33:20.509
173, -14748.98, 18120.96, -187500.02, -187500.02, -187500.02, -128437.12, -187500.02, -187500.02, 0.000, 0.000, 0.000, 17:33:20.509
174, -15032.62, 17787.34, -187500.02, -187500.02, -187500.02, -128193.13, -187500.02, -187500.02, 0.000, 0.000, 0.000, 17:33:20.509
175, -14244.45, 18249.15, -187500.02, -187500.02, -187500.02, -128657.38, -187500.02, -187500.02, 0.000, 0.000, 0.000, 17:33:20.509
176, -13922.48, 18578.05, -187500.02, -187500.02, -187500.02, -128920.99, -187500.02, -187500.02, 0.000, 0.000, 0.000, 17:33:20.509
177, -14146.84, 18470.99, -187500.02, -187500.02, -187500.02, -128881.85, -187500.02, -187500.02, 0.000, 0.000, 0.000, 17:33:20.510
178, -14804.39, 18063.96, -187500.02, -187500.02, -187500.02, -128442.20, -187500.02, -187500.02, 0.000, 0.000, 0.000, 17:33:20.510
179, -15105.06, 17721.58, -187500.02, -187500.02, -187500.02, -128175.88, -187500.02, -187500.02, 0.002, -0.018, 1.030, 17:33:20.510
180, -14318.68, 18181.40, -187500.02, -187500.02, -187500.02, -128674.09, -187500.02, -187500.02, 0.000, 0.000, 0.000, 17:33:20.510
181, -13989.22, 18511.31, -187500.02, -187500.02, -187500.02, -128956.48, -187500.02, -187500.02, 0.000, 0.000, 0.000, 17:33:20.510
182, -14207.93, 18408.63, -187500.02, -187500.02, -187500.02, -128943.05, -187500.02, -187500.02, 0.000, 0.000, 0.000, 17:33:20.510
183, -14864.56, 18005.65, -187500.02, -187500.02, -187500.02, -128462.24, -187500.02, -187500.02, 0.000, 0.000, 0.000, 17:33:20.511
184, -15164.94, 17661.28, -187500.02, -187500.02, -187500.02, -128200.84, -187500.02, -187500.02, 0.000, 0.000, 0.000, 17:33:20.511
185, -14377.22, 18111.42, -187500.02, -187500.02, -187500.02, -128687.41, -187500.02, -187500.02, 0.000, 0.000, 0.000, 17:33:20.511
186, -14026.72, 18460.10, -187500.02, -187500.02, -187500.02, -128981.52, -187500.02, -187500.02, 0.000, 0.000, 0.000, 17:33:20.511
187, -14237.14, 18366.27, -187500.02, -187500.02, -187500.02, -128966.74, -187500.02, -187500.02, 0.000, 0.000, 0.000, 17:33:20.511
188, -14893.93, 17963.49, -187500.02, -187500.02, -187500.02, -128456.03, -187500.02, -187500.02, 0.000, 0.000, 0.000, 17:33:20.512
189, -15184.17, 17636.42, -187500.02, -187500.02, -187500.02, -128193.89, -187500.02, -187500.02, 0.004, -0.016, 1.030, 17:33:20.512
190, -14382.94, 18101.43, -187500.02, -187500.02, -187500.02, -128688.06, -187500.02, -187500.02, 0.000, 0.000, 0.000, 17:33:20.512
191, -14021.56, 18462.25, -187500.02, -187500.02, -187500.02, -129037.40, -187500.02, -187500.02, 0.000, 0.000, 0.000, 17:33:20.512
192, -14236.54, 18359.34, -187500.02, -187500.02, -187500.02, -129004.14, -187500.02, -187500.02, 0.000, 0.000, 0.000, 17:33:20.512
193, -14879.09, 17969.44, -187500.02, -187500.02, -187500.02, -128520.42, -187500.02, -187500.02, 0.000, 0.000, 0.000, 17:33:20.512
194, -15183.90, 17634.05, -187500.02, -187500.02, -187500.02, -128242.98, -187500.02, -187500.02, 0.000, 0.000, 0.000, 17:33:20.513
195, -14391.64, 18086.45, -187500.02, -187500.02, -187500.02, -128699.30, -187500.02, -187500.02, 0.000, 0.000, 0.000, 17:33:20.513
196, -14029.03, 18444.39, -187500.02, -187500.02, -187500.02, -128965.05, -187500.02, -187500.02, 0.000, 0.000, 0.000, 17:33:20.513
197, -14219.89, 18371.86, -187500.02, -187500.02, -187500.02, -128978.75, -187500.02, -187500.02, 0.000, 0.000, 0.000, 17:33:20.513
198, -14855.50, 17988.93, -187500.02, -187500.02, -187500.02, -128526.17, -187500.02, -187500.02, 0.000, 0.000, 0.000, 17:33:20.513
199, -15165.93, 17649.00, -187500.02, -187500.02, -187500.02, -128240.89, -187500.02, -187500.02, 0.006, -0.016, 1.024, 17:33:20.514
200, -14367.59, 18111.69, -187500.02, -187500.02, -187500.02, -128727.40, -187500.02, -187500.02, 0.000, 0.000, 0.000, 17:33:20.514
201, -14002.38, 18474.45, -187500.02, -187500.02, -187500.02, -129045.52, -187500.02, -187500.02, 0.000, 0.000, 0.000, 17:33:20.514
202, -14202.23, 18394.57, -187500.02, -187500.02, -187500.02, -129022.58, -187500.02, -187500.02, 0.000, 0.000, 0.000, 17:33:20.514
203, -14847.57, 18007.15, -187500.02, -187500.02, -187500.02, -128536.12, -187500.02, -187500.02, 0.000, 0.000, 0.000, 17:33:20.514
204, -15160.27, 17674.37, -187500.02, -187500.02, -187500.02, -128252.31, -187500.02, -187500.02, 0.000, 0.000, 0.000, 17:33:20.514
205, -14367.39, 18128.70, -187500.02, -187500.02, -187500.02, -128718.91, -187500.02, -187500.02, 0.000, 0.000, 0.000, 17:33:20.515
206, -13985.13, 18504.96, -187500.02, -187500.02, -187500.02, -129021.91, -187500.02, -187500.02, 0.000, 0.000, 0.000, 17:33:20.515
207, -14175.45, 18431.22, -187500.02, -187500.02, -187500.02, -129014.02, -187500.02, -187500.02, 0.000, 0.000, 0.000, 17:33:20.515
208, -14801.24, 18054.49, -187500.02, -187500.02, -187500.02, -128543.85, -187500.02, -187500.02, 0.000, 0.000, 0.000, 17:33:20.515
209, -15108.30, 17722.21, -187500.02, -187500.02, -187500.02, -128252.67, -187500.02, -187500.02, 0.006, -0.018, 1.030, 17:33:20.515
210, -14309.59, 18183.43, -187500.02, -187500.02, -187500.02, -128759.77, -187500.02, -187500.02, 0.000, 0.000, 0.000, 17:33:20.771
211, -13940.25, 18549.22, -187500.02, -187500.02, -187500.02, -129021.35, -187500.02, -187500.02, 0.000, 0.000, 0.000, 17:33:20.771
212, -14128.34, 18480.87, -187500.02, -187500.02, -187500.02, -129018.27, -187500.02, -187500.02, 0.000, 0.000, 0.000, 17:33:20.771
213, -14754.56, 18104.31, -187500.02, -187500.02, -187500.02, -128571.84, -187500.02, -187500.02, 0.000, 0.000, 0.000, 17:33:20.771
214, -15081.57, 17752.89, -187500.02, -187500.02, -187500.02, -128235.20, -187500.02, -187500.02, 0.000, 0.000, 0.000, 17:33:20.771
215, -14284.53, 18208.00, -187500.02, -187500.02, -187500.02, -128714.35, -187500.02, -187500.02, 0.000, 0.000, 0.000, 17:33:20.771
216, -13898.85, 18583.57, -187500.02, -187500.02, -187500.02, -129046.25, -187500.02, -187500.02, 0.000, 0.000, 0.000, 17:33:20.771
217, -14100.89, 18503.36, -187500.02, -187500.02, -187500.02, -129014.35, -187500.02, -187500.02, 0.000, 0.000, 0.000, 17:33:20.771
218, -14735.05, 18124.72, -187500.02, -187500.02, -187500.02, -128542.95, -187500.02, -187500.02, 0.000, 0.000, 0.000, 17:33:20.772
219, -15066.15, 17777.50, -187500.02, -187500.02, -187500.02, -128268.61, -187500.02, -187500.02, 0.002, -0.014, 1.034, 17:33:20.772
220, -14284.71, 18217.65, -187500.02, -187500.02, -187500.02, -128727.02, -187500.02, -187500.02, 0.000, 0.000, 0.000, 17:33:20.772
221, -13905.18, 18585.99, -187500.02, -187500.02, -187500.02, -129021.95, -187500.02, -187500.02, 0.000, 0.000, 0.000, 17:33:20.772
222, -14089.62, 18515.92, -187500.02, -187500.02, -187500.02, -129006.44, -187500.02, -187500.02, 0.000, 0.000, 0.000, 17:33:20.772
223, -14714.40, 18142.02, -187500.02, -187500.02, -187500.02, -128560.73, -187500.02, -187500.02, 0.000, 0.000, 0.000, 17:33:20.772
224, -15060.49, 17783.16, -187500.02, -187500.02, -187500.02, -128266.80, -187500.02, -187500.02, 0.000, 0.000, 0.000, 17:33:20.772
225, -14278.32, 18223.89, -187500.02, -187500.02, -187500.02, -128720.98, -187500.02, -187500.02, 0.000, 0.000, 0.000, 17:33:20.772
226, -13894.58, 18597.28, -187500.02, -187500.02, -187500.02, -128991.64, -187500.02, -187500.02, 0.000, 0.000, 0.000, 17:33:20.773
227, -14077.13, 18528.14, -187500.02, -187500.02, -187500.02, -128998.84, -187500.02, -187500.02, 0.000, 0.000, 0.000, 17:33:20.773
228, -14702.71, 18151.70, -187500.02, -187500.02, -187500.02, -128559.49, -187500.02, -187500.02, 0.000, 0.000, 0.000, 17:33:20.773
229, -15053.83, 17787.32, -187500.02, -187500.02, -187500.02, -128237.20, -187500.02, -187500.02, 0.008, -0.018, 1.038, 17:33:20.773
230, -14267.59, 18228.18, -187500.02, -187500.02, -187500.02, -128715.02, -187500.02, -187500.02, 0.000, 0.000, 0.000, 17:33:20.773
231, -13875.20, 18610.22, -187500.02, -187500.02, -187500.02, -129016.97, -187500.02, -187500.02, 0.000, 0.000, 0.000, 17:33:20.773
232, -14073.95, 18536.32, -187500.02, -187500.02, -187500.02, -129022.13, -187500.02, -187500.02, 0.000, 0.000, 0.000, 17:33:20.773
233, -14698.77, 18165.49, -187500.02, -187500.02, -187500.02, -128567.72, -187500.02, -187500.02, 0.000, 0.000, 0.000, 17:33:20.773
234, -15048.24, 17805.69, -187500.02, -187500.02, -187500.02, -128290.47, -187500.02, -187500.02, 0.000, 0.000, 0.000, 17:33:20.774
235, -14276.64, 18236.90, -187500.02, -187500.02, -187500.02, -128726.33, -187500.02, -187500.02, 0.000, 0.000, 0.000, 17:33:20.774
236, -13877.84, 18617.86, -187500.02, -187500.02, -187500.02, -129022.73, -187500.02, -187500.02, 0.000, 0.000, 0.000, 17:33:20.774
237, -14069.26, 18535.81, -187500.02, -187500.02, -187500.02, -128985.48, -187500.02, -187500.02, 0.000, 0.000, 0.000, 17:33:20.774
238, -14687.82, 18168.97, -187500.02, -187500.02, -187500.02, -128535.60, -187500.02, -187500.02, 0.000, 0.000, 0.000, 17:33:20.774
239, -15044.24, 17809.62, -187500.02, -187500.02, -187500.02, -128205.51, -187500.02, -187500.02, 0.004, -0.016, 1.030, 17:33:20.774
240, -14256.70, 18251.32, -187500.02, -187500.02, -187500.02, -128708.07, -187500.02, -187500.02, 0.000, 0.000, 0.000, 17:33:20.774
241, -13850.35, 18641.33, -187500.02, -187500.02, -187500.02, -129050.63, -187500.02, -187500.02, 0.000, 0.000, 0.000, 17:33:20.774
242, -14035.08, 18566.99, -187500.02, -187500.02, -187500.02, -129055.17, -187500.02, -187500.02, 0.000, 0.000, 0.000, 17:33:20.775
243, -14660.20, 18184.98, -187500.02, -187500.02, -187500.02, -128599.57, -187500.02, -187500.02, 0.000, 0.000, 0.000, 17:33:20.775
244, -15033.96, 17808.64, -187500.02, -187500.02, -187500.02, -128263.09, -187500.02, -187500.02, 0.000, 0.000, 0.000, 17:33:20.775
245, -14262.85, 18239.04, -187500.02, -187500.02, -187500.02, -128723.98, -187500.02, -187500.02, 0.000, 0.000, 0.000, 17:33:20.775
246, -13853.57, 18625.69, -187500.02, -187500.02, -187500.02, -129053.78, -187500.02, -187500.02, 0.000, 0.000, 0.000, 17:33:20.775
247, -14034.55, 18561.00, -187500.02, -187500.02, -187500.02, -129075.71, -187500.02, -187500.02, 0.000, 0.000, 0.000, 17:33:20.775
248, -14665.98, 18183.05, -187500.02, -187500.02, -187500.02, -128604.20, -187500.02, -187500.02, 0.000, 0.000, 0.000, 17:33:20.776
249, -15042.61, 17808.17, -187500.02, -187500.02, -187500.02, -128268.52, -187500.02, -187500.02, 0.006, -0.014, 1.028, 17:33:20.776
250, -14268.62, 18244.01, -187500.02, -187500.02, -187500.02, -128756.02, -187500.02, -187500.02, 0.000, 0.000, 0.000, 17:33:20.776
251, -13858.95, 18634.43, -187500.02, -187500.02, -187500.02, -129076.98, -187500.02, -187500.02, 0.000, 0.000, 0.000, 17:33:20.776
252, -14034.64, 18571.21, -187500.02, -187500.02, -187500.02, -129082.86, -187500.02, -187500.02, 0.000, 0.000, 0.000, 17:33:20.776
253, -14655.90, 18197.65, -187500.02, -187500.02, -187500.02, -128640.90, -187500.02, -187500.02, 0.000, 0.000, 0.000, 17:33:20.776
254, -15046.86, 17815.48, -187500.02, -187500.02, -187500.02, -128302.90, -187500.02, -187500.02, 0.000, 0.000, 0.000, 17:33:20.777
255, -14280.75, 18233.10, -187500.02, -187500.02, -187500.02, -128743.16, -187500.02, -187500.02, 0.000, 0.000, 0.000, 17:33:20.777
0, -13855.42, 18630.94, -187500.02, -187500.02, -187500.02, -129078.44, -187500.02, -187500.02, 0.000, 0.000, 0.000, 17:33:20.777
1, -14047.94, 18560.66, -187500.02, -187500.02, -187500.02, -129059.23, -187500.02, -187500.02, 0.000, 0.000, 0.000, 17:33:20.777
2, -14664.29, 18190.50, -187500.02, -187500.02, -187500.02, -128598.12, -187500.02, -187500.02, 0.000, 0.000, 0.000, 17:33:20.777
3, -15047.04, 17811.66, -187500.02, -187500.02, -187500.02, -128260.77, -187500.02, -187500.02, 0.004, -0.016, 1.028, 17:33:20.778
4, -14271.50, 18249.53, -187500.02, -187500.02, -187500.02, -128753.89, -187500.02, -187500.02, 0.000, 0.000, 0.000, 17:33:20.778
5, -13845.36, 18655.50, -187500.02, -187500.02, -187500.02, -129130.41, -187500.02, -187500.02, 0.000, 0.000, 0.000, 17:33:20.778
6, -14035.13, 18579.24, -187500.02, -187500.02, -187500.02, -129141.20, -187500.02, -187500.02, 0.000, 0.000, 0.000, 17:33:20.778
7, -14656.73, 18206.93, -187500.02, -187500.02, -187500.02, -128685.63, -187500.02, -187500.02, 0.000, 0.000, 0.000, 17:33:20.778
8, -15058.26, 17819.03, -187500.02, -187500.02, -187500.02, -128348.77, -187500.02, -187500.02, 0.000, 0.000, 0.000, 17:33:20.778
9, -14297.49, 18232.38, -187500.02, -187500.02, -187500.02, -128785.94, -187500.02, -187500.02, 0.000, 0.000, 0.000, 17:33:20.779
10, -13862.75, 18639.86, -187500.02, -187500.02, -187500.02, -129118.06, -187500.02, -187500.02, 0.000, 0.000, 0.000, 17:33:20.779
11, -14043.31, 18570.88, -187500.02, -187500.02, -187500.02, -129115.96, -187500.02, -187500.02, 0.000, 0.000, 0.000, 17:33:20.779
12, -14665.74, 18195.91, -187500.02, -187500.02, -187500.02, -128654.22, -187500.02, -187500.02, 0.000, 0.000, 0.000, 17:33:20.779
13, -15071.13, 17811.86, -187500.02, -187500.02, -187500.02, -128294.88, -187500.02, -187500.02, 0.002, -0.022, 1.024, 17:33:20.779
14, -14308.07, 18226.53, -187500.02, -187500.02, -187500.02, -128742.00, -187500.02, -187500.02, 0.000, 0.000, 0.000, 17:33:20.780
15, -13876.48, 18626.47, -187500.02, -187500.02, -187500.02, -129091.87, -187500.02, -187500.02, 0.000, 0.000, 0.000, 17:33:20.780
16, -14051.36, 18562.70, -187500.02, -187500.02, -187500.02, -129089.01, -187500.02, -187500.02, 0.000, 0.000, 0.000, 17:33:20.780
17, -14654.72, 18201.12, -187500.02, -187500.02, -187500.02, -128652.66, -187500.02, -187500.02, 0.000, 0.000, 0.000, 17:33:20.780
18, -15051.96, 17817.67, -187500.02, -187500.02, -187500.02, -128307.46, -187500.02, -187500.02, 0.000, 0.000, 0.000, 17:33:20.780
19, -14299.44, 18225.23, -187500.02, -187500.02, -187500.02, -128778.48, -187500.02, -187500.02, 0.000, 0.000, 0.000, 17:33:20.780
20, -13871.16, 18624.32, -187500.02, -187500.02, -187500.02, -129087.16, -187500.02, -187500.02, 0.000, 0.000, 0.000, 17:33:21.245
21, -14040.96, 18566.03, -187500.02, -187500.02, -187500.02, -129079.82, -187500.02, -187500.02, 0.000, 0.000, 0.000, 17:33:21.245
22, -14651.19, 18201.27, -187500.02, -187500.02, -187500.02, -128631.91, -187500.02, -187500.02, 0.000, 0.000, 0.000, 17:33:21.245
23, -15066.55, 17809.45, -187500.02, -187500.02, -187500.02, -128265.26, -187500.02, -187500.02, 0.002, -0.020, 1.024, 17:33:21.245
24, -14298.16, 18227.98, -187500.02, -187500.02, -187500.02, -128751.16, -187500.02, -187500.02, 0.000, 0.000, 0.000, 17:33:21.245
25, -13848.49, 18643.72, -187500.02, -187500.02, -187500.02, -129118.73, -187500.02, -187500.02, 0.000, 0.000, 0.000, 17:33:21.245
26, -14024.96, 18582.32, -187500.02, -187500.02, -187500.02, -129118.73, -187500.02, -187500.02, 0.000, 0.000, 0.000, 17:33:21.245
27, -14631.92, 18215.87, -187500.02, -187500.02, -187500.02, -128696.49, -187500.02, -187500.02, 0.000, 0.000, 0.000, 17:33:21.245
28, -15056.38, 17815.37, -187500.02, -187500.02, -187500.02, -128345.97, -187500.02, -187500.02, 0.000, 0.000, 0.000, 17:33:21.246
29, -14306.19, 18221.70, -187500.02, -187500.02, -187500.02, -128795.98, -187500.02, -187500.02, 0.000, 0.000, 0.000, 17:33:21.246
30, -13863.98, 18633.29, -187500.02, -187500.02, -187500.02, -129138.32, -187500.02, -187500.02, 0.000, 0.000, 0.000, 17:33:21.246
31, -14034.12, 18575.86, -187500.02, -187500.02, -187500.02, -129126.54, -187500.02, -187500.02, 0.000, 0.000, 0.000, 17:33:21.246
32, -14635.23, 18217.88, -187500.02, -187500.02, -187500.02, -128680.38, -187500.02, -187500.02, 0.000, 0.000, 0.000, 17:33:21.246
33, -15066.95, 17811.50, -187500.02, -187500.02, -187500.02, -128309.63, -187500.02, -187500.02, 0.000, -0.018, 1.032, 17:33:21.246
34, -14316.67, 18215.33, -187500.02, -187500.02, -187500.02, -128771.91, -187500.02, -187500.02, 0.000, 0.000, 0.000, 17:33:21.246
35, -13868.88, 18625.95, -187500.02, -187500.02, -187500.02, -129101.13, -187500.02, -187500.02, 0.000, 0.000, 0.000, 17:33:21.246
36, -14031.93, 18575.28, -187500.02, -187500.02, -187500.02, -129110.06, -187500.02, -187500.02, 0.000, 0.000, 0.000, 17:33:21.246
37, -14638.34, 18209.47, -187500.02, -187500.02, -187500.02, -128664.52, -187500.02, -187500.02, 0.000, 0.000, 0.000, 17:33:21.247
38, -15062.77, 17815.03, -187500.02, -187500.02, -187500.02, -128299.92, -187500.02, -187500.02, 0.000, 0.000, 0.000, 17:33:21.247
39, -14319.29, 18213.21, -187500.02, -187500.02, -187500.02, -128758.60, -187500.02, -187500.02, 0.000, 0.000, 0.000, 17:33:21.247
40, -13865.14, 18626.54, -187500.02, -187500.02, -187500.02, -129093.14, -187500.02, -187500.02, 0.000, 0.000, 0.000, 17:33:21.247
41, -14023.42, 18579.26, -187500.02, -187500.02, -187500.02, -129119.48, -187500.02, -187500.02, 0.000, 0.000, 0.000, 17:33:21.247
42, -14614.40, 18230.39, -187500.02, -187500.02, -187500.02, -128702.70, -187500.02, -187500.02, 0.002, -0.020, 1.034, 17:33:21.247
43, -15061.68, 17819.82, -187500.02, -187500.02, -187500.02, -128312.91, -187500.02, -187500.02, 0.000, 0.000, 0.000, 17:33:21.247
44, -14326.82, 18209.68, -187500.02, -187500.02, -187500.02, -128751.61, -187500.02, -187500.02, 0.000, 0.000, 0.000, 17:33:21.247
45, -13858.13, 18636.21, -187500.02, -187500.02, -187500.02, -129111.49, -187500.02, -187500.02, 0.000, 0.000, 0.000, 17:33:21.248
46, -14013.40, 18593.23, -187500.02, -187500.02, -187500.02, -129135.03, -187500.02, -187500.02, 0.000, 0.000, 0.000, 17:33:21.248
47, -14604.16, 18240.90, -187500.02, -187500.02, -187500.02, -128719.67, -187500.02, -187500.02, 0.000, 0.000, 0.000, 17:33:21.248
48, -15060.18, 17819.77, -187500.02, -187500.02, -187500.02, -128360.92, -187500.02, -187500.02, 0.000, 0.000, 0.000, 17:33:21.248
49, -14332.18, 18202.68, -187500.02, -187500.02, -187500.02, -128826.64, -187500.02, -187500.02, 0.000, 0.000, 0.000, 17:33:21.248
50, -13859.31, 18630.92, -187500.02, -187500.02, -187500.02, -129175.78, -187500.02, -187500.02, 0.000, 0.000, 0.000, 17:33:21.248
51, -14033.07, 18572.76, -187500.02, -187500.02, -187500.02, -129169.85, -187500.02, -187500.02, 0.000, 0.000, 0.000, 17:33:21.248
52, -14620.45, 18227.27, -187500.02, -187500.02, -187500.02, -128740.37, -187500.02, -187500.02, 0.006, -0.020, 1.028, 17:33:21.248
53, -15077.10, 17809.82, -187500.02, -187500.02, -187500.02, -128324.83, -187500.02, -187500.02, 0.000, 0.000, 0.000, 17:33:21.248
54, -14342.22, 18197.27, -187500.02, -187500.02, -187500.02, -128767.81, -187500.02, -187500.02, 0.000, 0.000, 0.000, 17:33:21.249
55, -13862.75, 18628.57, -187500.02, -187500.02, -187500.02, -129130.52, -187500.02, -187500.02, 0.000, 0.000, 0.000, 17:33:21.249
56, -14015.66, 18585.47, -187500.02, -187500.02, -187500.02, -129156.80, -187500.02, -187500.02, 0.000, 0.000, 0.000, 17:33:21.249
57, -14601.92, 18244.68, -187500.02, -187500.02, -187500.02, -128757.47, -187500.02, -187500.02, 0.000, 0.000, 0.000, 17:33:21.249
58, -15057.77, 17827.39, -187500.02, -187500.02, -187500.02, -128390.34, -187500.02, -187500.02, 0.000, 0.000, 0.000, 17:33:21.249
59, -14343.94, 18188.20, -187500.02, -187500.02, -187500.02, -128780.55, -187500.02, -187500.02, 0.000, 0.000, 0.000, 17:33:21.249
60, -13869.30, 18621.37, -187500.02, -187500.02, -187500.02, -129118.65, -187500.02, -187500.02, 0.000, 0.000, 0.000, 17:33:21.249
61, -14028.20, 18575.33, -187500.02, -187500.02, -187500.02, -129166.13, -187500.02, -187500.02, 0.000, 0.000, 0.000, 17:33:21.249
62, -14613.12, 18230.64, -187500.02, -187500.02, -187500.02, -128766.02, -187500.02, -187500.02, 0.006, -0.020, 1.026, 17:33:21.250
63, -15071.47, 17815.64, -187500.02, -187500.02, -187500.02, -128379.74, -187500.02, -187500.02, 0.000, 0.000, 0.000, 17:33:21.250
64, -14351.81, 18183.50, -187500.02, -187500.02, -187500.02, -128804.91, -187500.02, -187500.02, 0.000, 0.000, 0.000, 17:33:21.250
65, -13885.13, 18603.83, -187500.02, -187500.02, -187500.02, -129140.48, -187500.02, -187500.02, 0.000, 0.000, 0.000, 17:33:21.250
66, -14034.75, 18568.67, -187500.02, -187500.02, -187500.02, -129170.33, -187500.02, -187500.02, 0.000, 0.000, 0.000, 17:33:21.250
67, -14606.73, 18234.33, -187500.02, -187500.02, -187500.02, -128778.09, -187500.02, -187500.02, 0.000, 0.000, 0.000, 17:33:21.250
68, -15082.76, 17807.95, -187500.02, -187500.02, -187500.02, -128335.46, -187500.02, -187500.02, 0.000, 0.000, 0.000, 17:33:21.250
69, -14356.91, 18183.01, -187500.02, -187500.02, -187500.02, -128772.22, -187500.02, -187500.02, 0.000, 0.000, 0.000, 17:33:21.250
70, -13865.14, 18626.67, -187500.02, -187500.02, -187500.02, -129151.17, -187500.02, -187500.02, 0.000, 0.000, 0.000, 17:33:21.250
71, -14015.17, 18587.69, -187500.02, -187500.02, -187500.02, -129178.41, -187500.02, -187500.02, 0.000, 0.000, 0.000, 17:33:21.251
72, -14593.61, 18248.14, -187500.02, -187500.02, -187500.02, -128789.43, -187500.02, -187500.02, 0.006, -0.016, 1.026, 17:33:21.251
73, -15075.40, 17817.20, -187500.02, -187500.02, -187500.02, -128398.01, -187500.02, -187500.02, 0.000, 0.000, 0.000, 17:33:21.251
74, -14367.52, 18174.81, -187500.02, -187500.02, -187500.02, -128809.43, -187500.02, -187500.02, 0.000, 0.000, 0.000, 17:33:21.252
75, -13872.81, 18616.12, -187500.02, -187500.02, -187500.02, -129161.49, -187500.02, -187500.02, 0.000, 0.000, 0.000, 17:33:21.253
76, -14016.78, 18581.99, -187500.02, -187500.02, -187500.02, -129205.80, -187500.02, -187500.02, 0.000, 0.000, 0.000, 17:33:21.253
77, -14594.48, 18237.44, -187500.02, -187500.02, -187500.02, -128809.77, -187500.02, -187500.02, 0.000, 0.000, 0.000, 17:33:21.253
78, -15075.11, 17811.84, -187500.02, -187500.02, -187500.02, -128384.15, -187500.02, -187500.02, 0.000, 0.000, 0.000, 17:33:21.253
79, -14365.71, 18173.55, -187500.02, -187500.02, -187500.02, -128796.94, -187500.02, -187500.02, 0.000, 0.000, 0.000, 17:33:21.253
80, -13873.55, 18613.32, -187500.02, -187500.02, -187500.02, -129156.73, -187500.02, -187500.02, 0.000, 0.000, 0.000, 17:33:21.253
81, -14020.13, 18581.27, -187500.02, -187500.02, -187500.02, -129170.52, -187500.02, -187500.02, 0.000, 0.000, 0.000, 17:33:21.253
82, -14587.66, 18248.05, -187500.02, -187500.02, -187500.02, -128776.53, -187500.02, -187500.02, 0.004, -0.014, 1.024, 17:33:21.253
83, -15072.05, 17823.86, -187500.02, -187500.02, -187500.02, -128403.70, -187500.02, -187500.02, 0.000, 0.000, 0.000, 17:33:21.254
84, -14369.13, 18175.28, -187500.02, -187500.02, -187500.02, -128822.11, -187500.02, -187500.02, 0.000, 0.000, 0.000, 17:33:21.254
85, -13869.32, 18619.18, -187500.02, -187500.02, -187500.02, -129146.95, -187500.02, -187500.02, 0.000, 0.000, 0.000, 17:33:21.254
86, -14014.92, 18581.21, -187500.02, -187500.02, -187500.02, -129149.36, -187500.02, -187500.02, 0.000, 0.000, 0.000, 17:33:21.254
87, -14580.44, 18251.21, -187500.02, -187500.02, -187500.02, -128800.56, -187500.02, -187500.02, 0.000, 0.000, 0.000, 17:33:21.254
88, -15079.67, 17812.15, -187500.02, -187500.02, -187500.02, -128399.95, -187500.02, -187500.02, 0.000, 0.000, 0.000, 17:33:21.254
89, -14374.67, 18169.84, -187500.02, -187500.02, -187500.02, -128815.16, -187500.02, -187500.02, 0.000, 0.000, 0.000, 17:33:21.254
90, -13867.09, 18616.21, -187500.02, -187500.02, -187500.02, -129190.87, -187500.02, -187500.02, 0.000, 0.000, 0.000, 17:33:21.254
91, -14005.78, 18585.90, -187500.02, -187500.02, -187500.02, -129236.98, -187500.02, -187500.02, 0.000, 0.000, 0.000, 17:33:21.254
92, -14574.88, 18256.66, -187500.02, -187500.02, -187500.02, -128855.70, -187500.02, -187500.02, 0.002, -0.016, 1.028, 17:33:21.255
93, -15077.50, 17820.49, -187500.02, -187500.02, -187500.02, -128424.65, -187500.02, -187500.02, 0.000, 0.000, 0.000, 17:33:21.255
94, -14373.78, 18173.51, -187500.02, -187500.02, -187500.02, -128852.41, -187500.02, -187500.02, 0.000, 0.000, 0.000, 17:33:21.255
95, -13862.31, 18620.66, -187500.02, -187500.02, -187500.02, -129245.07, -187500.02, -187500.02, 0.000, 0.000, 0.000, 17:33:21.255
96, -14009.40, 18581.18, -187500.02, -187500.02, -187500.02, -129253.30, -187500.02, -187500.02, 0.000, 0.000, 0.000, 17:33:21.255
97, -14575.04, 18250.33, -187500.02, -187500.02, -187500.02, -128835.34, -187500.02, -187500.02, 0.000, 0.000, 0.000, 17:33:21.255
98, -15081.03, 17815.21, -187500.02, -187500.02, -187500.02, -128415.69, -187500.02, -187500.02, 0.000, 0.000, 0.000, 17:33:21.255
99, -14385.69, 18167.23, -187500.02, -187500.02, -187500.02, -128831.77, -187500.02, -187500.02, 0.000, 0.000, 0.000, 17:33:21.255
100, -13878.58, 18612.88, -187500.02, -187500.02, -187500.02, -129200.25, -187500.02, -187500.02, 0.000, 0.000, 0.000, 17:33:21.256
101, -14012.17, 18589.43, -187500.02, -187500.02, -187500.02, -129237.80, -187500.02, -187500.02, 0.000, 0.000, 0.000, 17:33:21.256
102, -14574.88, 18258.78, -187500.02, -187500.02, -187500.02, -128868.22, -187500.02, -187500.02, 0.004, -0.016, 1.032, 17:33:21.256
103, -15084.25, 17821.02, -187500.02, -187500.02, -187500.02, -128463.80, -187500.02, -187500.02, 0.000, 0.000, 0.000, 17:33:21.256
104, -14391.15, 18165.84, -187500.02, -187500.02, -187500.02, -128875.77, -187500.02, -187500.02, 0.000, 0.000, 0.000, 17:33:21.256
105, -13875.87, 18615.02, -187500.02, -187500.02, -187500.02, -129252.18, -187500.02, -187500.02, 0.000, 0.000, 0.000, 17:33:21.256
106, -14016.15, 18581.94, -187500.02, -187500.02, -187500.02, -129284.25, -187500.02, -187500.02, 0.000, 0.000, 0.000, 17:33:21.256
107, -14575.26, 18250.73, -187500.02, -187500.02, -187500.02, -128883.13, -187500.02, -187500.02, 0.000, 0.000, 0.000, 17:33:21.256
108, -15077.41, 17823.48, -187500.02, -187500.02, -187500.02, -128447.67, -187500.02, -187500.02, 0.000, 0.000, 0.000, 17:33:21.256
109, -14393.90, 18164.30, -187500.02, -187500.02, -187500.02, -128858.20, -187500.02, -187500.02, 0.000, 0.000, 0.000, 17:33:21.257
110, -13869.57, 18623.63, -187500.02, -187500.02, -187500.02, -129226.34, -187500.02, -187500.02, 0.000, 0.000, 0.000, 17:33:21.257
111, -14008.60, 18593.19, -187500.02, -187500.02, -187500.02, -129251.10, -187500.02, -187500.02, 0.000, 0.000, 0.000, 17:33:21.257
112, -14552.93, 18276.35, -187500.02, -187500.02, -187500.02, -128894.59, -187500.02, -187500.02, 0.006, -0.016, 1.028, 17:33:21.257
113, -15078.69, 17831.57, -187500.02, -187500.02, -187500.02, -128482.52, -187500.02, -187500.02, 0.000, 0.000, 0.000, 17:33:21.257
114, -14403.93, 18160.32, -187500.02, -187500.02, -187500.02, -128866.50, -187500.02, -187500.02, 0.000, 0.000, 0.000, 17:33:21.257
115, -13879.20, 18613.44, -187500.02, -187500.02, -187500.02, -129227.19, -187500.02, -187500.02, 0.000, 0.000, 0.000, 17:33:21.257
116, -14007.88, 18593.70, -187500.02, -187500.02, -187500.02, -129257.25, -187500.02, -187500.02, 0.000, 0.000, 0.000, 17:33:21.257
117, -14558.12, 18270.79, -187500.02, -187500.02, -187500.02, -128882.45, -187500.02, -187500.02, 0.000, 0.000, 0.000, 17:33:21.258
118, -15076.63, 17832.09, -187500.02, -187500.02, -187500.02, -128456.50, -187500.02, -187500.02, 0.000, 0.000, 0.000, 17:33:21.258
119, -14407.08, 18159.76, -187500.02, -187500.02, -187500.02, -128827.70, -187500.02, -187500.02, 0.000, 0.000, 0.000, 17:33:21.258
120, -13869.86, 18626.74, -187500.02, -187500.02, -187500.02, -129218.38, -187500.02, -187500.02, 0.000, 0.000, 0.000, 17:33:21.258
121, -14003.70, 18597.61, -187500.02, -187500.02, -187500.02, -129277.21, -187500.02, -187500.02, 0.000, 0.000, 0.000, 17:33:21.258
122, -14551.75, 18273.76, -187500.02, -187500.02, -187500.02, -128912.16, -187500.02, -187500.02, 0.002, -0.012, 1.024, 17:33:21.258
123, -15080.86, 17828.11, -187500.02, -187500.02, -187500.02, -128468.08, -187500.02, -187500.02, 0.000, 0.000, 0.000, 17:33:21.258
124, -14402.08, 18162.18, -187500.02, -187500.02, -187500.02, -128861.11, -187500.02, -187500.02, 0.000, 0.000, 0.000, 17:33:21.259
125, -13862.39, 18626.85, -187500.02, -187500.02, -187500.02, -129278.51, -187500.02, -187500.02, 0.000, 0.000, 0.000, 17:33:21.259
126, -13994.29, 18602.66, -187500.02, -187500.02, -187500.02, -129318.90, -187500.02, -187500.02, 0.000, 0.000, 0.000, 17:33:21.259
127, -14544.97, 18279.08, -187500.02, -187500.02, -187500.02, -128942.38, -187500.02, -187500.02, 0.000, 0.000, 0.000, 17:33:21.259
128, -15085.68, 17827.33, -187500.02, -187500.02, -187500.02, -128498.95, -187500.02, -187500.02, 0.000, 0.000, 0.000, 17:33:21.259
129, -14425.39, 18145.66, -187500.02, -187500.02, -187500.02, -128872.27, -187500.02, -187500.02, 0.000, 0.000, 0.000, 17:33:21.259
130, -13873.88, 18615.43, -187500.02, -187500.02, -187500.02, -129262.46, -187500.02, -187500.02, 0.000, 0.000, 0.000, 17:33:21.260
131, -14003.88, 18586.71, -187500.02, -187500.02, -187500.02, -129280.67, -187500.02, -187500.02, 0.000, 0.000, 0.000, 17:33:21.260
132, -14542.54, 18274.74, -187500.02, -187500.02, -187500.02, -128908.07, -187500.02, -187500.02, -0.002, -0.018, 1.030, 17:33:21.260
133, -15086.73, 17820.78, -187500.02, -187500.02, -187500.02, -128465.35, -187500.02, -187500.02, 0.000, 0.000, 0.000, 17:33:21.260
134, -14427.63, 18138.08, -187500.02, -187500.02, -187500.02, -128822.24, -187500.02, -187500.02, 0.000, 0.000, 0.000, 17:33:21.260
135, -13873.33, 18611.18, -187500.02, -187500.02, -187500.02, -129206.18, -187500.02, -187500.02, 0.000, 0.000, 0.000, 17:33:21.260
136, -13994.40, 18595.71, -187500.02, -187500.02, -187500.02, -129258.21, -187500.02, -187500.02, 0.000, 0.000, 0.000, 17:33:21.261
137, -14541.51, 18279.44, -187500.02, -187500.02, -187500.02, -128885.43, -187500.02, -187500.02, 0.000, 0.000, 0.000, 17:33:21.261
138, -15081.26, 17831.86, -187500.02, -187500.02, -187500.02, -128446.33, -187500.02, -187500.02, 0.000, 0.000, 0.000, 17:33:21.261
139, -14424.41, 18139.18, -187500.02, -187500.02, -187500.02, -128830.45, -187500.02, -187500.02, 0.000, 0.000, 0.000, 17:33:21.261
140, -13877.59, 18604.99, -187500.02, -187500.02, -187500.02, -129206.02, -187500.02, -187500.02, 0.000, 0.000, 0.000, 17:33:21.725
141, -13993.29, 18597.41, -187500.02, -187500.02, -187500.02, -129270.04, -187500.02, -187500.02, 0.000, 0.000, 0.000, 17:33:21.725
