%OpenBCI Raw EEG Data
%
%Sample Rate = 250.0 Hz
%First Column = SampleIndex
%Last Column = Timestamp 
%Other Columns = EEG data in microvolts followed by Accel Data (in G) interleaved with Aux Data
0, 45899.15, 67409.33, -187500.02, -187500.02, -143864.92, -187500.02, -187500.02, -187500.02, 0.022, -0.012, 0.564, 17:55:24.855
1, 46205.10, 67469.88, -187500.02, -187500.02, -143913.22, -187500.02, -187500.02, -187500.02, 0.000, 0.000, 0.000, 17:55:24.856
2, 46140.39, 66993.16, -187500.02, -187500.02, -143785.58, -187500.02, -187500.02, -187500.02, 0.000, 0.000, 0.000, 17:55:24.856
3, 45726.86, 66166.66, -187500.02, -187500.02, -143651.28, -187500.02, -187500.02, -187500.02, 0.000, 0.000, 0.000, 17:55:24.856
4, 45388.64, 66543.69, -187500.02, -187500.02, -143851.55, -187500.02, -187500.02, -187500.02, 0.000, 0.000, 0.000, 17:55:24.856
5, 45904.74, 67417.53, -187500.02, -187500.02, -144029.66, -187500.02, -187500.02, -187500.02, 0.000, 0.000, 0.000, 17:55:24.857
6, 46222.15, 67485.70, -187500.02, -187500.02, -144063.83, -187500.02, -187500.02, -187500.02, 0.000, 0.000, 0.000, 17:55:24.857
7, 46152.35, 67007.71, -187500.02, -187500.02, -143943.94, -187500.02, -187500.02, -187500.02, 0.008, -0.004, 0.976, 17:55:24.857
8, 45728.79, 66167.62, -187500.02, -187500.02, -143799.45, -187500.02, -187500.02, -187500.02, 0.000, 0.000, 0.000, 17:55:24.857
9, 45372.36, 66519.51, -187500.02, -187500.02, -143894.77, -187500.02, -187500.02, -187500.02, 0.000, 0.000, 0.000, 17:55:24.857
10, 45888.64, 67399.31, -187500.02, -187500.02, -144006.34, -187500.02, -187500.02, -187500.02, 0.000, 0.000, 0.000, 17:55:24.857
11, 46212.34, 67477.63, -187500.02, -187500.02, -144026.14, -187500.02, -187500.02, -187500.02, 0.000, 0.000, 0.000, 17:55:24.858
12, 46145.73, 67005.99, -187500.02, -187500.02, -143952.77, -187500.02, -187500.02, -187500.02, 0.000, 0.000, 0.000, 17:55:24.858
13, 45737.12, 66180.95, -187500.02, -187500.02, -143847.70, -187500.02, -187500.02, -187500.02, 0.000, 0.000, 0.000, 17:55:24.858
14, 45396.57, 66544.77, -187500.02, -187500.02, -144051.78, -187500.02, -187500.02, -187500.02, 0.000, 0.000, 0.000, 17:55:24.858
15, 45910.32, 67425.35, -187500.02, -187500.02, -144230.02, -187500.02, -187500.02, -187500.02, 0.000, 0.000, 0.000, 17:55:24.858
16, 46232.66, 67498.20, -187500.02, -187500.02, -144267.83, -187500.02, -187500.02, -187500.02, 0.000, 0.000, 0.000, 17:55:24.858
17, 46164.96, 67028.86, -187500.02, -187500.02, -144168.08, -187500.02, -187500.02, -187500.02, 0.008, -0.008, 1.000, 17:55:24.859
18, 45752.43, 66191.05, -187500.02, -187500.02, -144053.28, -187500.02, -187500.02, -187500.02, 0.000, 0.000, 0.000, 17:55:24.859
19, 45408.68, 66543.47, -187500.02, -187500.02, -144238.31, -187500.02, -187500.02, -187500.02, 0.000, 0.000, 0.000, 17:55:24.859
20, 45919.18, 67430.77, -187500.02, -187500.02, -144411.73, -187500.02, -187500.02, -187500.02, 0.000, 0.000, 0.000, 17:55:24.859
21, 46237.44, 67505.82, -187500.02, -187500.02, -144437.30, -187500.02, -187500.02, -187500.02, 0.000, 0.000, 0.000, 17:55:24.859
22, 46157.31, 67017.88, -187500.02, -187500.02, -144276.95, -187500.02, -187500.02, -187500.02, 0.000, 0.000, 0.000, 17:55:24.860
23, 45747.29, 66180.97, -187500.02, -187500.02, -144121.66, -187500.02, -187500.02, -187500.02, 0.000, 0.000, 0.000, 17:55:24.860
24, 45403.41, 66537.77, -187500.02, -187500.02, -144328.92, -187500.02, -187500.02, -187500.02, 0.000, 0.000, 0.000, 17:55:24.860
25, 45909.61, 67427.08, -187500.02, -187500.02, -144505.78, -187500.02, -187500.02, -187500.02, 0.000, 0.000, 0.000, 17:55:24.860
26, 46225.71, 67500.27, -187500.02, -187500.02, -144497.31, -187500.02, -187500.02, -187500.02, 0.010, -0.010, 1.012, 17:55:24.860
27, 46157.09, 67030.94, -187500.02, -187500.02, -144362.58, -187500.02, -187500.02, -187500.02, 0.000, 0.000, 0.000, 17:55:24.860
28, 45750.67, 66190.69, -187500.02, -187500.02, -144180.08, -187500.02, -187500.02, -187500.02, 0.000, 0.000, 0.000, 17:55:24.860
29, 45398.76, 66532.52, -187500.02, -187500.02, -144337.30, -187500.02, -187500.02, -187500.02, 0.000, 0.000, 0.000, 17:55:24.860
30, 45923.82, 67441.96, -187500.02, -187500.02, -144538.83, -187500.02, -187500.02, -187500.02, 0.000, 0.000, 0.000, 17:55:24.861
31, 46256.22, 67530.48, -187500.02, -187500.02, -144607.53, -187500.02, -187500.02, -187500.02, 0.000, 0.000, 0.000, 17:55:24.861
32, 46194.19, 67070.23, -187500.02, -187500.02, -144532.25, -187500.02, -187500.02, -187500.02, 0.000, 0.000, 0.000, 17:55:24.861
33, 45775.57, 66211.74, -187500.02, -187500.02, -144385.95, -187500.02, -187500.02, -187500.02, 0.000, 0.000, 0.000, 17:55:24.861
34, 45413.25, 66538.01, -187500.02, -187500.02, -144558.20, -187500.02, -187500.02, -187500.02, 0.000, 0.000, 0.000, 17:55:24.861
35, 45915.82, 67435.41, -187500.02, -187500.02, -144736.55, -187500.02, -187500.02, -187500.02, 0.000, 0.000, 0.000, 17:55:24.861
36, 46246.56, 67523.66, -187500.02, -187500.02, -144756.22, -187500.02, -187500.02, -187500.02, 0.010, -0.012, 1.016, 17:55:24.861
37, 46179.44, 67058.77, -187500.02, -187500.02, -144668.69, -187500.02, -187500.02, -187500.02, 0.000, 0.000, 0.000, 17:55:24.861
38, 45768.01, 66205.62, -187500.02, -187500.02, -144514.34, -187500.02, -187500.02, -187500.02, 0.000, 0.000, 0.000, 17:55:24.861
39, 45396.57, 66522.57, -187500.02, -187500.02, -144650.89, -187500.02, -187500.02, -187500.02, 0.000, 0.000, 0.000, 17:55:24.862
40, 45909.66, 67430.02, -187500.02, -187500.02, -144831.78, -187500.02, -187500.02, -187500.02, 0.000, 0.000, 0.000, 17:55:24.862
41, 46244.37, 67517.73, -187500.02, -187500.02, -144845.53, -187500.02, -187500.02, -187500.02, 0.000, 0.000, 0.000, 17:55:24.862
42, 46180.11, 67063.57, -187500.02, -187500.02, -144715.41, -187500.02, -187500.02, -187500.02, 0.000, 0.000, 0.000, 17:55:24.862
43, 45779.50, 66218.92, -187500.02, -187500.02, -144567.75, -187500.02, -187500.02, -187500.02, 0.000, 0.000, 0.000, 17:55:24.862
44, 45415.26, 66534.93, -187500.02, -187500.02, -144730.14, -187500.02, -187500.02, -187500.02, 0.000, 0.000, 0.000, 17:55:24.862
45, 45934.09, 67456.24, -187500.02, -187500.02, -144923.98, -187500.02, -187500.02, -187500.02, 0.000, 0.000, 0.000, 17:55:24.862
46, 46275.33, 67554.37, -187500.02, -187500.02, -144988.25, -187500.02, -187500.02, -187500.02, 0.010, -0.012, 1.020, 17:55:24.862
47, 46204.99, 67092.24, -187500.02, -187500.02, -144891.92, -187500.02, -187500.02, -187500.02, 0.000, 0.000, 0.000, 17:55:24.862
48, 45805.94, 66245.59, -187500.02, -187500.02, -144780.41, -187500.02, -187500.02, -187500.02, 0.000, 0.000, 0.000, 17:55:24.863
49, 45420.66, 66538.17, -187500.02, -187500.02, -144967.95, -187500.02, -187500.02, -187500.02, 0.000, 0.000, 0.000, 17:55:24.863
50, 45916.61, 67436.95, -187500.02, -187500.02, -145120.33, -187500.02, -187500.02, -187500.02, 0.000, 0.000, 0.000, 17:55:24.863
51, 46245.55, 67527.70, -187500.02, -187500.02, -145079.48, -187500.02, -187500.02, -187500.02, 0.000, 0.000, 0.000, 17:55:24.863
52, 46189.41, 67084.76, -187500.02, -187500.02, -144989.03, -187500.02, -187500.02, -187500.02, 0.000, 0.000, 0.000, 17:55:24.863
53, 45767.48, 66208.63, -187500.02, -187500.02, -144841.06, -187500.02, -187500.02, -187500.02, 0.000, 0.000, 0.000, 17:55:24.863
54, 45388.37, 66505.40, -187500.02, -187500.02, -144984.27, -187500.02, -187500.02, -187500.02, 0.000, 0.000, 0.000, 17:55:24.863
55, 45891.53, 67418.00, -187500.02, -187500.02, -145153.31, -187500.02, -187500.02, -187500.02, 0.000, 0.000, 0.000, 17:55:24.863
56, 46226.51, 67511.05, -187500.02, -187500.02, -145149.41, -187500.02, -187500.02, -187500.02, 0.016, -0.010, 1.022, 17:55:24.864
57, 46175.55, 67071.86, -187500.02, -187500.02, -145044.63, -187500.02, -187500.02, -187500.02, 0.000, 0.000, 0.000, 17:55:24.864
58, 45780.08, 66222.49, -187500.02, -187500.02, -144892.58, -187500.02, -187500.02, -187500.02, 0.000, 0.000, 0.000, 17:55:24.864
59, 45398.25, 66510.43, -187500.02, -187500.02, -145055.39, -187500.02, -187500.02, -187500.02, 0.000, 0.000, 0.000, 17:55:24.864
60, 45903.29, 67429.87, -187500.02, -187500.02, -145255.91, -187500.02, -187500.02, -187500.02, 0.000, 0.000, 0.000, 17:55:24.864
61, 46255.39, 67539.28, -187500.02, -187500.02, -145320.11, -187500.02, -187500.02, -187500.02, 0.000, 0.000, 0.000, 17:55:24.864
62, 46192.25, 67089.98, -187500.02, -187500.02, -145211.48, -187500.02, -187500.02, -187500.02, 0.000, 0.000, 0.000, 17:55:24.864
63, 45793.40, 66232.93, -187500.02, -187500.02, -145087.47, -187500.02, -187500.02, -187500.02, 0.000, 0.000, 0.000, 17:55:24.865
64, 45402.98, 66505.49, -187500.02, -187500.02, -145253.14, -187500.02, -187500.02, -187500.02, 0.000, 0.000, 0.000, 17:55:24.865
65, 45896.02, 67414.89, -187500.02, -187500.02, -145441.59, -187500.02, -187500.02, -187500.02, 0.000, 0.000, 0.000, 17:55:24.865
66, 46243.61, 67517.29, -187500.02, -187500.02, -145480.70, -187500.02, -187500.02, -187500.02, 0.010, -0.014, 1.018, 17:55:24.866
67, 46192.63, 67076.27, -187500.02, -187500.02, -145400.69, -187500.02, -187500.02, -187500.02, 0.000, 0.000, 0.000, 17:55:24.866
68, 45790.48, 66211.74, -187500.02, -187500.02, -145198.25, -187500.02, -187500.02, -187500.02, 0.000, 0.000, 0.000, 17:55:24.866
69, 45387.29, 66471.83, -187500.02, -187500.02, -145298.66, -187500.02, -187500.02, -187500.02, 0.000, 0.000, 0.000, 17:55:24.866
70, 45880.48, 67392.34, -187500.02, -187500.02, -145482.67, -187500.02, -187500.02, -187500.02, 0.000, 0.000, 0.000, 17:55:24.866
71, 46227.68, 67502.00, -187500.02, -187500.02, -145506.63, -187500.02, -187500.02, -187500.02, 0.000, 0.000, 0.000, 17:55:24.866
72, 46169.09, 67061.78, -187500.02, -187500.02, -145404.42, -187500.02, -187500.02, -187500.02, 0.000, 0.000, 0.000, 17:55:24.866
73, 45782.88, 66210.70, -187500.02, -187500.02, -145230.31, -187500.02, -187500.02, -187500.02, 0.000, 0.000, 0.000, 17:55:24.867
74, 45393.11, 66475.90, -187500.02, -187500.02, -145371.53, -187500.02, -187500.02, -187500.02, 0.000, 0.000, 0.000, 17:55:24.867
75, 45880.13, 67392.32, -187500.02, -187500.02, -145561.31, -187500.02, -187500.02, -187500.02, 0.000, 0.000, 0.000, 17:55:24.867
76, 46236.84, 67515.63, -187500.02, -187500.02, -145641.48, -187500.02, -187500.02, -187500.02, 0.010, -0.012, 1.020, 17:55:24.867
77, 46172.87, 67071.57, -187500.02, -187500.02, -145551.47, -187500.02, -187500.02, -187500.02, 0.000, 0.000, 0.000, 17:55:24.867
78, 45774.54, 66200.08, -187500.02, -187500.02, -145373.14, -187500.02, -187500.02, -187500.02, 0.000, 0.000, 0.000, 17:55:24.867
79, 45368.54, 66454.22, -187500.02, -187500.02, -145553.75, -187500.02, -187500.02, -187500.02, 0.000, 0.000, 0.000, 17:55:24.868
80, 45849.57, 67373.23, -187500.02, -187500.02, -145755.39, -187500.02, -187500.02, -187500.02, 0.000, 0.000, 0.000, 17:55:24.868
81, 46202.37, 67480.43, -187500.02, -187500.02, -145768.39, -187500.02, -187500.02, -187500.02, 0.000, 0.000, 0.000, 17:55:24.868
82, 46158.88, 67053.17, -187500.02, -187500.02, -145676.78, -187500.02, -187500.02, -187500.02, 0.000, 0.000, 0.000, 17:55:24.868
83, 45772.10, 66194.89, -187500.02, -187500.02, -145502.91, -187500.02, -187500.02, -187500.02, 0.000, 0.000, 0.000, 17:55:24.868
84, 45366.37, 66438.45, -187500.02, -187500.02, -145612.42, -187500.02, -187500.02, -187500.02, 0.000, 0.000, 0.000, 17:55:24.869
85, 45841.19, 67352.78, -187500.02, -187500.02, -145764.34, -187500.02, -187500.02, -187500.02, 0.000, 0.000, 0.000, 17:55:24.869
86, 46203.42, 67481.70, -187500.02, -187500.02, -145765.95, -187500.02, -187500.02, -187500.02, 0.012, -0.006, 1.026, 17:55:24.869
87, 46157.11, 67059.39, -187500.02, -187500.02, -145655.67, -187500.02, -187500.02, -187500.02, 0.000, 0.000, 0.000, 17:55:24.869
88, 45782.88, 66210.98, -187500.02, -187500.02, -145540.00, -187500.02, -187500.02, -187500.02, 0.000, 0.000, 0.000, 17:55:24.869
89, 45369.32, 66440.73, -187500.02, -187500.02, -145685.22, -187500.02, -187500.02, -187500.02, 0.000, 0.000, 0.000, 17:55:24.869
90, 45856.93, 67376.18, -187500.02, -187500.02, -145886.33, -187500.02, -187500.02, -187500.02, 0.000, 0.000, 0.000, 17:55:24.870
91, 46235.23, 67520.20, -187500.02, -187500.02, -145965.14, -187500.02, -187500.02, -187500.02, 0.000, 0.000, 0.000, 17:55:24.870
92, 46186.26, 67098.91, -187500.02, -187500.02, -145871.72, -187500.02, -187500.02, -187500.02, 0.000, 0.000, 0.000, 17:55:24.870
93, 45798.90, 66236.60, -187500.02, -187500.02, -145752.50, -187500.02, -187500.02, -187500.02, 0.000, 0.000, 0.000, 17:55:24.870
94, 45372.30, 66448.80, -187500.02, -187500.02, -145925.02, -187500.02, -187500.02, -187500.02, 0.000, 0.000, 0.000, 17:55:24.870
95, 45843.05, 67371.13, -187500.02, -187500.02, -146077.36, -187500.02, -187500.02, -187500.02, 0.000, 0.000, 0.000, 17:55:24.871
96, 46212.59, 67507.92, -187500.02, -187500.02, -146068.78, -187500.02, -187500.02, -187500.02, 0.012, -0.012, 1.026, 17:55:24.871
97, 46172.31, 67092.38, -187500.02, -187500.02, -145989.83, -187500.02, -187500.02, -187500.02, 0.000, 0.000, 0.000, 17:55:24.871
98, 45783.25, 66223.12, -187500.02, -187500.02, -145807.70, -187500.02, -187500.02, -187500.02, 0.000, 0.000, 0.000, 17:55:24.871
99, 45353.32, 66430.61, -187500.02, -187500.02, -145917.91, -187500.02, -187500.02, -187500.02, 0.000, 0.000, 0.000, 17:55:24.871
100, 45829.39, 67362.39, -187500.02, -187500.02, -146092.41, -187500.02, -187500.02, -187500.02, 0.000, 0.000, 0.000, 17:55:24.871
101, 46201.68, 67499.18, -187500.02, -187500.02, -146123.14, -187500.02, -187500.02, -187500.02, 0.000, 0.000, 0.000, 17:55:24.872
102, 46161.92, 67082.01, -187500.02, -187500.02, -146033.70, -187500.02, -187500.02, -187500.02, 0.000, 0.000, 0.000, 17:55:24.872
103, 45787.79, 66225.38, -187500.02, -187500.02, -145864.59, -187500.02, -187500.02, -187500.02, 0.000, 0.000, 0.000, 17:55:24.872
104, 45367.58, 66441.09, -187500.02, -187500.02, -145998.81, -187500.02, -187500.02, -187500.02, 0.000, 0.000, 0.000, 17:55:24.872
105, 45845.75, 67376.18, -187500.02, -187500.02, -146193.39, -187500.02, -187500.02, -187500.02, 0.000, 0.000, 0.000, 17:55:24.872
106, 46227.16, 67522.30, -187500.02, -187500.02, -146244.58, -187500.02, -187500.02, -187500.02, 0.014, -0.014, 1.018, 17:55:24.872
107, 46187.17, 67110.93, -187500.02, -187500.02, -146158.97, -187500.02, -187500.02, -187500.02, 0.000, 0.000, 0.000, 17:55:24.873
108, 45808.98, 66245.94, -187500.02, -187500.02, -146001.14, -187500.02, -187500.02, -187500.02, 0.000, 0.000, 0.000, 17:55:24.873
109, 45380.10, 66445.66, -187500.02, -187500.02, -146159.11, -187500.02, -187500.02, -187500.02, 0.000, 0.000, 0.000, 17:55:24.873
110, 45849.53, 67375.48, -187500.02, -187500.02, -146352.75, -187500.02, -187500.02, -187500.02, 0.000, 0.000, 0.000, 17:55:24.873
111, 46225.33, 67515.66, -187500.02, -187500.02, -146386.31, -187500.02, -187500.02, -187500.02, 0.000, 0.000, 0.000, 17:55:24.873
112, 46175.80, 67096.78, -187500.02, -187500.02, -146262.30, -187500.02, -187500.02, -187500.02, 0.000, 0.000, 0.000, 17:55:24.874
113, 45800.46, 66235.33, -187500.02, -187500.02, -146095.83, -187500.02, -187500.02, -187500.02, 0.000, 0.000, 0.000, 17:55:24.874
114, 45365.59, 66425.65, -187500.02, -187500.02, -146228.17, -187500.02, -187500.02, -187500.02, 0.000, 0.000, 0.000, 17:55:24.874
115, 45842.51, 67369.90, -187500.02, -187500.02, -146397.06, -187500.02, -187500.02, -187500.02, 0.000, 0.000, 0.000, 17:55:24.874
116, 46233.33, 67522.74, -187500.02, -187500.02, -146442.97, -187500.02, -187500.02, -187500.02, 0.008, -0.010, 1.026, 17:55:24.874
117, 46181.92, 67101.99, -187500.02, -187500.02, -146334.94, -187500.02, -187500.02, -187500.02, 0.000, 0.000, 0.000, 17:55:24.875
118, 45812.76, 66242.74, -187500.02, -187500.02, -146142.30, -187500.02, -187500.02, -187500.02, 0.000, 0.000, 0.000, 17:55:24.875
119, 45391.23, 66436.53, -187500.02, -187500.02, -146278.33, -187500.02, -187500.02, -187500.02, 0.000, 0.000, 0.000, 17:55:24.875
120, 45861.84, 67381.09, -187500.02, -187500.02, -146452.36, -187500.02, -187500.02, -187500.02, 0.000, 0.000, 0.000, 17:55:25.336
121, 46249.02, 67540.78, -187500.02, -187500.02, -146522.52, -187500.02, -187500.02, -187500.02, 0.000, 0.000, 0.000, 17:55:25.336
122, 46209.14, 67135.98, -187500.02, -187500.02, -146484.77, -187500.02, -187500.02, -187500.02, 0.000, 0.000, 0.000, 17:55:25.336
123, 45835.49, 66270.55, -187500.02, -187500.02, -146315.63, -187500.02, -187500.02, -187500.02, 0.000, 0.000, 0.000, 17:55:25.336
124, 45406.32, 66452.25, -187500.02, -187500.02, -146443.64, -187500.02, -187500.02, -187500.02, 0.000, 0.000, 0.000, 17:55:25.337
125, 45872.39, 67395.27, -187500.02, -187500.02, -146644.41, -187500.02, -187500.02, -187500.02, 0.000, 0.000, 0.000, 17:55:25.337
126, 46256.51, 67543.04, -187500.02, -187500.02, -146694.73, -187500.02, -187500.02, -187500.02, 0.010, -0.002, 1.024, 17:55:25.337
127, 46210.06, 67132.03, -187500.02, -187500.02, -146579.16, -187500.02, -187500.02, -187500.02, 0.000, 0.000, 0.000, 17:55:25.337
128, 45847.72, 66273.66, -187500.02, -187500.02, -146414.61, -187500.02, -187500.02, -187500.02, 0.000, 0.000, 0.000, 17:55:25.337
129, 45411.75, 66445.38, -187500.02, -187500.02, -146544.77, -187500.02, -187500.02, -187500.02, 0.000, 0.000, 0.000, 17:55:25.338
130, 45866.07, 67382.10, -187500.02, -187500.02, -146722.80, -187500.02, -187500.02, -187500.02, 0.000, 0.000, 0.000, 17:55:25.338
131, 46249.31, 67535.77, -187500.02, -187500.02, -146745.20, -187500.02, -187500.02, -187500.02, 0.000, 0.000, 0.000, 17:55:25.338
132, 46210.46, 67133.46, -187500.02, -187500.02, -146648.83, -187500.02, -187500.02, -187500.02, 0.000, 0.000, 0.000, 17:55:25.338
133, 45849.44, 66272.23, -187500.02, -187500.02, -146458.53, -187500.02, -187500.02, -187500.02, 0.000, 0.000, 0.000, 17:55:25.338
134, 45424.42, 66448.67, -187500.02, -187500.02, -146606.16, -187500.02, -187500.02, -187500.02, 0.000, 0.000, 0.000, 17:55:25.338
135, 45882.50, 67396.41, -187500.02, -187500.02, -146807.34, -187500.02, -187500.02, -187500.02, 0.000, 0.000, 0.000, 17:55:25.339
136, 46271.44, 67556.42, -187500.02, -187500.02, -146834.27, -187500.02, -187500.02, -187500.02, 0.012, -0.006, 1.016, 17:55:25.339
137, 46232.26, 67157.22, -187500.02, -187500.02, -146765.17, -187500.02, -187500.02, -187500.02, 0.000, 0.000, 0.000, 17:55:25.339
138, 45868.19, 66290.16, -187500.02, -187500.02, -146610.67, -187500.02, -187500.02, -187500.02, 0.000, 0.000, 0.000, 17:55:25.339
139, 45421.16, 66439.24, -187500.02, -187500.02, -146738.84, -187500.02, -187500.02, -187500.02, 0.000, 0.000, 0.000, 17:55:25.339
140, 45872.06, 67383.20, -187500.02, -187500.02, -146923.42, -187500.02, -187500.02, -187500.02, 0.000, 0.000, 0.000, 17:55:25.340
141, 46265.96, 67549.18, -187500.02, -187500.02, -146952.39, -187500.02, -187500.02, -187500.02, 0.000, 0.000, 0.000, 17:55:25.340
142, 46227.92, 67158.97, -187500.02, -187500.02, -146873.95, -187500.02, -187500.02, -187500.02, 0.000, 0.000, 0.000, 17:55:25.340
143, 45868.64, 66301.51, -187500.02, -187500.02, -146696.30, -187500.02, -187500.02, -187500.02, 0.000, 0.000, 0.000, 17:55:25.340
144, 45423.86, 66447.11, -187500.02, -187500.02, -146833.23, -187500.02, -187500.02, -187500.02, 0.000, 0.000, 0.000, 17:55:25.340
145, 45869.33, 67386.28, -187500.02, -187500.02, -147009.34, -187500.02, -187500.02, -187500.02, 0.012, -0.012, 1.020, 17:55:25.340
146, 46258.01, 67550.10, -187500.02, -187500.02, -147033.64, -187500.02, -187500.02, -187500.02, 0.000, 0.000, 0.000, 17:55:25.341
147, 46218.51, 67154.98, -187500.02, -187500.02, -146924.14, -187500.02, -187500.02, -187500.02, 0.000, 0.000, 0.000, 17:55:25.341
148, 45862.38, 66291.83, -187500.02, -187500.02, -146761.58, -187500.02, -187500.02, -187500.02, 0.000, 0.000, 0.000, 17:55:25.341
149, 45433.90, 66452.16, -187500.02, -187500.02, -146893.58, -187500.02, -187500.02, -187500.02, 0.000, 0.000, 0.000, 17:55:25.341
150, 45883.05, 67401.03, -187500.02, -187500.02, -147082.13, -187500.02, -187500.02, -187500.02, 0.000, 0.000, 0.000, 17:55:25.341
151, 46277.74, 67569.16, -187500.02, -187500.02, -147114.50, -187500.02, -187500.02, -187500.02, 0.000, 0.000, 0.000, 17:55:25.342
152, 46250.09, 67184.47, -187500.02, -187500.02, -147081.33, -187500.02, -187500.02, -187500.02, 0.000, 0.000, 0.000, 17:55:25.342
153, 45896.80, 66325.54, -187500.02, -187500.02, -146927.17, -187500.02, -187500.02, -187500.02, 0.000, 0.000, 0.000, 17:55:25.342
154, 45434.77, 66448.80, -187500.02, -187500.02, -147026.97, -187500.02, -187500.02, -187500.02, 0.000, 0.000, 0.000, 17:55:25.342
155, 45872.55, 67393.10, -187500.02, -187500.02, -147205.56, -187500.02, -187500.02, -187500.02, 0.020, -0.010, 1.016, 17:55:25.342
156, 46270.75, 67567.96, -187500.02, -187500.02, -147235.67, -187500.02, -187500.02, -187500.02, 0.000, 0.000, 0.000, 17:55:25.342
157, 46230.07, 67173.54, -187500.02, -187500.02, -147145.69, -187500.02, -187500.02, -187500.02, 0.000, 0.000, 0.000, 17:55:25.343
158, 45877.58, 66311.16, -187500.02, -187500.02, -146969.06, -187500.02, -187500.02, -187500.02, 0.000, 0.000, 0.000, 17:55:25.343
159, 45420.00, 66432.40, -187500.02, -187500.02, -147081.89, -187500.02, -187500.02, -187500.02, 0.000, 0.000, 0.000, 17:55:25.343
160, 45863.90, 67387.06, -187500.02, -187500.02, -147286.02, -187500.02, -187500.02, -187500.02, 0.000, 0.000, 0.000, 17:55:25.343
161, 46260.58, 67561.72, -187500.02, -187500.02, -147322.84, -187500.02, -187500.02, -187500.02, 0.000, 0.000, 0.000, 17:55:25.343
162, 46223.76, 67171.48, -187500.02, -187500.02, -147238.98, -187500.02, -187500.02, -187500.02, 0.000, 0.000, 0.000, 17:55:25.344
163, 45872.21, 66310.83, -187500.02, -187500.02, -147043.61, -187500.02, -187500.02, -187500.02, 0.000, 0.000, 0.000, 17:55:25.344
164, 45415.75, 66431.73, -187500.02, -187500.02, -147191.22, -187500.02, -187500.02, -187500.02, 0.000, 0.000, 0.000, 17:55:25.344
165, 45856.50, 67384.78, -187500.02, -187500.02, -147365.81, -187500.02, -187500.02, -187500.02, 0.016, -0.012, 1.018, 17:55:25.344
166, 46273.43, 67575.98, -187500.02, -187500.02, -147442.27, -187500.02, -187500.02, -187500.02, 0.000, 0.000, 0.000, 17:55:25.344
167, 46238.02, 67189.59, -187500.02, -187500.02, -147386.70, -187500.02, -187500.02, -187500.02, 0.000, 0.000, 0.000, 17:55:25.344
168, 45909.72, 66345.61, -187500.02, -187500.02, -147244.70, -187500.02, -187500.02, -187500.02, 0.000, 0.000, 0.000, 17:55:25.345
169, 45455.04, 66460.97, -187500.02, -187500.02, -147382.72, -187500.02, -187500.02, -187500.02, 0.000, 0.000, 0.000, 17:55:25.345
170, 45874.14, 67399.67, -187500.02, -187500.02, -147563.16, -187500.02, -187500.02, -187500.02, 0.000, 0.000, 0.000, 17:55:25.345
171, 46264.93, 67568.98, -187500.02, -187500.02, -147591.83, -187500.02, -187500.02, -187500.02, 0.000, 0.000, 0.000, 17:55:25.345
172, 46235.88, 67190.99, -187500.02, -187500.02, -147490.59, -187500.02, -187500.02, -187500.02, 0.000, 0.000, 0.000, 17:55:25.345
173, 45900.49, 66334.97, -187500.02, -187500.02, -147304.09, -187500.02, -187500.02, -187500.02, 0.000, 0.000, 0.000, 17:55:25.345
174, 45424.00, 66420.35, -187500.02, -187500.02, -147386.42, -187500.02, -187500.02, -187500.02, 0.000, 0.000, 0.000, 17:55:25.345
175, 45845.30, 67365.90, -187500.02, -187500.02, -147557.41, -187500.02, -187500.02, -187500.02, 0.016, -0.008, 1.022, 17:55:25.345
176, 46252.87, 67556.91, -187500.02, -187500.02, -147607.98, -187500.02, -187500.02, -187500.02, 0.000, 0.000, 0.000, 17:55:25.346
177, 46221.59, 67181.27, -187500.02, -187500.02, -147528.75, -187500.02, -187500.02, -187500.02, 0.000, 0.000, 0.000, 17:55:25.346
178, 45892.89, 66333.65, -187500.02, -187500.02, -147370.20, -187500.02, -187500.02, -187500.02, 0.000, 0.000, 0.000, 17:55:25.346
179, 45429.98, 66426.90, -187500.02, -187500.02, -147517.64, -187500.02, -187500.02, -187500.02, 0.000, 0.000, 0.000, 17:55:25.346
180, 45841.06, 67365.77, -187500.02, -187500.02, -147702.16, -187500.02, -187500.02, -187500.02, 0.000, 0.000, 0.000, 17:55:25.346
181, 46256.38, 67563.58, -187500.02, -187500.02, -147780.28, -187500.02, -187500.02, -187500.02, 0.000, 0.000, 0.000, 17:55:25.346
182, 46224.90, 67189.92, -187500.02, -187500.02, -147713.83, -187500.02, -187500.02, -187500.02, 0.000, 0.000, 0.000, 17:55:25.346
183, 45880.08, 66327.77, -187500.02, -187500.02, -147528.73, -187500.02, -187500.02, -187500.02, 0.000, 0.000, 0.000, 17:55:25.346
184, 45409.00, 66411.59, -187500.02, -187500.02, -147629.98, -187500.02, -187500.02, -187500.02, 0.000, 0.000, 0.000, 17:55:25.346
185, 45819.55, 67354.81, -187500.02, -187500.02, -147809.33, -187500.02, -187500.02, -187500.02, 0.010, -0.010, 1.028, 17:55:25.347
186, 46221.37, 67537.41, -187500.02, -187500.02, -147845.63, -187500.02, -187500.02, -187500.02, 0.000, 0.000, 0.000, 17:55:25.347
187, 46205.73, 67172.60, -187500.02, -187500.02, -147762.55, -187500.02, -187500.02, -187500.02, 0.000, 0.000, 0.000, 17:55:25.347
188, 45873.36, 66315.74, -187500.02, -187500.02, -147621.39, -187500.02, -187500.02, -187500.02, 0.000, 0.000, 0.000, 17:55:25.347
189, 45395.63, 66388.16, -187500.02, -187500.02, -147718.67, -187500.02, -187500.02, -187500.02, 0.000, 0.000, 0.000, 17:55:25.347
190, 45812.65, 67341.53, -187500.02, -187500.02, -147884.61, -187500.02, -187500.02, -187500.02, 0.000, 0.000, 0.000, 17:55:25.347
191, 46226.40, 67534.63, -187500.02, -187500.02, -147873.89, -187500.02, -187500.02, -187500.02, 0.000, 0.000, 0.000, 17:55:25.347
192, 46195.42, 67159.16, -187500.02, -187500.02, -147755.22, -187500.02, -187500.02, -187500.02, 0.000, 0.000, 0.000, 17:55:25.347
193, 45868.08, 66305.98, -187500.02, -187500.02, -147580.11, -187500.02, -187500.02, -187500.02, 0.000, 0.000, 0.000, 17:55:25.348
194, 45396.46, 66382.60, -187500.02, -187500.02, -147708.44, -187500.02, -187500.02, -187500.02, 0.000, 0.000, 0.000, 17:55:25.348
195, 45816.96, 67346.12, -187500.02, -187500.02, -147907.28, -187500.02, -187500.02, -187500.02, 0.012, -0.006, 1.026, 17:55:25.348
196, 46245.40, 67554.97, -187500.02, -187500.02, -147966.08, -187500.02, -187500.02, -187500.02, 0.000, 0.000, 0.000, 17:55:25.348
197, 46228.12, 67194.48, -187500.02, -187500.02, -147887.39, -187500.02, -187500.02, -187500.02, 0.000, 0.000, 0.000, 17:55:25.348
198, 45897.81, 66335.48, -187500.02, -187500.02, -147773.91, -187500.02, -187500.02, -187500.02, 0.000, 0.000, 0.000, 17:55:25.348
199, 45411.03, 66385.88, -187500.02, -187500.02, -147911.14, -187500.02, -187500.02, -187500.02, 0.000, 0.000, 0.000, 17:55:25.349
200, 45809.99, 67327.43, -187500.02, -187500.02, -148031.42, -187500.02, -187500.02, -187500.02, 0.000, 0.000, 0.000, 17:55:25.349
201, 46232.70, 67538.68, -187500.02, -187500.02, -148085.16, -187500.02, -187500.02, -187500.02, 0.000, 0.000, 0.000, 17:55:25.349
202, 46211.85, 67178.37, -187500.02, -187500.02, -148035.31, -187500.02, -187500.02, -187500.02, 0.000, 0.000, 0.000, 17:55:25.349
203, 45880.55, 66316.59, -187500.02, -187500.02, -147860.39, -187500.02, -187500.02, -187500.02, 0.000, 0.000, 0.000, 17:55:25.349
204, 45394.94, 66366.64, -187500.02, -187500.02, -147943.67, -187500.02, -187500.02, -187500.02, 0.000, 0.000, 0.000, 17:55:25.349
205, 45806.16, 67324.30, -187500.02, -187500.02, -148107.95, -187500.02, -187500.02, -187500.02, 0.010, -0.008, 1.028, 17:55:25.350
206, 46229.57, 67532.82, -187500.02, -187500.02, -148149.28, -187500.02, -187500.02, -187500.02, 0.000, 0.000, 0.000, 17:55:25.350
207, 46200.52, 67163.99, -187500.02, -187500.02, -148063.92, -187500.02, -187500.02, -187500.02, 0.000, 0.000, 0.000, 17:55:25.350
208, 45881.94, 66315.97, -187500.02, -187500.02, -147902.97, -187500.02, -187500.02, -187500.02, 0.000, 0.000, 0.000, 17:55:25.350
209, 45414.23, 66379.00, -187500.02, -187500.02, -148027.97, -187500.02, -187500.02, -187500.02, 0.000, 0.000, 0.000, 17:55:25.350
210, 45826.46, 67342.25, -187500.02, -187500.02, -148215.70, -187500.02, -187500.02, -187500.02, 0.000, 0.000, 0.000, 17:55:25.351
211, 46246.99, 67553.98, -187500.02, -187500.02, -148261.38, -187500.02, -187500.02, -187500.02, 0.000, 0.000, 0.000, 17:55:25.351
212, 46230.85, 67203.78, -187500.02, -187500.02, -148205.61, -187500.02, -187500.02, -187500.02, 0.000, 0.000, 0.000, 17:55:25.351
213, 45911.58, 66354.39, -187500.02, -187500.02, -148058.33, -187500.02, -187500.02, -187500.02, 0.000, 0.000, 0.000, 17:55:25.351
214, 45419.44, 66386.09, -187500.02, -187500.02, -148163.30, -187500.02, -187500.02, -187500.02, 0.000, 0.000, 0.000, 17:55:25.351
215, 45819.04, 67340.39, -187500.02, -187500.02, -148369.67, -187500.02, -187500.02, -187500.02, 0.012, -0.012, 1.032, 17:55:25.351
216, 46237.73, 67547.06, -187500.02, -187500.02, -148382.36, -187500.02, -187500.02, -187500.02, 0.000, 0.000, 0.000, 17:55:25.352
217, 46216.30, 67191.51, -187500.02, -187500.02, -148284.86, -187500.02, -187500.02, -187500.02, 0.000, 0.000, 0.000, 17:55:25.352
218, 45889.61, 66330.88, -187500.02, -187500.02, -148102.44, -187500.02, -187500.02, -187500.02, 0.000, 0.000, 0.000, 17:55:25.352
219, 45402.27, 66358.59, -187500.02, -187500.02, -148201.38, -187500.02, -187500.02, -187500.02, 0.000, 0.000, 0.000, 17:55:25.352
220, 45797.63, 67311.07, -187500.02, -187500.02, -148361.06, -187500.02, -187500.02, -187500.02, 0.000, 0.000, 0.000, 17:55:25.352
221, 46233.04, 67537.31, -187500.02, -187500.02, -148381.45, -187500.02, -187500.02, -187500.02, 0.000, 0.000, 0.000, 17:55:25.352
222, 46214.42, 67184.00, -187500.02, -187500.02, -148303.55, -187500.02, -187500.02, -187500.02, 0.000, 0.000, 0.000, 17:55:25.353
223, 45903.38, 66337.09, -187500.02, -187500.02, -148126.14, -187500.02, -187500.02, -187500.02, 0.000, 0.000, 0.000, 17:55:25.353
224, 45423.82, 66370.84, -187500.02, -187500.02, -148261.59, -187500.02, -187500.02, -187500.02, 0.000, 0.000, 0.000, 17:55:25.353
225, 45823.78, 67333.31, -187500.02, -187500.02, -148470.23, -187500.02, -187500.02, -187500.02, 0.010, -0.008, 1.032, 17:55:25.353
226, 46260.87, 67563.82, -187500.02, -187500.02, -148557.25, -187500.02, -187500.02, -187500.02, 0.000, 0.000, 0.000, 17:55:25.353
227, 46238.29, 67210.58, -187500.02, -187500.02, -148500.92, -187500.02, -187500.02, -187500.02, 0.000, 0.000, 0.000, 17:55:25.353
228, 45920.32, 66357.55, -187500.02, -187500.02, -148320.67, -187500.02, -187500.02, -187500.02, 0.000, 0.000, 0.000, 17:55:25.354
229, 45430.61, 66372.74, -187500.02, -187500.02, -148433.69, -187500.02, -187500.02, -187500.02, 0.000, 0.000, 0.000, 17:55:25.354
230, 45815.22, 67327.38, -187500.02, -187500.02, -148601.86, -187500.02, -187500.02, -187500.02, 0.000, 0.000, 0.000, 17:55:25.354
231, 46258.25, 67563.47, -187500.02, -187500.02, -148626.48, -187500.02, -187500.02, -187500.02, 0.000, 0.000, 0.000, 17:55:25.354
232, 46239.81, 67216.70, -187500.02, -187500.02, -148522.86, -187500.02, -187500.02, -187500.02, 0.000, 0.000, 0.000, 17:55:25.354
233, 45935.27, 66374.20, -187500.02, -187500.02, -148362.92, -187500.02, -187500.02, -187500.02, 0.000, 0.000, 0.000, 17:55:25.354
234, 45437.83, 66376.90, -187500.02, -187500.02, -148444.44, -187500.02, -187500.02, -187500.02, 0.000, 0.000, 0.000, 17:55:25.355
235, 45820.49, 67331.68, -187500.02, -187500.02, -148580.88, -187500.02, -187500.02, -187500.02, 0.012, -0.012, 1.020, 17:55:25.355
236, 46263.10, 67573.10, -187500.02, -187500.02, -148635.91, -187500.02, -187500.02, -187500.02, 0.000, 0.000, 0.000, 17:55:25.355
237, 46240.35, 67224.23, -187500.02, -187500.02, -148541.75, -187500.02, -187500.02, -187500.02, 0.000, 0.000, 0.000, 17:55:25.355
238, 45930.75, 66374.30, -187500.02, -187500.02, -148349.58, -187500.02, -187500.02, -187500.02, 0.000, 0.000, 0.000, 17:55:25.355
239, 45439.22, 66371.58, -187500.02, -187500.02, -148462.41, -187500.02, -187500.02, -187500.02, 0.000, 0.000, 0.000, 17:55:25.355
240, 45827.42, 67338.07, -187500.02, -187500.02, -148666.31, -187500.02, -187500.02, -187500.02, 0.000, 0.000, 0.000, 17:55:25.817
241, 46269.85, 67576.52, -187500.02, -187500.02, -148738.67, -187500.02, -187500.02, -187500.02, 0.000, 0.000, 0.000, 17:55:25.817
242, 46253.13, 67234.91, -187500.02, -187500.02, -148698.64, -187500.02, -187500.02, -187500.02, 0.000, 0.000, 0.000, 17:55:25.817
243, 45942.38, 66379.41, -187500.02, -187500.02, -148538.78, -187500.02, -187500.02, -187500.02, 0.000, 0.000, 0.000, 17:55:25.818
244, 45453.23, 66378.53, -187500.02, -187500.02, -148660.36, -187500.02, -187500.02, -187500.02, 0.000, 0.000, 0.000, 17:55:25.818
245, 45825.68, 67334.74, -187500.02, -187500.02, -148836.42, -187500.02, -187500.02, -187500.02, 0.008, -0.010, 1.024, 17:55:25.818
246, 46267.51, 67571.69, -187500.02, -187500.02, -148828.61, -187500.02, -187500.02, -187500.02, 0.000, 0.000, 0.000, 17:55:25.818
247, 46259.17, 67235.52, -187500.02, -187500.02, -148735.75, -187500.02, -187500.02, -187500.02, 0.000, 0.000, 0.000, 17:55:25.818
248, 45956.21, 66390.02, -187500.02, -187500.02, -148578.09, -187500.02, -187500.02, -187500.02, 0.000, 0.000, 0.000, 17:55:25.818
249, 45445.14, 66362.28, -187500.02, -187500.02, -148650.55, -187500.02, -187500.02, -187500.02, 0.000, 0.000, 0.000, 17:55:25.819
250, 45817.59, 67322.55, -187500.02, -187500.02, -148843.44, -187500.02, -187500.02, -187500.02, 0.000, 0.000, 0.000, 17:55:25.819
251, 46264.00, 67567.51, -187500.02, -187500.02, -148887.02, -187500.02, -187500.02, -187500.02, 0.000, 0.000, 0.000, 17:55:25.819
252, 46256.04, 67232.50, -187500.02, -187500.02, -148811.14, -187500.02, -187500.02, -187500.02, 0.000, 0.000, 0.000, 17:55:25.819
253, 45955.77, 66382.53, -187500.02, -187500.02, -148625.89, -187500.02, -187500.02, -187500.02, 0.000, 0.000, 0.000, 17:55:25.820
254, 45468.34, 66372.12, -187500.02, -187500.02, -148749.58, -187500.02, -187500.02, -187500.02, 0.000, 0.000, 0.000, 17:55:25.820
255, 45840.97, 67336.35, -187500.02, -187500.02, -148955.69, -187500.02, -187500.02, -187500.02, 0.004, -0.014, 1.020, 17:55:25.820
0, 46292.41, 67594.00, -187500.02, -187500.02, -149005.47, -187500.02, -187500.02, -187500.02, 0.000, 0.000, 0.000, 17:55:25.820
1, 46288.58, 67268.78, -187500.02, -187500.02, -148964.56, -187500.02, -187500.02, -187500.02, 0.000, 0.000, 0.000, 17:55:25.820
2, 45986.30, 66416.28, -187500.02, -187500.02, -148798.75, -187500.02, -187500.02, -187500.02, 0.000, 0.000, 0.000, 17:55:25.820
3, 45477.44, 66381.33, -187500.02, -187500.02, -148885.66, -187500.02, -187500.02, -187500.02, 0.000, 0.000, 0.000, 17:55:25.821
4, 45840.63, 67342.80, -187500.02, -187500.02, -149063.88, -187500.02, -187500.02, -187500.02, 0.000, 0.000, 0.000, 17:55:25.821
5, 46296.74, 67596.39, -187500.02, -187500.02, -149112.59, -187500.02, -187500.02, -187500.02, 0.000, 0.000, 0.000, 17:55:25.821
6, 46291.00, 67267.86, -187500.02, -187500.02, -149022.78, -187500.02, -187500.02, -187500.02, 0.000, 0.000, 0.000, 17:55:25.821
7, 45979.82, 66417.20, -187500.02, -187500.02, -148855.64, -187500.02, -187500.02, -187500.02, 0.000, 0.000, 0.000, 17:55:25.821
8, 45449.61, 66355.09, -187500.02, -187500.02, -148952.59, -187500.02, -187500.02, -187500.02, 0.008, -0.012, 1.026, 17:55:25.821
9, 45813.16, 67319.65, -187500.02, -187500.02, -149098.02, -187500.02, -187500.02, -187500.02, 0.000, 0.000, 0.000, 17:55:25.821
10, 46269.09, 67574.98, -187500.02, -187500.02, -149136.13, -187500.02, -187500.02, -187500.02, 0.000, 0.000, 0.000, 17:55:25.821
11, 46264.22, 67250.14, -187500.02, -187500.02, -149095.77, -187500.02, -187500.02, -187500.02, 0.000, 0.000, 0.000, 17:55:25.822
12, 45967.75, 66403.16, -187500.02, -187500.02, -148885.44, -187500.02, -187500.02, -187500.02, 0.000, 0.000, 0.000, 17:55:25.822
13, 45452.70, 66347.64, -187500.02, -187500.02, -148973.23, -187500.02, -187500.02, -187500.02, 0.000, 0.000, 0.000, 17:55:25.822
14, 45804.60, 67305.21, -187500.02, -187500.02, -149170.42, -187500.02, -187500.02, -187500.02, 0.000, 0.000, 0.000, 17:55:25.822
15, 46260.71, 67569.61, -187500.02, -187500.02, -149207.48, -187500.02, -187500.02, -187500.02, 0.000, 0.000, 0.000, 17:55:25.822
16, 46248.89, 67241.11, -187500.02, -187500.02, -149145.70, -187500.02, -187500.02, -187500.02, 0.000, 0.000, 0.000, 17:55:25.822
17, 45962.85, 66404.82, -187500.02, -187500.02, -148993.75, -187500.02, -187500.02, -187500.02, 0.000, 0.000, 0.000, 17:55:25.822
18, 45451.00, 66349.19, -187500.02, -187500.02, -149081.53, -187500.02, -187500.02, -187500.02, 0.014, -0.018, 1.030, 17:55:25.822
19, 45798.25, 67308.56, -187500.02, -187500.02, -149281.02, -187500.02, -187500.02, -187500.02, 0.000, 0.000, 0.000, 17:55:25.822
20, 46257.34, 67576.98, -187500.02, -187500.02, -149356.61, -187500.02, -187500.02, -187500.02, 0.000, 0.000, 0.000, 17:55:25.823
21, 46250.99, 67252.89, -187500.02, -187500.02, -149278.94, -187500.02, -187500.02, -187500.02, 0.000, 0.000, 0.000, 17:55:25.823
22, 45961.53, 66407.45, -187500.02, -187500.02, -149105.63, -187500.02, -187500.02, -187500.02, 0.000, 0.000, 0.000, 17:55:25.823
23, 45436.73, 66327.37, -187500.02, -187500.02, -149162.86, -187500.02, -187500.02, -187500.02, 0.000, 0.000, 0.000, 17:55:25.823
24, 45776.64, 67281.27, -187500.02, -187500.02, -149331.22, -187500.02, -187500.02, -187500.02, 0.000, 0.000, 0.000, 17:55:25.823
25, 46233.60, 67549.72, -187500.02, -187500.02, -149350.63, -187500.02, -187500.02, -187500.02, 0.000, 0.000, 0.000, 17:55:25.823
26, 46231.65, 67232.84, -187500.02, -187500.02, -149279.45, -187500.02, -187500.02, -187500.02, 0.000, 0.000, 0.000, 17:55:25.823
27, 45948.28, 66395.88, -187500.02, -187500.02, -149123.66, -187500.02, -187500.02, -187500.02, 0.000, 0.000, 0.000, 17:55:25.823
28, 45431.06, 66319.97, -187500.02, -187500.02, -149205.11, -187500.02, -187500.02, -187500.02, 0.016, -0.020, 1.028, 17:55:25.823
29, 45765.02, 67272.96, -187500.02, -187500.02, -149399.45, -187500.02, -187500.02, -187500.02, 0.000, 0.000, 0.000, 17:55:25.824
30, 46218.46, 67540.47, -187500.02, -187500.02, -149488.08, -187500.02, -187500.02, -187500.02, 0.000, 0.000, 0.000, 17:55:25.824
31, 46225.73, 67235.30, -187500.02, -187500.02, -149388.13, -187500.02, -187500.02, -187500.02, 0.000, 0.000, 0.000, 17:55:25.824
32, 45949.08, 66397.06, -187500.02, -187500.02, -149182.00, -187500.02, -187500.02, -187500.02, 0.000, 0.000, 0.000, 17:55:25.824
33, 45432.91, 66310.59, -187500.02, -187500.02, -149269.03, -187500.02, -187500.02, -187500.02, 0.000, 0.000, 0.000, 17:55:25.824
34, 45774.56, 67274.08, -187500.02, -187500.02, -149519.58, -187500.02, -187500.02, -187500.02, 0.000, 0.000, 0.000, 17:55:25.824
35, 46233.46, 67545.98, -187500.02, -187500.02, -149603.27, -187500.02, -187500.02, -187500.02, 0.000, 0.000, 0.000, 17:55:25.824
36, 46216.93, 67218.89, -187500.02, -187500.02, -149529.19, -187500.02, -187500.02, -187500.02, 0.000, 0.000, 0.000, 17:55:25.824
37, 45926.93, 66368.32, -187500.02, -187500.02, -149305.02, -187500.02, -187500.02, -187500.02, 0.000, 0.000, 0.000, 17:55:25.825
38, 45402.00, 66276.30, -187500.02, -187500.02, -149365.08, -187500.02, -187500.02, -187500.02, 0.010, -0.010, 1.020, 17:55:25.825
39, 45727.78, 67232.13, -187500.02, -187500.02, -149506.70, -187500.02, -187500.02, -187500.02, 0.000, 0.000, 0.000, 17:55:25.825
40, 46201.10, 67517.64, -187500.02, -187500.02, -149541.84, -187500.02, -187500.02, -187500.02, 0.000, 0.000, 0.000, 17:55:25.825
41, 46205.66, 67212.79, -187500.02, -187500.02, -149482.06, -187500.02, -187500.02, -187500.02, 0.000, 0.000, 0.000, 17:55:25.825
42, 45923.98, 66371.67, -187500.02, -187500.02, -149246.03, -187500.02, -187500.02, -187500.02, 0.000, 0.000, 0.000, 17:55:25.825
43, 45409.22, 66276.32, -187500.02, -187500.02, -149301.56, -187500.02, -187500.02, -187500.02, 0.000, 0.000, 0.000, 17:55:25.825
44, 45754.87, 67253.23, -187500.02, -187500.02, -149509.83, -187500.02, -187500.02, -187500.02, 0.000, 0.000, 0.000, 17:55:25.825
45, 46221.77, 67538.32, -187500.02, -187500.02, -149548.05, -187500.02, -187500.02, -187500.02, 0.000, 0.000, 0.000, 17:55:25.825
46, 46227.25, 67233.82, -187500.02, -187500.02, -149504.36, -187500.02, -187500.02, -187500.02, 0.000, 0.000, 0.000, 17:55:25.826
47, 45955.77, 66403.95, -187500.02, -187500.02, -149346.59, -187500.02, -187500.02, -187500.02, 0.000, 0.000, 0.000, 17:55:25.826
48, 45430.21, 66294.55, -187500.02, -187500.02, -149403.22, -187500.02, -187500.02, -187500.02, 0.010, -0.012, 1.020, 17:55:25.826
49, 45757.68, 67258.59, -187500.02, -187500.02, -149619.69, -187500.02, -187500.02, -187500.02, 0.000, 0.000, 0.000, 17:55:25.826
50, 46227.32, 67549.85, -187500.02, -187500.02, -149698.30, -187500.02, -187500.02, -187500.02, 0.000, 0.000, 0.000, 17:55:25.826
51, 46232.97, 67249.98, -187500.02, -187500.02, -149640.47, -187500.02, -187500.02, -187500.02, 0.000, 0.000, 0.000, 17:55:25.827
52, 45955.74, 66407.27, -187500.02, -187500.02, -149431.52, -187500.02, -187500.02, -187500.02, 0.000, 0.000, 0.000, 17:55:25.827
53, 45425.85, 66279.65, -187500.02, -187500.02, -149512.09, -187500.02, -187500.02, -187500.02, 0.000, 0.000, 0.000, 17:55:25.827
54, 45740.63, 67236.41, -187500.02, -187500.02, -149692.63, -187500.02, -187500.02, -187500.02, 0.000, 0.000, 0.000, 17:55:25.827
55, 46214.60, 67531.32, -187500.02, -187500.02, -149740.72, -187500.02, -187500.02, -187500.02, 0.000, 0.000, 0.000, 17:55:25.827
56, 46207.27, 67213.28, -187500.02, -187500.02, -149612.20, -187500.02, -187500.02, -187500.02, 0.000, 0.000, 0.000, 17:55:25.827
57, 45939.02, 66376.84, -187500.02, -187500.02, -149393.31, -187500.02, -187500.02, -187500.02, 0.000, 0.000, 0.000, 17:55:25.828
58, 45416.89, 66255.09, -187500.02, -187500.02, -149475.44, -187500.02, -187500.02, -187500.02, 0.010, -0.012, 1.020, 17:55:25.828
59, 45738.86, 67225.48, -187500.02, -187500.02, -149697.50, -187500.02, -187500.02, -187500.02, 0.000, 0.000, 0.000, 17:55:25.828
60, 46220.81, 67532.17, -187500.02, -187500.02, -149764.30, -187500.02, -187500.02, -187500.02, 0.000, 0.000, 0.000, 17:55:25.828
61, 46231.23, 67237.98, -187500.02, -187500.02, -149717.72, -187500.02, -187500.02, -187500.02, 0.000, 0.000, 0.000, 17:55:25.828
62, 45963.14, 66406.20, -187500.02, -187500.02, -149577.52, -187500.02, -187500.02, -187500.02, 0.000, 0.000, 0.000, 17:55:25.829
63, 45423.50, 66258.75, -187500.02, -187500.02, -149630.19, -187500.02, -187500.02, -187500.02, 0.000, 0.000, 0.000, 17:55:25.829
64, 45742.38, 67228.19, -187500.02, -187500.02, -149835.78, -187500.02, -187500.02, -187500.02, 0.000, 0.000, 0.000, 17:55:25.829
65, 46222.82, 67533.18, -187500.02, -187500.02, -149908.83, -187500.02, -187500.02, -187500.02, 0.000, 0.000, 0.000, 17:55:25.829
66, 46226.20, 67229.80, -187500.02, -187500.02, -149830.36, -187500.02, -187500.02, -187500.02, 0.000, 0.000, 0.000, 17:55:25.829
67, 45957.06, 66394.60, -187500.02, -187500.02, -149634.91, -187500.02, -187500.02, -187500.02, 0.000, 0.000, 0.000, 17:55:25.829
68, 45418.61, 66245.02, -187500.02, -187500.02, -149651.70, -187500.02, -187500.02, -187500.02, 0.014, -0.008, 1.018, 17:55:25.830
69, 45729.48, 67206.24, -187500.02, -187500.02, -149802.89, -187500.02, -187500.02, -187500.02, 0.000, 0.000, 0.000, 17:55:25.830
70, 46216.39, 67518.67, -187500.02, -187500.02, -149846.69, -187500.02, -187500.02, -187500.02, 0.000, 0.000, 0.000, 17:55:25.830
71, 46220.28, 67218.91, -187500.02, -187500.02, -149756.02, -187500.02, -187500.02, -187500.02, 0.000, 0.000, 0.000, 17:55:25.830
72, 45968.17, 66401.11, -187500.02, -187500.02, -149586.45, -187500.02, -187500.02, -187500.02, 0.000, 0.000, 0.000, 17:55:25.830
73, 45449.59, 66265.50, -187500.02, -187500.02, -149691.23, -187500.02, -187500.02, -187500.02, 0.000, 0.000, 0.000, 17:55:25.830
74, 45754.55, 67226.83, -187500.02, -187500.02, -149859.36, -187500.02, -187500.02, -187500.02, 0.000, 0.000, 0.000, 17:55:25.831
75, 46248.17, 67550.39, -187500.02, -187500.02, -149945.23, -187500.02, -187500.02, -187500.02, 0.000, 0.000, 0.000, 17:55:25.831
76, 46258.83, 67259.86, -187500.02, -187500.02, -149907.44, -187500.02, -187500.02, -187500.02, 0.000, 0.000, 0.000, 17:55:25.831
77, 45989.14, 66422.09, -187500.02, -187500.02, -149692.72, -187500.02, -187500.02, -187500.02, 0.000, 0.000, 0.000, 17:55:25.831
78, 45449.92, 66260.76, -187500.02, -187500.02, -149760.48, -187500.02, -187500.02, -187500.02, 0.020, -0.008, 1.028, 17:55:25.831
79, 45746.82, 67218.33, -187500.02, -187500.02, -149985.77, -187500.02, -187500.02, -187500.02, 0.000, 0.000, 0.000, 17:55:25.831
80, 46234.22, 67534.74, -187500.02, -187500.02, -150040.91, -187500.02, -187500.02, -187500.02, 0.000, 0.000, 0.000, 17:55:25.832
81, 46254.63, 67260.55, -187500.02, -187500.02, -149993.61, -187500.02, -187500.02, -187500.02, 0.000, 0.000, 0.000, 17:55:25.832
82, 45990.79, 66424.20, -187500.02, -187500.02, -149802.03, -187500.02, -187500.02, -187500.02, 0.000, 0.000, 0.000, 17:55:25.832
83, 45437.99, 66243.93, -187500.02, -187500.02, -149797.23, -187500.02, -187500.02, -187500.02, 0.000, 0.000, 0.000, 17:55:25.832
84, 45729.63, 67205.01, -187500.02, -187500.02, -149952.70, -187500.02, -187500.02, -187500.02, 0.000, 0.000, 0.000, 17:55:25.832
85, 46222.98, 67532.55, -187500.02, -187500.02, -150003.95, -187500.02, -187500.02, -187500.02, 0.000, 0.000, 0.000, 17:55:25.832
86, 46247.28, 67254.41, -187500.02, -187500.02, -149958.14, -187500.02, -187500.02, -187500.02, 0.000, 0.000, 0.000, 17:55:25.833
87, 45995.33, 66434.97, -187500.02, -187500.02, -149782.77, -187500.02, -187500.02, -187500.02, 0.000, 0.000, 0.000, 17:55:25.833
88, 45462.87, 66270.55, -187500.02, -187500.02, -149883.02, -187500.02, -187500.02, -187500.02, 0.016, -0.008, 1.028, 17:55:25.833
89, 45758.58, 67240.05, -187500.02, -187500.02, -150094.50, -187500.02, -187500.02, -187500.02, 0.000, 0.000, 0.000, 17:55:25.833
90, 46255.66, 67571.35, -187500.02, -187500.02, -150179.44, -187500.02, -187500.02, -187500.02, 0.000, 0.000, 0.000, 17:55:25.833
91, 46270.97, 67286.03, -187500.02, -187500.02, -150116.36, -187500.02, -187500.02, -187500.02, 0.000, 0.000, 0.000, 17:55:25.833
92, 46013.21, 66460.63, -187500.02, -187500.02, -149957.22, -187500.02, -187500.02, -187500.02, 0.000, 0.000, 0.000, 17:55:25.833
93, 45470.11, 66271.49, -187500.02, -187500.02, -150027.08, -187500.02, -187500.02, -187500.02, 0.000, 0.000, 0.000, 17:55:25.833
94, 45757.80, 67230.02, -187500.02, -187500.02, -150232.16, -187500.02, -187500.02, -187500.02, 0.000, 0.000, 0.000, 17:55:25.834
95, 46244.57, 67556.91, -187500.02, -187500.02, -150264.05, -187500.02, -187500.02, -187500.02, 0.000, 0.000, 0.000, 17:55:25.834
96, 46257.71, 67274.08, -187500.02, -187500.02, -150171.95, -187500.02, -187500.02, -187500.02, 0.000, 0.000, 0.000, 17:55:25.834
97, 46006.30, 66453.95, -187500.02, -187500.02, -149970.97, -187500.02, -187500.02, -187500.02, 0.000, 0.000, 0.000, 17:55:25.834
98, 45472.36, 66271.49, -187500.02, -187500.02, -150041.69, -187500.02, -187500.02, -187500.02, 0.010, -0.016, 1.030, 17:55:25.834
99, 45754.78, 67227.41, -187500.02, -187500.02, -150241.88, -187500.02, -187500.02, -187500.02, 0.000, 0.000, 0.000, 17:55:25.834
100, 46243.10, 67554.48, -187500.02, -187500.02, -150276.50, -187500.02, -187500.02, -187500.02, 0.000, 0.000, 0.000, 17:55:25.834
101, 46253.80, 67268.53, -187500.02, -187500.02, -150187.00, -187500.02, -187500.02, -187500.02, 0.000, 0.000, 0.000, 17:55:25.834
102, 45993.88, 66441.59, -187500.02, -187500.02, -149961.11, -187500.02, -187500.02, -187500.02, 0.000, 0.000, 0.000, 17:55:25.834
103, 45456.20, 66247.51, -187500.02, -187500.02, -150018.91, -187500.02, -187500.02, -187500.02, 0.000, 0.000, 0.000, 17:55:25.835
104, 45743.27, 67214.15, -187500.02, -187500.02, -150238.00, -187500.02, -187500.02, -187500.02, 0.000, 0.000, 0.000, 17:55:25.835
105, 46245.04, 67562.02, -187500.02, -187500.02, -150342.77, -187500.02, -187500.02, -187500.02, 0.000, 0.000, 0.000, 17:55:26.297
106, 46267.82, 67289.55, -187500.02, -187500.02, -150290.73, -187500.02, -187500.02, -187500.02, 0.000, 0.000, 0.000, 17:55:26.297
107, 46016.07, 66467.18, -187500.02, -187500.02, -150107.19, -187500.02, -187500.02, -187500.02, 0.000, 0.000, 0.000, 17:55:26.297
108, 45461.39, 66249.70, -187500.02, -187500.02, -150142.03, -187500.02, -187500.02, -187500.02, 0.018, -0.010, 1.022, 17:55:26.297
109, 45742.98, 67213.68, -187500.02, -187500.02, -150369.92, -187500.02, -187500.02, -187500.02, 0.000, 0.000, 0.000, 17:55:26.297
110, 46246.70, 67561.72, -187500.02, -187500.02, -150451.69, -187500.02, -187500.02, -187500.02, 0.000, 0.000, 0.000, 17:55:26.297
111, 46269.00, 67287.45, -187500.02, -187500.02, -150398.16, -187500.02, -187500.02, -187500.02, 0.000, 0.000, 0.000, 17:55:26.298
112, 46013.72, 66461.97, -187500.02, -187500.02, -150193.53, -187500.02, -187500.02, -187500.02, 0.000, 0.000, 0.000, 17:55:26.298
113, 45459.02, 66239.30, -187500.02, -187500.02, -150213.44, -187500.02, -187500.02, -187500.02, 0.000, 0.000, 0.000, 17:55:26.298
114, 45728.63, 67197.39, -187500.02, -187500.02, -150368.66, -187500.02, -187500.02, -187500.02, 0.000, 0.000, 0.000, 17:55:26.298
115, 46229.91, 67549.09, -187500.02, -187500.02, -150431.30, -187500.02, -187500.02, -187500.02, 0.000, 0.000, 0.000, 17:55:26.298
116, 46245.42, 67272.52, -187500.02, -187500.02, -150355.53, -187500.02, -187500.02, -187500.02, 0.000, 0.000, 0.000, 17:55:26.298
117, 45997.81, 66450.15, -187500.02, -187500.02, -150140.97, -187500.02, -187500.02, -187500.02, 0.000, 0.000, 0.000, 17:55:26.298
118, 45446.95, 66223.39, -187500.02, -187500.02, -150170.50, -187500.02, -187500.02, -187500.02, 0.018, -0.010, 1.030, 17:55:26.299
119, 45712.96, 67178.21, -187500.02, -187500.02, -150341.72, -187500.02, -187500.02, -187500.02, 0.000, 0.000, 0.000, 17:55:26.299
120, 46222.51, 67535.41, -187500.02, -187500.02, -150429.73, -187500.02, -187500.02, -187500.02, 0.000, 0.000, 0.000, 17:55:26.299
121, 46248.08, 67268.20, -187500.02, -187500.02, -150375.64, -187500.02, -187500.02, -187500.02, 0.000, 0.000, 0.000, 17:55:26.299
122, 46014.89, 66460.81, -187500.02, -187500.02, -150226.78, -187500.02, -187500.02, -187500.02, 0.000, 0.000, 0.000, 17:55:26.299
123, 45455.27, 66218.90, -187500.02, -187500.02, -150286.89, -187500.02, -187500.02, -187500.02, 0.000, 0.000, 0.000, 17:55:26.299
124, 45711.53, 67169.90, -187500.02, -187500.02, -150502.05, -187500.02, -187500.02, -187500.02, 0.000, 0.000, 0.000, 17:55:26.299
125, 46214.82, 67526.14, -187500.02, -187500.02, -150594.25, -187500.02, -187500.02, -187500.02, 0.000, 0.000, 0.000, 17:55:26.300
126, 46228.05, 67245.20, -187500.02, -187500.02, -150495.63, -187500.02, -187500.02, -187500.02, 0.000, 0.000, 0.000, 17:55:26.300
127, 45981.83, 66423.86, -187500.02, -187500.02, -150263.22, -187500.02, -187500.02, -187500.02, 0.012, -0.006, 1.024, 17:55:26.300
128, 45423.84, 66177.32, -187500.02, -187500.02, -150292.70, -187500.02, -187500.02, -187500.02, 0.000, 0.000, 0.000, 17:55:26.300
129, 45679.32, 67130.40, -187500.02, -187500.02, -150457.16, -187500.02, -187500.02, -187500.02, 0.000, 0.000, 0.000, 17:55:26.300
130, 46195.87, 67499.45, -187500.02, -187500.02, -150521.02, -187500.02, -187500.02, -187500.02, 0.000, 0.000, 0.000, 17:55:26.300
131, 46228.14, 67245.09, -187500.02, -187500.02, -150454.22, -187500.02, -187500.02, -187500.02, 0.000, 0.000, 0.000, 17:55:26.300
132, 45990.23, 66435.06, -187500.02, -187500.02, -150250.14, -187500.02, -187500.02, -187500.02, 0.000, 0.000, 0.000, 17:55:26.300
133, 45448.56, 66199.78, -187500.02, -187500.02, -150299.63, -187500.02, -187500.02, -187500.02, 0.000, 0.000, 0.000, 17:55:26.300
134, 45711.66, 67165.05, -187500.02, -187500.02, -150498.63, -187500.02, -187500.02, -187500.02, 0.000, 0.000, 0.000, 17:55:26.301
135, 46223.59, 67533.76, -187500.02, -187500.02, -150560.70, -187500.02, -187500.02, -187500.02, 0.000, 0.000, 0.000, 17:55:26.301
136, 46254.09, 67277.63, -187500.02, -187500.02, -150509.11, -187500.02, -187500.02, -187500.02, 0.000, 0.000, 0.000, 17:55:26.301
137, 46015.64, 66463.78, -187500.02, -187500.02, -150329.92, -187500.02, -187500.02, -187500.02, 0.016, -0.006, 1.020, 17:55:26.301
138, 45466.40, 66210.45, -187500.02, -187500.02, -150408.66, -187500.02, -187500.02, -187500.02, 0.000, 0.000, 0.000, 17:55:26.301
139, 45705.58, 67156.24, -187500.02, -187500.02, -150620.47, -187500.02, -187500.02, -187500.02, 0.000, 0.000, 0.000, 17:55:26.301
140, 46209.17, 67516.26, -187500.02, -187500.02, -150630.44, -187500.02, -187500.02, -187500.02, 0.000, 0.000, 0.000, 17:55:26.301
141, 46249.36, 67272.94, -187500.02, -187500.02, -150588.25, -187500.02, -187500.02, -187500.02, 0.000, 0.000, 0.000, 17:55:26.301
142, 46009.57, 66461.52, -187500.02, -187500.02, -150401.73, -187500.02, -187500.02, -187500.02, 0.000, 0.000, 0.000, 17:55:26.302
143, 45442.01, 66188.90, -187500.02, -187500.02, -150401.34, -187500.02, -187500.02, -187500.02, 0.000, 0.000, 0.000, 17:55:26.302
144, 45687.77, 67142.98, -187500.02, -187500.02, -150569.30, -187500.02, -187500.02, -187500.02, 0.000, 0.000, 0.000, 17:55:26.302
145, 46204.72, 67516.57, -187500.02, -187500.02, -150677.69, -187500.02, -187500.02, -187500.02, 0.000, 0.000, 0.000, 17:55:26.302
146, 46231.99, 67254.85, -187500.02, -187500.02, -150605.88, -187500.02, -187500.02, -187500.02, 0.000, 0.000, 0.000, 17:55:26.302
147, 45996.40, 66445.32, -187500.02, -187500.02, -150377.41, -187500.02, -187500.02, -187500.02, 0.014, 0.000, 1.028, 17:55:26.302
148, 45443.84, 66176.43, -187500.02, -187500.02, -150418.94, -187500.02, -187500.02, -187500.02, 0.000, 0.000, 0.000, 17:55:26.302
149, 45687.55, 67134.94, -187500.02, -187500.02, -150607.56, -187500.02, -187500.02, -187500.02, 0.000, 0.000, 0.000, 17:55:26.302
150, 46213.32, 67523.81, -187500.02, -187500.02, -150689.64, -187500.02, -187500.02, -187500.02, 0.000, 0.000, 0.000, 17:55:26.302
151, 46249.54, 67273.01, -187500.02, -187500.02, -150677.27, -187500.02, -187500.02, -187500.02, 0.000, 0.000, 0.000, 17:55:26.303
152, 46010.30, 66459.87, -187500.02, -187500.02, -150478.11, -187500.02, -187500.02, -187500.02, 0.000, 0.000, 0.000, 17:55:26.303
153, 45451.45, 66178.87, -187500.02, -187500.02, -150498.63, -187500.02, -187500.02, -187500.02, 0.000, 0.000, 0.000, 17:55:26.303
154, 45685.87, 67132.50, -187500.02, -187500.02, -150719.03, -187500.02, -187500.02, -187500.02, 0.000, 0.000, 0.000, 17:55:26.303
155, 46200.56, 67512.37, -187500.02, -187500.02, -150798.25, -187500.02, -187500.02, -187500.02, 0.000, 0.000, 0.000, 17:55:26.303
156, 46236.82, 67261.00, -187500.02, -187500.02, -150758.58, -187500.02, -187500.02, -187500.02, 0.000, 0.000, 0.000, 17:55:26.303
157, 46010.13, 66463.16, -187500.02, -187500.02, -150584.95, -187500.02, -187500.02, -187500.02, 0.016, -0.010, 1.028, 17:55:26.303
158, 45451.46, 66179.78, -187500.02, -187500.02, -150597.53, -187500.02, -187500.02, -187500.02, 0.000, 0.000, 0.000, 17:55:26.303
159, 45672.50, 67118.29, -187500.02, -187500.02, -150778.89, -187500.02, -187500.02, -187500.02, 0.000, 0.000, 0.000, 17:55:26.303
160, 46181.59, 67491.65, -187500.02, -187500.02, -150815.53, -187500.02, -187500.02, -187500.02, 0.000, 0.000, 0.000, 17:55:26.304
161, 46222.38, 67248.20, -187500.02, -187500.02, -150734.38, -187500.02, -187500.02, -187500.02, 0.000, 0.000, 0.000, 17:55:26.304
162, 46000.96, 66450.82, -187500.02, -187500.02, -150499.83, -187500.02, -187500.02, -187500.02, 0.000, 0.000, 0.000, 17:55:26.304
163, 45442.57, 66158.50, -187500.02, -187500.02, -150552.16, -187500.02, -187500.02, -187500.02, 0.000, 0.000, 0.000, 17:55:26.304
164, 45669.15, 67109.63, -187500.02, -187500.02, -150739.59, -187500.02, -187500.02, -187500.02, 0.000, 0.000, 0.000, 17:55:26.304
165, 46193.77, 67501.35, -187500.02, -187500.02, -150819.38, -187500.02, -187500.02, -187500.02, 0.000, 0.000, 0.000, 17:55:26.304
166, 46230.76, 67253.89, -187500.02, -187500.02, -150784.89, -187500.02, -187500.02, -187500.02, 0.000, 0.000, 0.000, 17:55:26.304
167, 46011.15, 66461.23, -187500.02, -187500.02, -150631.47, -187500.02, -187500.02, -187500.02, 0.012, -0.010, 1.026, 17:55:26.304
168, 45456.05, 66164.60, -187500.02, -187500.02, -150673.42, -187500.02, -187500.02, -187500.02, 0.000, 0.000, 0.000, 17:55:26.305
169, 45669.84, 67102.84, -187500.02, -187500.02, -150876.08, -187500.02, -187500.02, -187500.02, 0.000, 0.000, 0.000, 17:55:26.305
170, 46190.41, 67495.18, -187500.02, -187500.02, -150932.58, -187500.02, -187500.02, -187500.02, 0.000, 0.000, 0.000, 17:55:26.305
171, 46232.82, 67254.63, -187500.02, -187500.02, -150875.81, -187500.02, -187500.02, -187500.02, 0.000, 0.000, 0.000, 17:55:26.305
172, 46014.04, 66460.77, -187500.02, -187500.02, -150704.59, -187500.02, -187500.02, -187500.02, 0.000, 0.000, 0.000, 17:55:26.305
173, 45451.80, 66155.08, -187500.02, -187500.02, -150723.22, -187500.02, -187500.02, -187500.02, 0.000, 0.000, 0.000, 17:55:26.305
174, 45665.60, 67094.50, -187500.02, -187500.02, -150912.72, -187500.02, -187500.02, -187500.02, 0.000, 0.000, 0.000, 17:55:26.305
175, 46191.20, 67491.83, -187500.02, -187500.02, -150929.30, -187500.02, -187500.02, -187500.02, 0.000, 0.000, 0.000, 17:55:26.305
176, 46232.52, 67255.63, -187500.02, -187500.02, -150866.63, -187500.02, -187500.02, -187500.02, 0.000, 0.000, 0.000, 17:55:26.305
177, 46016.29, 66463.85, -187500.02, -187500.02, -150669.66, -187500.02, -187500.02, -187500.02, 0.014, -0.008, 1.024, 17:55:26.306
178, 45460.77, 66150.90, -187500.02, -187500.02, -150719.34, -187500.02, -187500.02, -187500.02, 0.000, 0.000, 0.000, 17:55:26.306
179, 45667.99, 67088.38, -187500.02, -187500.02, -150934.70, -187500.02, -187500.02, -187500.02, 0.000, 0.000, 0.000, 17:55:26.306
180, 46199.69, 67498.66, -187500.02, -187500.02, -150980.08, -187500.02, -187500.02, -187500.02, 0.000, 0.000, 0.000, 17:55:26.306
181, 46252.84, 67272.89, -187500.02, -187500.02, -150955.16, -187500.02, -187500.02, -187500.02, 0.000, 0.000, 0.000, 17:55:26.306
182, 46031.88, 66482.78, -187500.02, -187500.02, -150784.34, -187500.02, -187500.02, -187500.02, 0.000, 0.000, 0.000, 17:55:26.306
183, 45465.12, 66157.18, -187500.02, -187500.02, -150816.48, -187500.02, -187500.02, -187500.02, 0.000, 0.000, 0.000, 17:55:26.306
184, 45675.70, 67103.71, -187500.02, -187500.02, -151044.77, -187500.02, -187500.02, -187500.02, 0.000, 0.000, 0.000, 17:55:26.306
185, 46200.20, 67505.57, -187500.02, -187500.02, -151107.27, -187500.02, -187500.02, -187500.02, 0.000, 0.000, 0.000, 17:55:26.307
186, 46244.53, 67269.79, -187500.02, -187500.02, -151051.03, -187500.02, -187500.02, -187500.02, 0.000, 0.000, 0.000, 17:55:26.307
187, 46027.70, 66475.85, -187500.02, -187500.02, -150875.56, -187500.02, -187500.02, -187500.02, 0.018, -0.004, 1.024, 17:55:26.307
188, 45452.16, 66132.53, -187500.02, -187500.02, -150903.59, -187500.02, -187500.02, -187500.02, 0.000, 0.000, 0.000, 17:55:26.307
189, 45634.06, 67057.35, -187500.02, -187500.02, -151042.38, -187500.02, -187500.02, -187500.02, 0.000, 0.000, 0.000, 17:55:26.307
190, 46162.90, 67469.66, -187500.02, -187500.02, -151071.97, -187500.02, -187500.02, -187500.02, 0.000, 0.000, 0.000, 17:55:26.307
191, 46216.32, 67244.46, -187500.02, -187500.02, -151006.84, -187500.02, -187500.02, -187500.02, 0.000, 0.000, 0.000, 17:55:26.308
192, 46015.91, 66470.29, -187500.02, -187500.02, -150814.53, -187500.02, -187500.02, -187500.02, 0.000, 0.000, 0.000, 17:55:26.308
193, 45462.11, 66144.15, -187500.02, -187500.02, -150842.55, -187500.02, -187500.02, -187500.02, 0.000, 0.000, 0.000, 17:55:26.308
194, 45664.63, 67091.87, -187500.02, -187500.02, -151068.95, -187500.02, -187500.02, -187500.02, 0.000, 0.000, 0.000, 17:55:26.308
195, 46200.61, 67515.12, -187500.02, -187500.02, -151165.20, -187500.02, -187500.02, -187500.02, 0.000, 0.000, 0.000, 17:55:26.308
196, 46255.97, 67291.80, -187500.02, -187500.02, -151127.83, -187500.02, -187500.02, -187500.02, 0.000, 0.000, 0.000, 17:55:26.308
197, 46040.93, 66498.56, -187500.02, -187500.02, -150937.17, -187500.02, -187500.02, -187500.02, 0.014, -0.006, 1.032, 17:55:26.308
198, 45480.95, 66159.87, -187500.02, -187500.02, -150963.61, -187500.02, -187500.02, -187500.02, 0.000, 0.000, 0.000, 17:55:26.309
199, 45670.09, 67093.88, -187500.02, -187500.02, -151161.78, -187500.02, -187500.02, -187500.02, 0.000, 0.000, 0.000, 17:55:26.309
200, 46199.54, 67513.35, -187500.02, -187500.02, -151231.81, -187500.02, -187500.02, -187500.02, 0.000, 0.000, 0.000, 17:55:26.309
201, 46251.93, 67287.66, -187500.02, -187500.02, -151174.97, -187500.02, -187500.02, -187500.02, 0.000, 0.000, 0.000, 17:55:26.309
202, 46039.23, 66499.84, -187500.02, -187500.02, -150972.45, -187500.02, -187500.02, -187500.02, 0.000, 0.000, 0.000, 17:55:26.309
203, 45468.95, 66142.63, -187500.02, -187500.02, -150994.95, -187500.02, -187500.02, -187500.02, 0.000, 0.000, 0.000, 17:55:26.309
204, 45653.10, 67076.71, -187500.02, -187500.02, -151185.86, -187500.02, -187500.02, -187500.02, 0.000, 0.000, 0.000, 17:55:26.309
205, 46189.34, 67501.80, -187500.02, -187500.02, -151255.61, -187500.02, -187500.02, -187500.02, 0.000, 0.000, 0.000, 17:55:26.309
206, 46243.43, 67278.10, -187500.02, -187500.02, -151209.70, -187500.02, -187500.02, -187500.02, 0.000, 0.000, 0.000, 17:55:26.310
207, 46037.20, 66495.97, -187500.02, -187500.02, -150999.48, -187500.02, -187500.02, -187500.02, 0.010, -0.006, 1.032, 17:55:26.310
208, 45476.48, 66145.00, -187500.02, -187500.02, -151006.45, -187500.02, -187500.02, -187500.02, 0.000, 0.000, 0.000, 17:55:26.310
209, 45657.23, 67076.84, -187500.02, -187500.02, -151216.05, -187500.02, -187500.02, -187500.02, 0.000, 0.000, 0.000, 17:55:26.310
210, 46196.96, 67507.02, -187500.02, -187500.02, -151272.22, -187500.02, -187500.02, -187500.02, 0.000, 0.000, 0.000, 17:55:26.310
211, 46258.01, 67289.59, -187500.02, -187500.02, -151243.83, -187500.02, -187500.02, -187500.02, 0.000, 0.000, 0.000, 17:55:26.310
212, 46053.93, 66508.58, -187500.02, -187500.02, -151068.84, -187500.02, -187500.02, -187500.02, 0.000, 0.000, 0.000, 17:55:26.310
213, 45488.79, 66144.82, -187500.02, -187500.02, -151127.05, -187500.02, -187500.02, -187500.02, 0.000, 0.000, 0.000, 17:55:26.310
214, 45659.54, 67073.25, -187500.02, -187500.02, -151357.81, -187500.02, -187500.02, -187500.02, 0.000, 0.000, 0.000, 17:55:26.310
215, 46196.56, 67507.14, -187500.02, -187500.02, -151411.45, -187500.02, -187500.02, -187500.02, 0.000, 0.000, 0.000, 17:55:26.311
216, 46252.98, 67285.41, -187500.02, -187500.02, -151346.14, -187500.02, -187500.02, -187500.02, 0.000, 0.000, 0.000, 17:55:26.311
217, 46046.87, 66505.76, -187500.02, -187500.02, -151146.05, -187500.02, -187500.02, -187500.02, 0.008, -0.008, 1.028, 17:55:26.311
218, 45479.50, 66129.65, -187500.02, -187500.02, -151162.31, -187500.02, -187500.02, -187500.02, 0.000, 0.000, 0.000, 17:55:26.311
219, 45642.46, 67047.59, -187500.02, -187500.02, -151335.63, -187500.02, -187500.02, -187500.02, 0.000, 0.000, 0.000, 17:55:26.311
220, 46189.75, 67496.79, -187500.02, -187500.02, -151387.91, -187500.02, -187500.02, -187500.02, 0.000, 0.000, 0.000, 17:55:26.311
221, 46260.93, 67292.45, -187500.02, -187500.02, -151345.47, -187500.02, -187500.02, -187500.02, 0.000, 0.000, 0.000, 17:55:26.311
222, 46058.94, 66514.14, -187500.02, -187500.02, -151122.16, -187500.02, -187500.02, -187500.02, 0.000, 0.000, 0.000, 17:55:26.311
223, 45497.20, 66137.65, -187500.02, -187500.02, -151123.52, -187500.02, -187500.02, -187500.02, 0.000, 0.000, 0.000, 17:55:26.312
224, 45671.00, 67066.38, -187500.02, -187500.02, -151364.53, -187500.02, -187500.02, -187500.02, 0.000, 0.000, 0.000, 17:55:26.312
225, 46211.49, 67509.91, -187500.02, -187500.02, -151453.42, -187500.02, -187500.02, -187500.02, 0.000, 0.000, 0.000, 17:55:26.777
226, 46268.91, 67293.34, -187500.02, -187500.02, -151402.64, -187500.02, -187500.02, -187500.02, 0.000, 0.000, 0.000, 17:55:26.778
227, 46073.02, 66526.03, -187500.02, -187500.02, -151248.23, -187500.02, -187500.02, -187500.02, 0.012, -0.010, 1.022, 17:55:26.778
228, 45502.74, 66139.52, -187500.02, -187500.02, -151268.95, -187500.02, -187500.02, -187500.02, 0.000, 0.000, 0.000, 17:55:26.778
229, 45660.66, 67056.02, -187500.02, -187500.02, -151459.30, -187500.02, -187500.02, -187500.02, 0.000, 0.000, 0.000, 17:55:26.778
230, 46205.37, 67510.96, -187500.02, -187500.02, -151537.56, -187500.02, -187500.02, -187500.02, 0.000, 0.000, 0.000, 17:55:26.778
231, 46269.79, 67305.34, -187500.02, -187500.02, -151508.59, -187500.02, -187500.02, -187500.02, 0.000, 0.000, 0.000, 17:55:26.778
232, 46067.12, 66526.16, -187500.02, -187500.02, -151326.61, -187500.02, -187500.02, -187500.02, 0.000, 0.000, 0.000, 17:55:26.779
233, 45492.04, 66124.55, -187500.02, -187500.02, -151304.52, -187500.02, -187500.02, -187500.02, 0.000, 0.000, 0.000, 17:55:26.779
234, 45644.47, 67039.49, -187500.02, -187500.02, -151473.50, -187500.02, -187500.02, -187500.02, 0.000, 0.000, 0.000, 17:55:26.779
235, 46196.34, 67500.37, -187500.02, -187500.02, -151533.11, -187500.02, -187500.02, -187500.02, 0.000, 0.000, 0.000, 17:55:26.779
236, 46265.47, 67295.27, -187500.02, -187500.02, -151483.56, -187500.02, -187500.02, -187500.02, 0.000, 0.000, 0.000, 17:55:26.779
237, 46069.25, 66524.84, -187500.02, -187500.02, -151274.19, -187500.02, -187500.02, -187500.02, 0.012, -0.012, 1.022, 17:55:26.779
238, 45509.34, 66138.05, -187500.02, -187500.02, -151290.27, -187500.02, -187500.02, -187500.02, 0.000, 0.000, 0.000, 17:55:26.780
239, 45663.92, 67060.35, -187500.02, -187500.02, -151514.67, -187500.02, -187500.02, -187500.02, 0.000, 0.000, 0.000, 17:55:26.780
240, 46213.79, 67521.63, -187500.02, -187500.02, -151596.16, -187500.02, -187500.02, -187500.02, 0.000, 0.000, 0.000, 17:55:26.780
241, 46280.87, 67312.79, -187500.02, -187500.02, -151566.77, -187500.02, -187500.02, -187500.02, 0.000, 0.000, 0.000, 17:55:26.780
242, 46092.52, 66552.63, -187500.02, -187500.02, -151389.33, -187500.02, -187500.02, -187500.02, 0.000, 0.000, 0.000, 17:55:26.780
243, 45534.10, 66155.88, -187500.02, -187500.02, -151423.67, -187500.02, -187500.02, -187500.02, 0.000, 0.000, 0.000, 17:55:26.780
244, 45681.36, 67070.12, -187500.02, -187500.02, -151637.33, -187500.02, -187500.02, -187500.02, 0.000, 0.000, 0.000, 17:55:26.781
245, 46226.00, 67527.86, -187500.02, -187500.02, -151717.31, -187500.02, -187500.02, -187500.02, 0.000, 0.000, 0.000, 17:55:26.781
246, 46286.93, 67317.55, -187500.02, -187500.02, -151671.33, -187500.02, -187500.02, -187500.02, 0.000, 0.000, 0.000, 17:55:26.781
247, 46083.91, 66545.50, -187500.02, -187500.02, -151484.14, -187500.02, -187500.02, -187500.02, 0.014, -0.014, 1.020, 17:55:26.781
248, 45513.09, 66128.17, -187500.02, -187500.02, -151461.09, -187500.02, -187500.02, -187500.02, 0.000, 0.000, 0.000, 17:55:26.781
249, 45655.14, 67038.63, -187500.02, -187500.02, -151642.16, -187500.02, -187500.02, -187500.02, 0.000, 0.000, 0.000, 17:55:26.781
250, 46199.80, 67500.66, -187500.02, -187500.02, -151694.53, -187500.02, -187500.02, -187500.02, 0.000, 0.000, 0.000, 17:55:26.782
251, 46268.76, 67301.10, -187500.02, -187500.02, -151626.05, -187500.02, -187500.02, -187500.02, 0.000, 0.000, 0.000, 17:55:26.782
252, 46082.01, 66547.18, -187500.02, -187500.02, -151447.25, -187500.02, -187500.02, -187500.02, 0.000, 0.000, 0.000, 17:55:26.782
253, 45521.56, 66135.77, -187500.02, -187500.02, -151471.63, -187500.02, -187500.02, -187500.02, 0.000, 0.000, 0.000, 17:55:26.782
254, 45660.16, 67046.49, -187500.02, -187500.02, -151684.66, -187500.02, -187500.02, -187500.02, 0.000, 0.000, 0.000, 17:55:26.782
255, 46215.45, 67521.33, -187500.02, -187500.02, -151760.73, -187500.02, -187500.02, -187500.02, 0.000, 0.000, 0.000, 17:55:26.783
0, 46301.84, 67335.27, -187500.02, -187500.02, -151747.44, -187500.02, -187500.02, -187500.02, 0.016, -0.012, 1.026, 17:55:26.783
1, 46113.17, 66576.26, -187500.02, -187500.02, -151600.77, -187500.02, -187500.02, -187500.02, 0.000, 0.000, 0.000, 17:55:26.783
2, 45542.35, 66152.13, -187500.02, -187500.02, -151604.14, -187500.02, -187500.02, -187500.02, 0.000, 0.000, 0.000, 17:55:26.783
3, 45669.71, 67056.08, -187500.02, -187500.02, -151812.28, -187500.02, -187500.02, -187500.02, 0.000, 0.000, 0.000, 17:55:26.783
4, 46218.33, 67526.88, -187500.02, -187500.02, -151843.53, -187500.02, -187500.02, -187500.02, 0.000, 0.000, 0.000, 17:55:26.783
5, 46293.64, 67334.09, -187500.02, -187500.02, -151794.61, -187500.02, -187500.02, -187500.02, 0.000, 0.000, 0.000, 17:55:26.784
6, 46107.09, 66580.30, -187500.02, -187500.02, -151608.19, -187500.02, -187500.02, -187500.02, 0.000, 0.000, 0.000, 17:55:26.784
7, 45539.44, 66149.29, -187500.02, -187500.02, -151624.33, -187500.02, -187500.02, -187500.02, 0.000, 0.000, 0.000, 17:55:26.784
8, 45655.43, 67041.17, -187500.02, -187500.02, -151794.47, -187500.02, -187500.02, -187500.02, 0.000, 0.000, 0.000, 17:55:26.784
9, 46211.05, 67524.02, -187500.02, -187500.02, -151837.88, -187500.02, -187500.02, -187500.02, 0.000, 0.000, 0.000, 17:55:26.784
10, 46293.52, 67336.80, -187500.02, -187500.02, -151804.92, -187500.02, -187500.02, -187500.02, 0.014, -0.012, 1.022, 17:55:26.785
11, 46099.82, 66571.72, -187500.02, -187500.02, -151595.03, -187500.02, -187500.02, -187500.02, 0.000, 0.000, 0.000, 17:55:26.785
12, 45533.88, 66137.78, -187500.02, -187500.02, -151582.03, -187500.02, -187500.02, -187500.02, 0.000, 0.000, 0.000, 17:55:26.785
13, 45656.83, 67037.55, -187500.02, -187500.02, -151774.36, -187500.02, -187500.02, -187500.02, 0.000, 0.000, 0.000, 17:55:26.785
14, 46222.76, 67529.49, -187500.02, -187500.02, -151880.05, -187500.02, -187500.02, -187500.02, 0.000, 0.000, 0.000, 17:55:26.785
15, 46306.42, 67348.73, -187500.02, -187500.02, -151882.02, -187500.02, -187500.02, -187500.02, 0.000, 0.000, 0.000, 17:55:26.785
16, 46112.50, 66588.95, -187500.02, -187500.02, -151715.08, -187500.02, -187500.02, -187500.02, 0.000, 0.000, 0.000, 17:55:26.786
17, 45530.79, 66135.28, -187500.02, -187500.02, -151700.81, -187500.02, -187500.02, -187500.02, 0.000, 0.000, 0.000, 17:55:26.786
18, 45646.53, 67028.72, -187500.02, -187500.02, -151909.36, -187500.02, -187500.02, -187500.02, 0.000, 0.000, 0.000, 17:55:26.786
19, 46203.85, 67515.12, -187500.02, -187500.02, -152004.34, -187500.02, -187500.02, -187500.02, 0.000, 0.000, 0.000, 17:55:26.786
20, 46275.69, 67319.23, -187500.02, -187500.02, -151945.30, -187500.02, -187500.02, -187500.02, 0.014, -0.010, 1.024, 17:55:26.786
21, 46088.54, 66569.91, -187500.02, -187500.02, -151760.05, -187500.02, -187500.02, -187500.02, 0.000, 0.000, 0.000, 17:55:26.787
22, 45522.68, 66122.34, -187500.02, -187500.02, -151779.22, -187500.02, -187500.02, -187500.02, 0.000, 0.000, 0.000, 17:55:26.787
23, 45628.02, 67007.71, -187500.02, -187500.02, -151950.39, -187500.02, -187500.02, -187500.02, 0.000, 0.000, 0.000, 17:55:26.787
24, 46176.07, 67493.91, -187500.02, -187500.02, -152005.73, -187500.02, -187500.02, -187500.02, 0.000, 0.000, 0.000, 17:55:26.787
25, 46258.48, 67303.73, -187500.02, -187500.02, -151968.20, -187500.02, -187500.02, -187500.02, 0.000, 0.000, 0.000, 17:55:26.787
26, 46077.94, 66557.37, -187500.02, -187500.02, -151774.95, -187500.02, -187500.02, -187500.02, 0.000, 0.000, 0.000, 17:55:26.787
27, 45513.34, 66108.21, -187500.02, -187500.02, -151770.22, -187500.02, -187500.02, -187500.02, 0.000, 0.000, 0.000, 17:55:26.788
28, 45631.33, 67008.16, -187500.02, -187500.02, -151970.27, -187500.02, -187500.02, -187500.02, 0.000, 0.000, 0.000, 17:55:26.788
29, 46202.53, 67517.22, -187500.02, -187500.02, -152092.47, -187500.02, -187500.02, -187500.02, 0.000, 0.000, 0.000, 17:55:26.788
30, 46294.21, 67342.41, -187500.02, -187500.02, -152110.59, -187500.02, -187500.02, -187500.02, 0.018, -0.006, 1.022, 17:55:26.788
31, 46100.09, 66584.28, -187500.02, -187500.02, -151912.17, -187500.02, -187500.02, -187500.02, 0.000, 0.000, 0.000, 17:55:26.788
32, 45526.99, 66114.91, -187500.02, -187500.02, -151888.17, -187500.02, -187500.02, -187500.02, 0.000, 0.000, 0.000, 17:55:26.789
33, 45629.16, 66996.52, -187500.02, -187500.02, -152086.30, -187500.02, -187500.02, -187500.02, 0.000, 0.000, 0.000, 17:55:26.789
34, 46190.73, 67497.08, -187500.02, -187500.02, -152121.91, -187500.02, -187500.02, -187500.02, 0.000, 0.000, 0.000, 17:55:26.789
35, 46273.21, 67311.59, -187500.02, -187500.02, -152056.94, -187500.02, -187500.02, -187500.02, 0.000, 0.000, 0.000, 17:55:26.789
36, 46084.96, 66560.45, -187500.02, -187500.02, -151881.27, -187500.02, -187500.02, -187500.02, 0.000, 0.000, 0.000, 17:55:26.789
37, 45512.38, 66091.73, -187500.02, -187500.02, -151871.27, -187500.02, -187500.02, -187500.02, 0.000, 0.000, 0.000, 17:55:26.789
38, 45608.02, 66975.86, -187500.02, -187500.02, -152039.84, -187500.02, -187500.02, -187500.02, 0.000, 0.000, 0.000, 17:55:26.790
39, 46179.02, 67486.87, -187500.02, -187500.02, -152099.97, -187500.02, -187500.02, -187500.02, 0.000, 0.000, 0.000, 17:55:26.790
40, 46273.05, 67314.00, -187500.02, -187500.02, -152047.11, -187500.02, -187500.02, -187500.02, 0.022, -0.004, 1.022, 17:55:26.790
41, 46092.00, 66568.25, -187500.02, -187500.02, -151869.39, -187500.02, -187500.02, -187500.02, 0.000, 0.000, 0.000, 17:55:26.790
42, 45525.88, 66097.88, -187500.02, -187500.02, -151854.14, -187500.02, -187500.02, -187500.02, 0.000, 0.000, 0.000, 17:55:26.790
43, 45622.32, 66982.86, -187500.02, -187500.02, -152050.48, -187500.02, -187500.02, -187500.02, 0.000, 0.000, 0.000, 17:55:26.790
44, 46189.90, 67496.92, -187500.02, -187500.02, -152151.36, -187500.02, -187500.02, -187500.02, 0.000, 0.000, 0.000, 17:55:26.791
45, 46283.96, 67323.81, -187500.02, -187500.02, -152143.52, -187500.02, -187500.02, -187500.02, 0.000, 0.000, 0.000, 17:55:26.791
46, 46105.90, 66581.64, -187500.02, -187500.02, -151984.03, -187500.02, -187500.02, -187500.02, 0.000, 0.000, 0.000, 17:55:26.791
47, 45535.40, 66102.87, -187500.02, -187500.02, -151969.08, -187500.02, -187500.02, -187500.02, 0.000, 0.000, 0.000, 17:55:26.791
48, 45632.83, 66990.10, -187500.02, -187500.02, -152190.70, -187500.02, -187500.02, -187500.02, 0.000, 0.000, 0.000, 17:55:26.791
49, 46197.30, 67506.06, -187500.02, -187500.02, -152301.47, -187500.02, -187500.02, -187500.02, 0.000, 0.000, 0.000, 17:55:26.792
50, 46289.21, 67328.34, -187500.02, -187500.02, -152255.98, -187500.02, -187500.02, -187500.02, 0.018, -0.010, 1.022, 17:55:26.792
51, 46108.43, 66583.01, -187500.02, -187500.02, -152070.20, -187500.02, -187500.02, -187500.02, 0.000, 0.000, 0.000, 17:55:26.792
52, 45526.23, 66087.98, -187500.02, -187500.02, -152003.39, -187500.02, -187500.02, -187500.02, 0.000, 0.000, 0.000, 17:55:26.792
53, 45611.04, 66964.64, -187500.02, -187500.02, -152179.14, -187500.02, -187500.02, -187500.02, 0.000, 0.000, 0.000, 17:55:26.792
54, 46169.56, 67474.23, -187500.02, -187500.02, -152247.94, -187500.02, -187500.02, -187500.02, 0.000, 0.000, 0.000, 17:55:26.792
55, 46264.33, 67302.82, -187500.02, -187500.02, -152204.00, -187500.02, -187500.02, -187500.02, 0.000, 0.000, 0.000, 17:55:26.792
56, 46097.83, 66572.21, -187500.02, -187500.02, -152034.53, -187500.02, -187500.02, -187500.02, 0.000, 0.000, 0.000, 17:55:26.792
57, 45530.46, 66083.94, -187500.02, -187500.02, -152026.66, -187500.02, -187500.02, -187500.02, 0.000, 0.000, 0.000, 17:55:26.793
58, 45609.47, 66956.41, -187500.02, -187500.02, -152215.69, -187500.02, -187500.02, -187500.02, 0.000, 0.000, 0.000, 17:55:26.793
59, 46176.54, 67478.30, -187500.02, -187500.02, -152306.33, -187500.02, -187500.02, -187500.02, 0.000, 0.000, 0.000, 17:55:26.793
60, 46275.66, 67311.07, -187500.02, -187500.02, -152264.66, -187500.02, -187500.02, -187500.02, 0.020, -0.004, 1.024, 17:55:26.793
61, 46103.89, 66582.24, -187500.02, -187500.02, -152084.81, -187500.02, -187500.02, -187500.02, 0.000, 0.000, 0.000, 17:55:26.793
62, 45533.92, 66083.13, -187500.02, -187500.02, -152062.58, -187500.02, -187500.02, -187500.02, 0.000, 0.000, 0.000, 17:55:26.793
63, 45611.39, 66956.08, -187500.02, -187500.02, -152257.13, -187500.02, -187500.02, -187500.02, 0.000, 0.000, 0.000, 17:55:26.793
64, 46184.92, 67489.55, -187500.02, -187500.02, -152364.38, -187500.02, -187500.02, -187500.02, 0.000, 0.000, 0.000, 17:55:26.793
65, 46278.75, 67312.37, -187500.02, -187500.02, -152329.03, -187500.02, -187500.02, -187500.02, 0.000, 0.000, 0.000, 17:55:26.794
66, 46100.27, 66570.71, -187500.02, -187500.02, -152122.34, -187500.02, -187500.02, -187500.02, 0.000, 0.000, 0.000, 17:55:26.794
67, 45536.00, 66074.28, -187500.02, -187500.02, -152098.75, -187500.02, -187500.02, -187500.02, 0.000, 0.000, 0.000, 17:55:26.794
68, 45604.91, 66939.25, -187500.02, -187500.02, -152263.30, -187500.02, -187500.02, -187500.02, 0.000, 0.000, 0.000, 17:55:26.794
69, 46177.43, 67475.29, -187500.02, -187500.02, -152349.69, -187500.02, -187500.02, -187500.02, 0.000, 0.000, 0.000, 17:55:26.794
70, 46271.71, 67307.49, -187500.02, -187500.02, -152295.33, -187500.02, -187500.02, -187500.02, 0.014, -0.008, 1.028, 17:55:26.794
71, 46102.01, 66580.13, -187500.02, -187500.02, -152101.52, -187500.02, -187500.02, -187500.02, 0.000, 0.000, 0.000, 17:55:26.794
72, 45535.51, 66078.70, -187500.02, -187500.02, -152064.77, -187500.02, -187500.02, -187500.02, 0.000, 0.000, 0.000, 17:55:26.794
73, 45609.70, 66948.45, -187500.02, -187500.02, -152279.44, -187500.02, -187500.02, -187500.02, 0.000, 0.000, 0.000, 17:55:26.794
74, 46185.54, 67489.62, -187500.02, -187500.02, -152409.67, -187500.02, -187500.02, -187500.02, 0.000, 0.000, 0.000, 17:55:26.795
75, 46287.69, 67328.13, -187500.02, -187500.02, -152425.97, -187500.02, -187500.02, -187500.02, 0.000, 0.000, 0.000, 17:55:26.795
76, 46104.32, 66588.70, -187500.02, -187500.02, -152212.88, -187500.02, -187500.02, -187500.02, 0.000, 0.000, 0.000, 17:55:26.795
77, 45538.64, 66079.63, -187500.02, -187500.02, -152183.34, -187500.02, -187500.02, -187500.02, 0.000, 0.000, 0.000, 17:55:26.795
78, 45597.51, 66936.41, -187500.02, -187500.02, -152359.20, -187500.02, -187500.02, -187500.02, 0.000, 0.000, 0.000, 17:55:26.795
79, 46159.57, 67472.05, -187500.02, -187500.02, -152410.59, -187500.02, -187500.02, -187500.02, 0.000, 0.000, 0.000, 17:55:26.795
80, 46261.65, 67304.88, -187500.02, -187500.02, -152357.58, -187500.02, -187500.02, -187500.02, 0.014, -0.010, 1.024, 17:55:26.795
81, 46096.25, 66577.77, -187500.02, -187500.02, -152179.39, -187500.02, -187500.02, -187500.02, 0.000, 0.000, 0.000, 17:55:26.795
82, 45532.47, 66062.79, -187500.02, -187500.02, -152186.03, -187500.02, -187500.02, -187500.02, 0.000, 0.000, 0.000, 17:55:26.795
83, 45579.50, 66909.41, -187500.02, -187500.02, -152356.39, -187500.02, -187500.02, -187500.02, 0.000, 0.000, 0.000, 17:55:26.796
84, 46146.36, 67444.91, -187500.02, -187500.02, -152411.75, -187500.02, -187500.02, -187500.02, 0.000, 0.000, 0.000, 17:55:26.796
85, 46260.11, 67298.15, -187500.02, -187500.02, -152363.72, -187500.02, -187500.02, -187500.02, 0.000, 0.000, 0.000, 17:55:26.796
86, 46090.10, 66575.65, -187500.02, -187500.02, -152199.02, -187500.02, -187500.02, -187500.02, 0.000, 0.000, 0.000, 17:55:26.796
87, 45525.23, 66054.86, -187500.02, -187500.02, -152176.64, -187500.02, -187500.02, -187500.02, 0.000, 0.000, 0.000, 17:55:26.796
88, 45585.93, 66915.78, -187500.02, -187500.02, -152396.56, -187500.02, -187500.02, -187500.02, 0.000, 0.000, 0.000, 17:55:26.796
89, 46156.75, 67453.38, -187500.02, -187500.02, -152477.50, -187500.02, -187500.02, -187500.02, 0.000, 0.000, 0.000, 17:55:27.258
90, 46269.09, 67304.16, -187500.02, -187500.02, -152478.36, -187500.02, -187500.02, -187500.02, 0.016, -0.012, 1.026, 17:55:27.258
91, 46100.76, 66584.64, -187500.02, -187500.02, -152323.16, -187500.02, -187500.02, -187500.02, 0.000, 0.000, 0.000, 17:55:27.258
92, 45528.73, 66049.65, -187500.02, -187500.02, -152296.94, -187500.02, -187500.02, -187500.02, 0.000, 0.000, 0.000, 17:55:27.258
93, 45574.49, 66896.60, -187500.02, -187500.02, -152513.06, -187500.02, -187500.02, -187500.02, 0.000, 0.000, 0.000, 17:55:27.259
94, 46141.55, 67444.24, -187500.02, -187500.02, -152595.89, -187500.02, -187500.02, -187500.02, 0.000, 0.000, 0.000, 17:55:27.259
95, 46239.81, 67282.88, -187500.02, -187500.02, -152559.69, -187500.02, -187500.02, -187500.02, 0.000, 0.000, 0.000, 17:55:27.259
96, 46071.44, 66560.81, -187500.02, -187500.02, -152352.88, -187500.02, -187500.02, -187500.02, 0.000, 0.000, 0.000, 17:55:27.259
97, 45505.91, 66029.69, -187500.02, -187500.02, -152288.44, -187500.02, -187500.02, -187500.02, 0.000, 0.000, 0.000, 17:55:27.259
98, 45557.41, 66882.92, -187500.02, -187500.02, -152498.28, -187500.02, -187500.02, -187500.02, 0.000, 0.000, 0.000, 17:55:27.259
99, 46124.41, 67434.74, -187500.02, -187500.02, -152584.00, -187500.02, -187500.02, -187500.02, 0.000, 0.000, 0.000, 17:55:27.259
100, 46221.80, 67275.15, -187500.02, -187500.02, -152514.13, -187500.02, -187500.02, -187500.02, 0.014, -0.006, 1.034, 17:55:27.259
101, 46066.92, 66563.25, -187500.02, -187500.02, -152309.52, -187500.02, -187500.02, -187500.02, 0.000, 0.000, 0.000, 17:55:27.259
102, 45511.30, 66037.73, -187500.02, -187500.02, -152291.17, -187500.02, -187500.02, -187500.02, 0.000, 0.000, 0.000, 17:55:27.260
103, 45550.24, 66883.63, -187500.02, -187500.02, -152497.88, -187500.02, -187500.02, -187500.02, 0.000, 0.000, 0.000, 17:55:27.260
104, 46129.59, 67448.11, -187500.02, -187500.02, -152612.28, -187500.02, -187500.02, -187500.02, 0.000, 0.000, 0.000, 17:55:27.260
105, 46251.41, 67302.95, -187500.02, -187500.02, -152627.66, -187500.02, -187500.02, -187500.02, 0.000, 0.000, 0.000, 17:55:27.260
106, 46091.71, 66591.73, -187500.02, -187500.02, -152479.53, -187500.02, -187500.02, -187500.02, 0.000, 0.000, 0.000, 17:55:27.260
107, 45525.32, 66049.83, -187500.02, -187500.02, -152450.06, -187500.02, -187500.02, -187500.02, 0.000, 0.000, 0.000, 17:55:27.260
108, 45547.91, 66882.88, -187500.02, -187500.02, -152637.23, -187500.02, -187500.02, -187500.02, 0.000, 0.000, 0.000, 17:55:27.260
109, 46114.64, 67436.59, -187500.02, -187500.02, -152692.52, -187500.02, -187500.02, -187500.02, 0.000, 0.000, 0.000, 17:55:27.260
110, 46236.82, 67296.18, -187500.02, -187500.02, -152647.56, -187500.02, -187500.02, -187500.02, 0.014, -0.010, 1.030, 17:55:27.261
111, 46073.76, 66582.24, -187500.02, -187500.02, -152438.42, -187500.02, -187500.02, -187500.02, 0.000, 0.000, 0.000, 17:55:27.261
112, 45507.50, 66032.21, -187500.02, -187500.02, -152377.77, -187500.02, -187500.02, -187500.02, 0.000, 0.000, 0.000, 17:55:27.261
113, 45534.50, 66865.78, -187500.02, -187500.02, -152565.45, -187500.02, -187500.02, -187500.02, 0.000, 0.000, 0.000, 17:55:27.261
114, 46116.79, 67440.53, -187500.02, -187500.02, -152662.05, -187500.02, -187500.02, -187500.02, 0.000, 0.000, 0.000, 17:55:27.261
115, 46243.70, 67306.13, -187500.02, -187500.02, -152644.06, -187500.02, -187500.02, -187500.02, 0.000, 0.000, 0.000, 17:55:27.261
116, 46078.70, 66591.23, -187500.02, -187500.02, -152438.13, -187500.02, -187500.02, -187500.02, 0.000, 0.000, 0.000, 17:55:27.261
117, 45522.54, 66045.31, -187500.02, -187500.02, -152383.48, -187500.02, -187500.02, -187500.02, 0.000, 0.000, 0.000, 17:55:27.261
118, 45558.38, 66891.23, -187500.02, -187500.02, -152607.52, -187500.02, -187500.02, -187500.02, 0.000, 0.000, 0.000, 17:55:27.262
119, 46129.89, 67460.94, -187500.02, -187500.02, -152695.25, -187500.02, -187500.02, -187500.02, 0.012, -0.014, 1.024, 17:55:27.262
120, 46258.21, 67330.00, -187500.02, -187500.02, -152685.36, -187500.02, -187500.02, -187500.02, 0.000, 0.000, 0.000, 17:55:27.262
121, 46108.59, 66628.88, -187500.02, -187500.02, -152535.19, -187500.02, -187500.02, -187500.02, 0.000, 0.000, 0.000, 17:55:27.262
122, 45545.84, 66072.52, -187500.02, -187500.02, -152529.17, -187500.02, -187500.02, -187500.02, 0.000, 0.000, 0.000, 17:55:27.262
123, 45558.04, 66892.55, -187500.02, -187500.02, -152721.42, -187500.02, -187500.02, -187500.02, 0.000, 0.000, 0.000, 17:55:27.262
124, 46125.80, 67458.03, -187500.02, -187500.02, -152788.16, -187500.02, -187500.02, -187500.02, 0.000, 0.000, 0.000, 17:55:27.262
125, 46252.71, 67318.31, -187500.02, -187500.02, -152770.84, -187500.02, -187500.02, -187500.02, 0.000, 0.000, 0.000, 17:55:27.262
126, 46094.14, 66612.24, -187500.02, -187500.02, -152587.13, -187500.02, -187500.02, -187500.02, 0.000, 0.000, 0.000, 17:55:27.262
127, 45532.83, 66050.61, -187500.02, -187500.02, -152526.89, -187500.02, -187500.02, -187500.02, 0.000, 0.000, 0.000, 17:55:27.263
128, 45549.90, 66875.99, -187500.02, -187500.02, -152718.13, -187500.02, -187500.02, -187500.02, 0.000, 0.000, 0.000, 17:55:27.263
129, 46128.77, 67456.96, -187500.02, -187500.02, -152807.67, -187500.02, -187500.02, -187500.02, 0.014, -0.016, 1.022, 17:55:27.263
130, 46245.55, 67316.81, -187500.02, -187500.02, -152797.97, -187500.02, -187500.02, -187500.02, 0.000, 0.000, 0.000, 17:55:27.263
131, 46084.87, 66610.12, -187500.02, -187500.02, -152586.23, -187500.02, -187500.02, -187500.02, 0.000, 0.000, 0.000, 17:55:27.263
132, 45527.13, 66049.20, -187500.02, -187500.02, -152523.77, -187500.02, -187500.02, -187500.02, 0.000, 0.000, 0.000, 17:55:27.263
133, 45554.26, 66884.48, -187500.02, -187500.02, -152753.36, -187500.02, -187500.02, -187500.02, 0.000, 0.000, 0.000, 17:55:27.263
134, 46127.63, 67460.45, -187500.02, -187500.02, -152864.67, -187500.02, -187500.02, -187500.02, 0.000, 0.000, 0.000, 17:55:27.263
135, 46255.23, 67327.63, -187500.02, -187500.02, -152835.34, -187500.02, -187500.02, -187500.02, 0.000, 0.000, 0.000, 17:55:27.263
136, 46107.16, 66636.09, -187500.02, -187500.02, -152672.83, -187500.02, -187500.02, -187500.02, 0.000, 0.000, 0.000, 17:55:27.264
137, 45542.48, 66059.23, -187500.02, -187500.02, -152627.92, -187500.02, -187500.02, -187500.02, 0.000, 0.000, 0.000, 17:55:27.264
138, 45552.65, 66881.18, -187500.02, -187500.02, -152837.77, -187500.02, -187500.02, -187500.02, 0.000, 0.000, 0.000, 17:55:27.264
139, 46132.68, 67469.34, -187500.02, -187500.02, -152967.64, -187500.02, -187500.02, -187500.02, 0.010, -0.018, 1.026, 17:55:27.264
140, 46252.84, 67328.55, -187500.02, -187500.02, -152922.81, -187500.02, -187500.02, -187500.02, 0.000, 0.000, 0.000, 17:55:27.264
141, 46096.56, 66627.48, -187500.02, -187500.02, -152730.34, -187500.02, -187500.02, -187500.02, 0.000, 0.000, 0.000, 17:55:27.265
142, 45535.78, 66050.38, -187500.02, -187500.02, -152675.80, -187500.02, -187500.02, -187500.02, 0.000, 0.000, 0.000, 17:55:27.265
143, 45534.75, 66862.07, -187500.02, -187500.02, -152822.22, -187500.02, -187500.02, -187500.02, 0.000, 0.000, 0.000, 17:55:27.265
144, 46116.97, 67451.37, -187500.02, -187500.02, -152909.75, -187500.02, -187500.02, -187500.02, 0.000, 0.000, 0.000, 17:55:27.265
145, 46240.93, 67310.78, -187500.02, -187500.02, -152883.16, -187500.02, -187500.02, -187500.02, 0.000, 0.000, 0.000, 17:55:27.265
146, 46089.36, 66619.08, -187500.02, -187500.02, -152673.30, -187500.02, -187500.02, -187500.02, 0.000, 0.000, 0.000, 17:55:27.265
147, 45538.44, 66046.84, -187500.02, -187500.02, -152648.53, -187500.02, -187500.02, -187500.02, 0.000, 0.000, 0.000, 17:55:27.266
148, 45545.12, 66861.06, -187500.02, -187500.02, -152828.23, -187500.02, -187500.02, -187500.02, 0.000, 0.000, 0.000, 17:55:27.266
149, 46131.52, 67461.54, -187500.02, -187500.02, -152914.58, -187500.02, -187500.02, -187500.02, 0.014, -0.012, 1.028, 17:55:27.266
150, 46269.85, 67341.40, -187500.02, -187500.02, -152917.47, -187500.02, -187500.02, -187500.02, 0.000, 0.000, 0.000, 17:55:27.266
151, 46116.48, 66648.56, -187500.02, -187500.02, -152781.08, -187500.02, -187500.02, -187500.02, 0.000, 0.000, 0.000, 17:55:27.266
152, 45556.86, 66062.45, -187500.02, -187500.02, -152724.38, -187500.02, -187500.02, -187500.02, 0.000, 0.000, 0.000, 17:55:27.266
153, 45558.87, 66875.05, -187500.02, -187500.02, -152915.78, -187500.02, -187500.02, -187500.02, 0.000, 0.000, 0.000, 17:55:27.267
154, 46137.82, 67468.54, -187500.02, -187500.02, -153046.95, -187500.02, -187500.02, -187500.02, 0.000, 0.000, 0.000, 17:55:27.267
155, 46266.84, 67338.96, -187500.02, -187500.02, -153014.38, -187500.02, -187500.02, -187500.02, 0.000, 0.000, 0.000, 17:55:27.267
156, 46112.81, 66647.45, -187500.02, -187500.02, -152816.59, -187500.02, -187500.02, -187500.02, 0.000, 0.000, 0.000, 17:55:27.267
157, 45553.43, 66050.14, -187500.02, -187500.02, -152763.31, -187500.02, -187500.02, -187500.02, 0.000, 0.000, 0.000, 17:55:27.267
158, 45544.09, 66852.30, -187500.02, -187500.02, -152953.81, -187500.02, -187500.02, -187500.02, 0.000, 0.000, 0.000, 17:55:27.268
159, 46117.95, 67450.86, -187500.02, -187500.02, -153045.47, -187500.02, -187500.02, -187500.02, 0.018, -0.010, 1.022, 17:55:27.268
160, 46255.35, 67329.66, -187500.02, -187500.02, -152993.28, -187500.02, -187500.02, -187500.02, 0.000, 0.000, 0.000, 17:55:27.268
161, 46117.08, 66652.88, -187500.02, -187500.02, -152808.80, -187500.02, -187500.02, -187500.02, 0.000, 0.000, 0.000, 17:55:27.268
162, 45557.86, 66054.59, -187500.02, -187500.02, -152777.61, -187500.02, -187500.02, -187500.02, 0.000, 0.000, 0.000, 17:55:27.268
163, 45539.64, 66847.96, -187500.02, -187500.02, -152980.75, -187500.02, -187500.02, -187500.02, 0.000, 0.000, 0.000, 17:55:27.268
164, 46120.79, 67454.74, -187500.02, -187500.02, -153067.89, -187500.02, -187500.02, -187500.02, 0.000, 0.000, 0.000, 17:55:27.269
165, 46259.84, 67335.92, -187500.02, -187500.02, -153086.84, -187500.02, -187500.02, -187500.02, 0.000, 0.000, 0.000, 17:55:27.269
166, 46119.70, 66649.75, -187500.02, -187500.02, -152953.63, -187500.02, -187500.02, -187500.02, 0.000, 0.000, 0.000, 17:55:27.269
167, 45566.64, 66050.01, -187500.02, -187500.02, -152901.89, -187500.02, -187500.02, -187500.02, 0.000, 0.000, 0.000, 17:55:27.269
168, 45543.45, 66840.95, -187500.02, -187500.02, -153114.83, -187500.02, -187500.02, -187500.02, 0.000, 0.000, 0.000, 17:55:27.269
169, 46115.60, 67439.14, -187500.02, -187500.02, -153213.22, -187500.02, -187500.02, -187500.02, 0.016, -0.008, 1.026, 17:55:27.270
170, 46256.13, 67323.43, -187500.02, -187500.02, -153214.08, -187500.02, -187500.02, -187500.02, 0.000, 0.000, 0.000, 17:55:27.270
171, 46090.14, 66626.03, -187500.02, -187500.02, -153001.38, -187500.02, -187500.02, -187500.02, 0.000, 0.000, 0.000, 17:55:27.270
172, 45537.54, 66021.59, -187500.02, -187500.02, -152910.17, -187500.02, -187500.02, -187500.02, 0.000, 0.000, 0.000, 17:55:27.270
173, 45527.66, 66822.39, -187500.02, -187500.02, -153086.58, -187500.02, -187500.02, -187500.02, 0.000, 0.000, 0.000, 17:55:27.270
174, 46108.56, 67435.79, -187500.02, -187500.02, -153176.33, -187500.02, -187500.02, -187500.02, 0.000, 0.000, 0.000, 17:55:27.270
175, 46235.52, 67304.23, -187500.02, -187500.02, -153152.31, -187500.02, -187500.02, -187500.02, 0.000, 0.000, 0.000, 17:55:27.271
176, 46094.05, 66627.66, -187500.02, -187500.02, -152960.06, -187500.02, -187500.02, -187500.02, 0.000, 0.000, 0.000, 17:55:27.271
177, 45548.29, 66025.11, -187500.02, -187500.02, -152912.25, -187500.02, -187500.02, -187500.02, 0.000, 0.000, 0.000, 17:55:27.271
178, 45522.48, 66809.16, -187500.02, -187500.02, -153112.06, -187500.02, -187500.02, -187500.02, 0.000, 0.000, 0.000, 17:55:27.271
179, 46105.07, 67426.76, -187500.02, -187500.02, -153223.33, -187500.02, -187500.02, -187500.02, 0.018, -0.008, 1.028, 17:55:27.271
180, 46254.27, 67314.94, -187500.02, -187500.02, -153203.19, -187500.02, -187500.02, -187500.02, 0.000, 0.000, 0.000, 17:55:27.271
181, 46114.87, 66642.69, -187500.02, -187500.02, -153065.34, -187500.02, -187500.02, -187500.02, 0.000, 0.000, 0.000, 17:55:27.271
182, 45562.69, 66030.91, -187500.02, -187500.02, -153033.94, -187500.02, -187500.02, -187500.02, 0.000, 0.000, 0.000, 17:55:27.271
183, 45531.42, 66812.20, -187500.02, -187500.02, -153220.55, -187500.02, -187500.02, -187500.02, 0.000, 0.000, 0.000, 17:55:27.272
184, 46103.80, 67425.15, -187500.02, -187500.02, -153303.23, -187500.02, -187500.02, -187500.02, 0.000, 0.000, 0.000, 17:55:27.272
185, 46243.99, 67312.03, -187500.02, -187500.02, -153286.52, -187500.02, -187500.02, -187500.02, 0.000, 0.000, 0.000, 17:55:27.272
186, 46098.08, 66631.69, -187500.02, -187500.02, -153130.05, -187500.02, -187500.02, -187500.02, 0.000, 0.000, 0.000, 17:55:27.272
187, 45552.14, 66019.67, -187500.02, -187500.02, -153086.78, -187500.02, -187500.02, -187500.02, 0.000, 0.000, 0.000, 17:55:27.272
188, 45519.17, 66802.27, -187500.02, -187500.02, -153280.97, -187500.02, -187500.02, -187500.02, 0.000, 0.000, 0.000, 17:55:27.272
189, 46095.80, 67419.74, -187500.02, -187500.02, -153382.11, -187500.02, -187500.02, -187500.02, 0.016, -0.010, 1.026, 17:55:27.272
190, 46231.99, 67300.12, -187500.02, -187500.02, -153339.73, -187500.02, -187500.02, -187500.02, 0.000, 0.000, 0.000, 17:55:27.273
191, 46089.59, 66627.33, -187500.02, -187500.02, -153098.47, -187500.02, -187500.02, -187500.02, 0.000, 0.000, 0.000, 17:55:27.273
192, 45553.34, 66013.70, -187500.02, -187500.02, -153046.69, -187500.02, -187500.02, -187500.02, 0.000, 0.000, 0.000, 17:55:27.273
193, 45515.77, 66783.88, -187500.02, -187500.02, -153258.80, -187500.02, -187500.02, -187500.02, 0.000, 0.000, 0.000, 17:55:27.273
194, 46093.23, 67412.03, -187500.02, -187500.02, -153364.44, -187500.02, -187500.02, -187500.02, 0.000, 0.000, 0.000, 17:55:27.273
195, 46242.27, 67309.15, -187500.02, -187500.02, -153326.34, -187500.02, -187500.02, -187500.02, 0.000, 0.000, 0.000, 17:55:27.273
196, 46117.70, 66653.28, -187500.02, -187500.02, -153203.59, -187500.02, -187500.02, -187500.02, 0.000, 0.000, 0.000, 17:55:27.273
197, 45568.93, 66023.38, -187500.02, -187500.02, -153178.80, -187500.02, -187500.02, -187500.02, 0.000, 0.000, 0.000, 17:55:27.273
198, 45511.95, 66785.60, -187500.02, -187500.02, -153376.03, -187500.02, -187500.02, -187500.02, 0.000, 0.000, 0.000, 17:55:27.273
199, 46091.66, 67418.38, -187500.02, -187500.02, -153470.58, -187500.02, -187500.02, -187500.02, 0.012, -0.008, 1.030, 17:55:27.274
200, 46248.84, 67315.31, -187500.02, -187500.02, -153464.38, -187500.02, -187500.02, -187500.02, 0.000, 0.000, 0.000, 17:55:27.274
201, 46110.89, 66646.84, -187500.02, -187500.02, -153298.89, -187500.02, -187500.02, -187500.02, 0.000, 0.000, 0.000, 17:55:27.274
202, 45570.11, 66016.37, -187500.02, -187500.02, -153234.70, -187500.02, -187500.02, -187500.02, 0.000, 0.000, 0.000, 17:55:27.274
203, 45506.96, 66770.76, -187500.02, -187500.02, -153401.84, -187500.02, -187500.02, -187500.02, 0.000, 0.000, 0.000, 17:55:27.274
204, 46086.39, 67406.63, -187500.02, -187500.02, -153478.11, -187500.02, -187500.02, -187500.02, 0.000, 0.000, 0.000, 17:55:27.274
205, 46239.70, 67304.59, -187500.02, -187500.02, -153444.20, -187500.02, -187500.02, -187500.02, 0.000, 0.000, 0.000, 17:55:27.275
206, 46104.52, 66644.88, -187500.02, -187500.02, -153256.20, -187500.02, -187500.02, -187500.02, 0.000, 0.000, 0.000, 17:55:27.275
207, 45565.19, 66013.55, -187500.02, -187500.02, -153185.58, -187500.02, -187500.02, -187500.02, 0.000, 0.000, 0.000, 17:55:27.275
208, 45513.87, 66774.13, -187500.02, -187500.02, -153364.30, -187500.02, -187500.02, -187500.02, 0.000, 0.000, 0.000, 17:55:27.275
209, 46105.93, 67425.06, -187500.02, -187500.02, -153500.83, -187500.02, -187500.02, -187500.02, 0.010, -0.008, 1.028, 17:55:27.739
210, 46268.76, 67329.29, -187500.02, -187500.02, -153527.69, -187500.02, -187500.02, -187500.02, 0.000, 0.000, 0.000, 17:55:27.739
211, 46133.80, 66668.05, -187500.02, -187500.02, -153358.94, -187500.02, -187500.02, -187500.02, 0.000, 0.000, 0.000, 17:55:27.739
212, 45590.63, 66030.76, -187500.02, -187500.02, -153303.61, -187500.02, -187500.02, -187500.02, 0.000, 0.000, 0.000, 17:55:27.739
213, 45535.51, 66790.99, -187500.02, -187500.02, -153535.89, -187500.02, -187500.02, -187500.02, 0.000, 0.000, 0.000, 17:55:27.740
214, 46108.14, 67423.16, -187500.02, -187500.02, -153652.59, -187500.02, -187500.02, -187500.02, 0.000, 0.000, 0.000, 17:55:27.740
215, 46251.84, 67310.48, -187500.02, -187500.02, -153593.19, -187500.02, -187500.02, -187500.02, 0.000, 0.000, 0.000, 17:55:27.740
216, 46117.46, 66654.73, -187500.02, -187500.02, -153410.70, -187500.02, -187500.02, -187500.02, 0.000, 0.000, 0.000, 17:55:27.740
217, 45567.02, 66003.05, -187500.02, -187500.02, -153319.44, -187500.02, -187500.02, -187500.02, 0.000, 0.000, 0.000, 17:55:27.740
218, 45508.64, 66762.71, -187500.02, -187500.02, -153501.05, -187500.02, -187500.02, -187500.02, 0.000, 0.000, 0.000, 17:55:27.741
219, 46088.45, 67409.15, -187500.02, -187500.02, -153612.05, -187500.02, -187500.02, -187500.02, 0.002, -0.008, 1.026, 17:55:27.741
220, 46244.39, 67308.19, -187500.02, -187500.02, -153585.92, -187500.02, -187500.02, -187500.02, 0.000, 0.000, 0.000, 17:55:27.741
221, 46115.47, 66656.03, -187500.02, -187500.02, -153400.23, -187500.02, -187500.02, -187500.02, 0.000, 0.000, 0.000, 17:55:27.741
222, 45585.11, 66013.75, -187500.02, -187500.02, -153327.53, -187500.02, -187500.02, -187500.02, 0.000, 0.000, 0.000, 17:55:27.741
223, 45526.97, 66767.34, -187500.02, -187500.02, -153552.98, -187500.02, -187500.02, -187500.02, 0.000, 0.000, 0.000, 17:55:27.741
224, 46101.75, 67415.34, -187500.02, -187500.02, -153680.17, -187500.02, -187500.02, -187500.02, 0.000, 0.000, 0.000, 17:55:27.742
225, 46268.02, 67327.01, -187500.02, -187500.02, -153666.38, -187500.02, -187500.02, -187500.02, 0.000, 0.000, 0.000, 17:55:27.742
226, 46140.17, 66681.20, -187500.02, -187500.02, -153510.95, -187500.02, -187500.02, -187500.02, 0.000, 0.000, 0.000, 17:55:27.742
227, 45601.16, 66025.46, -187500.02, -187500.02, -153439.02, -187500.02, -187500.02, -187500.02, 0.000, 0.000, 0.000, 17:55:27.742
228, 45523.84, 66760.41, -187500.02, -187500.02, -153611.78, -187500.02, -187500.02, -187500.02, 0.000, 0.000, 0.000, 17:55:27.742
229, 46108.77, 67417.95, -187500.02, -187500.02, -153703.20, -187500.02, -187500.02, -187500.02, 0.010, -0.012, 1.020, 17:55:27.742
230, 46269.09, 67322.85, -187500.02, -187500.02, -153671.17, -187500.02, -187500.02, -187500.02, 0.000, 0.000, 0.000, 17:55:27.743
231, 46143.01, 66681.71, -187500.02, -187500.02, -153513.50, -187500.02, -187500.02, -187500.02, 0.000, 0.000, 0.000, 17:55:27.743
232, 45606.18, 66021.98, -187500.02, -187500.02, -153440.97, -187500.02, -187500.02, -187500.02, 0.000, 0.000, 0.000, 17:55:27.743
233, 45525.83, 66755.05, -187500.02, -187500.02, -153642.80, -187500.02, -187500.02, -187500.02, 0.000, 0.000, 0.000, 17:55:27.743
234, 46101.90, 67408.81, -187500.02, -187500.02, -153733.75, -187500.02, -187500.02, -187500.02, 0.000, 0.000, 0.000, 17:55:27.743
235, 46268.29, 67319.34, -187500.02, -187500.02, -153685.14, -187500.02, -187500.02, -187500.02, 0.000, 0.000, 0.000, 17:55:27.743
236, 46146.16, 66680.37, -187500.02, -187500.02, -153512.16, -187500.02, -187500.02, -187500.02, 0.000, 0.000, 0.000, 17:55:27.744
237, 45609.34, 66020.79, -187500.02, -187500.02, -153441.02, -187500.02, -187500.02, -187500.02, 0.000, 0.000, 0.000, 17:55:27.744
238, 45531.73, 66761.62, -187500.02, -187500.02, -153626.39, -187500.02, -187500.02, -187500.02, 0.016, -0.014, 1.028, 17:55:27.744
239, 46112.92, 67424.80, -187500.02, -187500.02, -153755.80, -187500.02, -187500.02, -187500.02, 0.000, 0.000, 0.000, 17:55:27.744
240, 46281.36, 67334.98, -187500.02, -187500.02, -153742.42, -187500.02, -187500.02, -187500.02, 0.000, 0.000, 0.000, 17:55:27.744
241, 46163.28, 66699.86, -187500.02, -187500.02, -153578.50, -187500.02, -187500.02, -187500.02, 0.000, 0.000, 0.000, 17:55:27.744
242, 45625.72, 66034.12, -187500.02, -187500.02, -153533.30, -187500.02, -187500.02, -187500.02, 0.000, 0.000, 0.000, 17:55:27.745
243, 45531.55, 66755.05, -187500.02, -187500.02, -153771.28, -187500.02, -187500.02, -187500.02, 0.000, 0.000, 0.000, 17:55:27.745
244, 46096.76, 67406.94, -187500.02, -187500.02, -153852.81, -187500.02, -187500.02, -187500.02, 0.000, 0.000, 0.000, 17:55:27.745
245, 46266.97, 67322.96, -187500.02, -187500.02, -153784.28, -187500.02, -187500.02, -187500.02, 0.000, 0.000, 0.000, 17:55:27.745
246, 46147.14, 66683.74, -187500.02, -187500.02, -153590.47, -187500.02, -187500.02, -187500.02, 0.000, 0.000, 0.000, 17:55:27.745
247, 45619.93, 66021.71, -187500.02, -187500.02, -153530.73, -187500.02, -187500.02, -187500.02, 0.000, 0.000, 0.000, 17:55:27.745
248, 45513.36, 66732.65, -187500.02, -187500.02, -153680.16, -187500.02, -187500.02, -187500.02, 0.012, -0.012, 1.024, 17:55:27.746
249, 46087.69, 67397.73, -187500.02, -187500.02, -153757.20, -187500.02, -187500.02, -187500.02, 0.000, 0.000, 0.000, 17:55:27.746
250, 46262.01, 67324.03, -187500.02, -187500.02, -153739.70, -187500.02, -187500.02, -187500.02, 0.000, 0.000, 0.000, 17:55:27.746
251, 46136.19, 66688.15, -187500.02, -187500.02, -153581.05, -187500.02, -187500.02, -187500.02, 0.000, 0.000, 0.000, 17:55:27.746
252, 45613.23, 66022.45, -187500.02, -187500.02, -153485.77, -187500.02, -187500.02, -187500.02, 0.000, 0.000, 0.000, 17:55:27.746
253, 45521.25, 66741.84, -187500.02, -187500.02, -153686.13, -187500.02, -187500.02, -187500.02, 0.000, 0.000, 0.000, 17:55:27.746
254, 46094.50, 67409.69, -187500.02, -187500.02, -153785.11, -187500.02, -187500.02, -187500.02, 0.000, 0.000, 0.000, 17:55:27.747
255, 46280.29, 67341.04, -187500.02, -187500.02, -153778.23, -187500.02, -187500.02, -187500.02, 0.000, 0.000, 0.000, 17:55:27.747
0, 46164.29, 66714.16, -187500.02, -187500.02, -153660.33, -187500.02, -187500.02, -187500.02, 0.000, 0.000, 0.000, 17:55:27.747
1, 45632.63, 66033.38, -187500.02, -187500.02, -153605.56, -187500.02, -187500.02, -187500.02, 0.000, 0.000, 0.000, 17:55:27.747
2, 45524.63, 66740.16, -187500.02, -187500.02, -153799.53, -187500.02, -187500.02, -187500.02, 0.010, -0.010, 1.022, 17:55:27.747
3, 46096.38, 67411.25, -187500.02, -187500.02, -153901.14, -187500.02, -187500.02, -187500.02, 0.000, 0.000, 0.000, 17:55:27.747
4, 46264.91, 67329.06, -187500.02, -187500.02, -153835.70, -187500.02, -187500.02, -187500.02, 0.000, 0.000, 0.000, 17:55:27.748
5, 46147.43, 66696.55, -187500.02, -187500.02, -153632.16, -187500.02, -187500.02, -187500.02, 0.000, 0.000, 0.000, 17:55:27.748
6, 45620.96, 66014.20, -187500.02, -187500.02, -153539.20, -187500.02, -187500.02, -187500.02, 0.000, 0.000, 0.000, 17:55:27.748
7, 45512.89, 66720.49, -187500.02, -187500.02, -153717.23, -187500.02, -187500.02, -187500.02, 0.000, 0.000, 0.000, 17:55:27.748
8, 46093.27, 67407.49, -187500.02, -187500.02, -153849.16, -187500.02, -187500.02, -187500.02, 0.000, 0.000, 0.000, 17:55:27.748
9, 46270.81, 67329.58, -187500.02, -187500.02, -153822.17, -187500.02, -187500.02, -187500.02, 0.000, 0.000, 0.000, 17:55:27.748
10, 46148.13, 66698.14, -187500.02, -187500.02, -153624.41, -187500.02, -187500.02, -187500.02, 0.000, 0.000, 0.000, 17:55:27.749
11, 45621.63, 66010.58, -187500.02, -187500.02, -153534.75, -187500.02, -187500.02, -187500.02, 0.000, 0.000, 0.000, 17:55:27.749
12, 45522.07, 66723.17, -187500.02, -187500.02, -153739.34, -187500.02, -187500.02, -187500.02, 0.018, -0.006, 1.026, 17:55:27.749
13, 46105.37, 67411.25, -187500.02, -187500.02, -153870.45, -187500.02, -187500.02, -187500.02, 0.000, 0.000, 0.000, 17:55:27.749
14, 46280.07, 67338.38, -187500.02, -187500.02, -153848.86, -187500.02, -187500.02, -187500.02, 0.000, 0.000, 0.000, 17:55:27.749
15, 46170.45, 66721.36, -187500.02, -187500.02, -153696.48, -187500.02, -187500.02, -187500.02, 0.000, 0.000, 0.000, 17:55:27.750
16, 45647.54, 66036.53, -187500.02, -187500.02, -153661.70, -187500.02, -187500.02, -187500.02, 0.000, 0.000, 0.000, 17:55:27.750
17, 45527.46, 66729.50, -187500.02, -187500.02, -153862.61, -187500.02, -187500.02, -187500.02, 0.000, 0.000, 0.000, 17:55:27.750
18, 46102.35, 67410.47, -187500.02, -187500.02, -153985.61, -187500.02, -187500.02, -187500.02, 0.000, 0.000, 0.000, 17:55:27.750
19, 46281.27, 67339.45, -187500.02, -187500.02, -153987.44, -187500.02, -187500.02, -187500.02, 0.000, 0.000, 0.000, 17:55:27.750
20, 46157.09, 66714.79, -187500.02, -187500.02, -153827.67, -187500.02, -187500.02, -187500.02, 0.000, 0.000, 0.000, 17:55:27.750
21, 45634.41, 66027.30, -187500.02, -187500.02, -153708.50, -187500.02, -187500.02, -187500.02, 0.000, 0.000, 0.000, 17:55:27.751
22, 45514.59, 66722.03, -187500.02, -187500.02, -153876.31, -187500.02, -187500.02, -187500.02, 0.020, -0.008, 1.024, 17:55:27.751
23, 46097.79, 67419.70, -187500.02, -187500.02, -154002.89, -187500.02, -187500.02, -187500.02, 0.000, 0.000, 0.000, 17:55:27.751
24, 46283.96, 67349.29, -187500.02, -187500.02, -153992.88, -187500.02, -187500.02, -187500.02, 0.000, 0.000, 0.000, 17:55:27.751
25, 46163.08, 66722.28, -187500.02, -187500.02, -153810.97, -187500.02, -187500.02, -187500.02, 0.000, 0.000, 0.000, 17:55:27.751
26, 45645.70, 66032.77, -187500.02, -187500.02, -153748.30, -187500.02, -187500.02, -187500.02, 0.000, 0.000, 0.000, 17:55:27.751
27, 45522.14, 66720.31, -187500.02, -187500.02, -153919.45, -187500.02, -187500.02, -187500.02, 0.000, 0.000, 0.000, 17:55:27.752
28, 46101.45, 67419.19, -187500.02, -187500.02, -154020.20, -187500.02, -187500.02, -187500.02, 0.000, 0.000, 0.000, 17:55:27.752
29, 46294.29, 67359.73, -187500.02, -187500.02, -154019.03, -187500.02, -187500.02, -187500.02, 0.000, 0.000, 0.000, 17:55:27.752
30, 46173.05, 66741.44, -187500.02, -187500.02, -153840.64, -187500.02, -187500.02, -187500.02, 0.000, 0.000, 0.000, 17:55:27.752
31, 45650.29, 66043.37, -187500.02, -187500.02, -153768.59, -187500.02, -187500.02, -187500.02, 0.000, 0.000, 0.000, 17:55:27.752
32, 45521.61, 66724.96, -187500.02, -187500.02, -153983.89, -187500.02, -187500.02, -187500.02, 0.016, -0.014, 1.028, 17:55:27.752
33, 46098.59, 67424.62, -187500.02, -187500.02, -154087.53, -187500.02, -187500.02, -187500.02, 0.000, 0.000, 0.000, 17:55:27.753
34, 46291.36, 67362.34, -187500.02, -187500.02, -154086.58, -187500.02, -187500.02, -187500.02, 0.000, 0.000, 0.000, 17:55:27.753
35, 46167.15, 66739.47, -187500.02, -187500.02, -153907.63, -187500.02, -187500.02, -187500.02, 0.000, 0.000, 0.000, 17:55:27.753
36, 45642.06, 66033.11, -187500.02, -187500.02, -153799.13, -187500.02, -187500.02, -187500.02, 0.000, 0.000, 0.000, 17:55:27.753
37, 45507.17, 66704.15, -187500.02, -187500.02, -153965.66, -187500.02, -187500.02, -187500.02, 0.000, 0.000, 0.000, 17:55:27.753
38, 46086.93, 67412.03, -187500.02, -187500.02, -154064.94, -187500.02, -187500.02, -187500.02, 0.000, 0.000, 0.000, 17:55:27.754
39, 46288.63, 67362.99, -187500.02, -187500.02, -154054.23, -187500.02, -187500.02, -187500.02, 0.000, 0.000, 0.000, 17:55:27.754
40, 46169.79, 66749.10, -187500.02, -187500.02, -153890.91, -187500.02, -187500.02, -187500.02, 0.000, 0.000, 0.000, 17:55:27.754
41, 45652.50, 66043.39, -187500.02, -187500.02, -153808.88, -187500.02, -187500.02, -187500.02, 0.000, 0.000, 0.000, 17:55:27.754
42, 45509.25, 66705.63, -187500.02, -187500.02, -153979.08, -187500.02, -187500.02, -187500.02, 0.016, -0.012, 1.030, 17:55:27.754
43, 46089.03, 67416.73, -187500.02, -187500.02, -154101.23, -187500.02, -187500.02, -187500.02, 0.000, 0.000, 0.000, 17:55:27.755
44, 46291.76, 67362.81, -187500.02, -187500.02, -154106.64, -187500.02, -187500.02, -187500.02, 0.000, 0.000, 0.000, 17:55:27.755
45, 46179.55, 66750.91, -187500.02, -187500.02, -153968.11, -187500.02, -187500.02, -187500.02, 0.000, 0.000, 0.000, 17:55:27.755
46, 45659.49, 66036.93, -187500.02, -187500.02, -153866.88, -187500.02, -187500.02, -187500.02, 0.000, 0.000, 0.000, 17:55:27.755
47, 45520.85, 66704.17, -187500.02, -187500.02, -154056.78, -187500.02, -187500.02, -187500.02, 0.000, 0.000, 0.000, 17:55:27.755
48, 46099.09, 67417.27, -187500.02, -187500.02, -154176.41, -187500.02, -187500.02, -187500.02, 0.000, 0.000, 0.000, 17:55:27.755
49, 46288.61, 67358.21, -187500.02, -187500.02, -154157.05, -187500.02, -187500.02, -187500.02, 0.000, 0.000, 0.000, 17:55:27.756
50, 46178.66, 66754.24, -187500.02, -187500.02, -154004.45, -187500.02, -187500.02, -187500.02, 0.000, 0.000, 0.000, 17:55:27.756
51, 45666.94, 66041.22, -187500.02, -187500.02, -153940.97, -187500.02, -187500.02, -187500.02, 0.000, 0.000, 0.000, 17:55:27.756
52, 45508.29, 66688.88, -187500.02, -187500.02, -154108.95, -187500.02, -187500.02, -187500.02, 0.016, -0.012, 1.030, 17:55:27.756
53, 46081.67, 67402.24, -187500.02, -187500.02, -154188.19, -187500.02, -187500.02, -187500.02, 0.000, 0.000, 0.000, 17:55:27.756
54, 46285.14, 67356.94, -187500.02, -187500.02, -154168.05, -187500.02, -187500.02, -187500.02, 0.000, 0.000, 0.000, 17:55:27.757
55, 46172.18, 66753.15, -187500.02, -187500.02, -154008.19, -187500.02, -187500.02, -187500.02, 0.000, 0.000, 0.000, 17:55:27.757
56, 45659.79, 66034.20, -187500.02, -187500.02, -153887.02, -187500.02, -187500.02, -187500.02, 0.000, 0.000, 0.000, 17:55:27.757
57, 45509.51, 66691.03, -187500.02, -187500.02, -154071.63, -187500.02, -187500.02, -187500.02, 0.000, 0.000, 0.000, 17:55:27.757
58, 46086.90, 67413.26, -187500.02, -187500.02, -154219.56, -187500.02, -187500.02, -187500.02, 0.000, 0.000, 0.000, 17:55:27.757
59, 46290.62, 67362.14, -187500.02, -187500.02, -154210.58, -187500.02, -187500.02, -187500.02, 0.000, 0.000, 0.000, 17:55:27.757
60, 46184.92, 66772.28, -187500.02, -187500.02, -154062.08, -187500.02, -187500.02, -187500.02, 0.000, 0.000, 0.000, 17:55:27.758
61, 45680.17, 66058.39, -187500.02, -187500.02, -153992.55, -187500.02, -187500.02, -187500.02, 0.000, 0.000, 0.000, 17:55:27.758
62, 45521.96, 66704.51, -187500.02, -187500.02, -154196.45, -187500.02, -187500.02, -187500.02, 0.016, -0.014, 1.032, 17:55:27.758
63, 46086.64, 67420.86, -187500.02, -187500.02, -154315.30, -187500.02, -187500.02, -187500.02, 0.000, 0.000, 0.000, 17:55:27.758
64, 46289.32, 67376.38, -187500.02, -187500.02, -154310.92, -187500.02, -187500.02, -187500.02, 0.000, 0.000, 0.000, 17:55:27.758
65, 46175.30, 66772.10, -187500.02, -187500.02, -154150.03, -187500.02, -187500.02, -187500.02, 0.000, 0.000, 0.000, 17:55:27.758
66, 45658.62, 66039.08, -187500.02, -187500.02, -154007.69, -187500.02, -187500.02, -187500.02, 0.000, 0.000, 0.000, 17:55:27.759
67, 45500.73, 66683.61, -187500.02, -187500.02, -154173.88, -187500.02, -187500.02, -187500.02, 0.000, 0.000, 0.000, 17:55:27.759
68, 46080.13, 67413.38, -187500.02, -187500.02, -154308.77, -187500.02, -187500.02, -187500.02, 0.000, 0.000, 0.000, 17:55:27.759
69, 46291.63, 67368.67, -187500.02, -187500.02, -154280.47, -187500.02, -187500.02, -187500.02, 0.000, 0.000, 0.000, 17:55:27.759
70, 46183.15, 66776.15, -187500.02, -187500.02, -154111.50, -187500.02, -187500.02, -187500.02, 0.000, 0.000, 0.000, 17:55:27.759
71, 45674.63, 66048.91, -187500.02, -187500.02, -154013.03, -187500.02, -187500.02, -187500.02, 0.000, 0.000, 0.000, 17:55:27.759
72, 45511.75, 66690.27, -187500.02, -187500.02, -154198.58, -187500.02, -187500.02, -187500.02, 0.012, -0.014, 1.026, 17:55:27.759
73, 46087.53, 67422.29, -187500.02, -187500.02, -154347.75, -187500.02, -187500.02, -187500.02, 0.000, 0.000, 0.000, 17:55:27.759
74, 46296.03, 67376.41, -187500.02, -187500.02, -154344.36, -187500.02, -187500.02, -187500.02, 0.000, 0.000, 0.000, 17:55:28.219
75, 46194.80, 66791.41, -187500.02, -187500.02, -154207.83, -187500.02, -187500.02, -187500.02, 0.000, 0.000, 0.000, 17:55:28.219
76, 45684.15, 66058.70, -187500.02, -187500.02, -154118.41, -187500.02, -187500.02, -187500.02, 0.000, 0.000, 0.000, 17:55:28.220
77, 45514.32, 66687.34, -187500.02, -187500.02, -154323.56, -187500.02, -187500.02, -187500.02, 0.000, 0.000, 0.000, 17:55:28.220
78, 46077.38, 67408.30, -187500.02, -187500.02, -154428.55, -187500.02, -187500.02, -187500.02, 0.000, 0.000, 0.000, 17:55:28.220
79, 46285.75, 67363.82, -187500.02, -187500.02, -154411.88, -187500.02, -187500.02, -187500.02, 0.000, 0.000, 0.000, 17:55:28.220
80, 46187.02, 66783.27, -187500.02, -187500.02, -154291.38, -187500.02, -187500.02, -187500.02, 0.000, 0.000, 0.000, 17:55:28.220
81, 45681.55, 66050.23, -187500.02, -187500.02, -154174.22, -187500.02, -187500.02, -187500.02, 0.000, 0.000, 0.000, 17:55:28.220
82, 45492.10, 66661.23, -187500.02, -187500.02, -154296.05, -187500.02, -187500.02, -187500.02, 0.016, -0.010, 1.022, 17:55:28.221
83, 46068.64, 67405.21, -187500.02, -187500.02, -154393.53, -187500.02, -187500.02, -187500.02, 0.000, 0.000, 0.000, 17:55:28.221
84, 46276.13, 67362.23, -187500.02, -187500.02, -154363.02, -187500.02, -187500.02, -187500.02, 0.000, 0.000, 0.000, 17:55:28.221
85, 46167.95, 66766.89, -187500.02, -187500.02, -154161.83, -187500.02, -187500.02, -187500.02, 0.000, 0.000, 0.000, 17:55:28.221
86, 45665.24, 66031.45, -187500.02, -187500.02, -154047.41, -187500.02, -187500.02, -187500.02, 0.000, 0.000, 0.000, 17:55:28.221
87, 45491.12, 66653.70, -187500.02, -187500.02, -154253.61, -187500.02, -187500.02, -187500.02, 0.000, 0.000, 0.000, 17:55:28.222
88, 46068.24, 67400.88, -187500.02, -187500.02, -154390.06, -187500.02, -187500.02, -187500.02, 0.000, 0.000, 0.000, 17:55:28.222
89, 46294.13, 67376.34, -187500.02, -187500.02, -154445.19, -187500.02, -187500.02, -187500.02, 0.000, 0.000, 0.000, 17:55:28.222
90, 46188.29, 66791.97, -187500.02, -187500.02, -154307.00, -187500.02, -187500.02, -187500.02, 0.000, 0.000, 0.000, 17:55:28.222
91, 45688.95, 66055.88, -187500.02, -187500.02, -154235.13, -187500.02, -187500.02, -187500.02, 0.000, 0.000, 0.000, 17:55:28.222
92, 45503.90, 66667.43, -187500.02, -187500.02, -154443.22, -187500.02, -187500.02, -187500.02, 0.010, -0.016, 1.028, 17:55:28.222
93, 46063.79, 67398.38, -187500.02, -187500.02, -154553.41, -187500.02, -187500.02, -187500.02, 0.000, 0.000, 0.000, 17:55:28.223
94, 46270.57, 67360.20, -187500.02, -187500.02, -154481.42, -187500.02, -187500.02, -187500.02, 0.000, 0.000, 0.000, 17:55:28.223
95, 46173.07, 66788.20, -187500.02, -187500.02, -154315.20, -187500.02, -187500.02, -187500.02, 0.000, 0.000, 0.000, 17:55:28.223
96, 45674.11, 66037.00, -187500.02, -187500.02, -154206.31, -187500.02, -187500.02, -187500.02, 0.000, 0.000, 0.000, 17:55:28.223
97, 45481.42, 66645.21, -187500.02, -187500.02, -154358.75, -187500.02, -187500.02, -187500.02, 0.000, 0.000, 0.000, 17:55:28.223
98, 46052.84, 67398.91, -187500.02, -187500.02, -154476.97, -187500.02, -187500.02, -187500.02, 0.000, 0.000, 0.000, 17:55:28.224
99, 46276.63, 67370.46, -187500.02, -187500.02, -154486.45, -187500.02, -187500.02, -187500.02, 0.000, 0.000, 0.000, 17:55:28.224
100, 46174.37, 66792.06, -187500.02, -187500.02, -154318.47, -187500.02, -187500.02, -187500.02, 0.000, 0.000, 0.000, 17:55:28.224
101, 45678.49, 66046.38, -187500.02, -187500.02, -154194.38, -187500.02, -187500.02, -187500.02, 0.014, -0.014, 1.028, 17:55:28.224
102, 45486.65, 66646.15, -187500.02, -187500.02, -154371.02, -187500.02, -187500.02, -187500.02, 0.000, 0.000, 0.000, 17:55:28.224
103, 46072.55, 67415.27, -187500.02, -187500.02, -154532.94, -187500.02, -187500.02, -187500.02, 0.000, 0.000, 0.000, 17:55:28.224
104, 46306.46, 67397.86, -187500.02, -187500.02, -154574.91, -187500.02, -187500.02, -187500.02, 0.000, 0.000, 0.000, 17:55:28.224
105, 46199.00, 66817.68, -187500.02, -187500.02, -154415.13, -187500.02, -187500.02, -187500.02, 0.000, 0.000, 0.000, 17:55:28.224
106, 45700.33, 66060.55, -187500.02, -187500.02, -154290.69, -187500.02, -187500.02, -187500.02, 0.000, 0.000, 0.000, 17:55:28.225
107, 45501.18, 66656.21, -187500.02, -187500.02, -154470.28, -187500.02, -187500.02, -187500.02, 0.000, 0.000, 0.000, 17:55:28.225
108, 46072.53, 67415.90, -187500.02, -187500.02, -154626.77, -187500.02, -187500.02, -187500.02, 0.000, 0.000, 0.000, 17:55:28.225
109, 46292.83, 67387.11, -187500.02, -187500.02, -154634.59, -187500.02, -187500.02, -187500.02, 0.000, 0.000, 0.000, 17:55:28.225
110, 46184.04, 66808.53, -187500.02, -187500.02, -154451.53, -187500.02, -187500.02, -187500.02, 0.000, 0.000, 0.000, 17:55:28.225
111, 45689.63, 66051.99, -187500.02, -187500.02, -154307.66, -187500.02, -187500.02, -187500.02, 0.014, -0.014, 1.022, 17:55:28.225
112, 45484.64, 66637.19, -187500.02, -187500.02, -154441.63, -187500.02, -187500.02, -187500.02, 0.000, 0.000, 0.000, 17:55:28.225
113, 46053.78, 67400.88, -187500.02, -187500.02, -154541.83, -187500.02, -187500.02, -187500.02, 0.000, 0.000, 0.000, 17:55:28.225
114, 46288.54, 67386.17, -187500.02, -187500.02, -154535.50, -187500.02, -187500.02, -187500.02, 0.000, 0.000, 0.000, 17:55:28.225
115, 46195.91, 66824.00, -187500.02, -187500.02, -154395.88, -187500.02, -187500.02, -187500.02, 0.000, 0.000, 0.000, 17:55:28.226
116, 45707.80, 66070.77, -187500.02, -187500.02, -154310.20, -187500.02, -187500.02, -187500.02, 0.000, 0.000, 0.000, 17:55:28.226
117, 45498.72, 66649.34, -187500.02, -187500.02, -154474.63, -187500.02, -187500.02, -187500.02, 0.000, 0.000, 0.000, 17:55:28.226
118, 46074.54, 67426.74, -187500.02, -187500.02, -154609.16, -187500.02, -187500.02, -187500.02, 0.000, 0.000, 0.000, 17:55:28.226
119, 46317.53, 67413.62, -187500.02, -187500.02, -154619.91, -187500.02, -187500.02, -187500.02, 0.000, 0.000, 0.000, 17:55:28.226
120, 46222.13, 66848.90, -187500.02, -187500.02, -154463.64, -187500.02, -187500.02, -187500.02, 0.000, 0.000, 0.000, 17:55:28.226
121, 45726.35, 66085.61, -187500.02, -187500.02, -154353.70, -187500.02, -187500.02, -187500.02, 0.018, -0.010, 1.024, 17:55:28.226
122, 45515.70, 66662.58, -187500.02, -187500.02, -154573.78, -187500.02, -187500.02, -187500.02, 0.000, 0.000, 0.000, 17:55:28.226
123, 46082.39, 67428.93, -187500.02, -187500.02, -154725.55, -187500.02, -187500.02, -187500.02, 0.000, 0.000, 0.000, 17:55:28.227
124, 46311.20, 67406.22, -187500.02, -187500.02, -154726.58, -187500.02, -187500.02, -187500.02, 0.000, 0.000, 0.000, 17:55:28.227
125, 46209.01, 66838.46, -187500.02, -187500.02, -154565.77, -187500.02, -187500.02, -187500.02, 0.000, 0.000, 0.000, 17:55:28.227
126, 45715.35, 66071.02, -187500.02, -187500.02, -154430.00, -187500.02, -187500.02, -187500.02, 0.000, 0.000, 0.000, 17:55:28.227
127, 45497.22, 66638.17, -187500.02, -187500.02, -154579.00, -187500.02, -187500.02, -187500.02, 0.000, 0.000, 0.000, 17:55:28.227
128, 46064.62, 67413.10, -187500.02, -187500.02, -154674.64, -187500.02, -187500.02, -187500.02, 0.000, 0.000, 0.000, 17:55:28.227
129, 46301.55, 67398.89, -187500.02, -187500.02, -154643.20, -187500.02, -187500.02, -187500.02, 0.000, 0.000, 0.000, 17:55:28.227
130, 46205.17, 66838.58, -187500.02, -187500.02, -154503.52, -187500.02, -187500.02, -187500.02, 0.000, 0.000, 0.000, 17:55:28.227
131, 45713.99, 66063.66, -187500.02, -187500.02, -154366.22, -187500.02, -187500.02, -187500.02, 0.014, -0.008, 1.022, 17:55:28.228
132, 45505.22, 66637.74, -187500.02, -187500.02, -154573.58, -187500.02, -187500.02, -187500.02, 0.000, 0.000, 0.000, 17:55:28.228
133, 46070.09, 67416.55, -187500.02, -187500.02, -154701.33, -187500.02, -187500.02, -187500.02, 0.000, 0.000, 0.000, 17:55:28.228
134, 46313.37, 67411.88, -187500.02, -187500.02, -154694.98, -187500.02, -187500.02, -187500.02, 0.000, 0.000, 0.000, 17:55:28.228
135, 46232.84, 66868.64, -187500.02, -187500.02, -154597.72, -187500.02, -187500.02, -187500.02, 0.000, 0.000, 0.000, 17:55:28.228
136, 45754.76, 66106.38, -187500.02, -187500.02, -154510.19, -187500.02, -187500.02, -187500.02, 0.000, 0.000, 0.000, 17:55:28.228
137, 45516.96, 66648.41, -187500.02, -187500.02, -154645.61, -187500.02, -187500.02, -187500.02, 0.000, 0.000, 0.000, 17:55:28.228
138, 46074.12, 67422.49, -187500.02, -187500.02, -154760.23, -187500.02, -187500.02, -187500.02, 0.000, 0.000, 0.000, 17:55:28.228
139, 46316.68, 67416.68, -187500.02, -187500.02, -154748.52, -187500.02, -187500.02, -187500.02, 0.000, 0.000, 0.000, 17:55:28.229
140, 46225.86, 66866.59, -187500.02, -187500.02, -154611.42, -187500.02, -187500.02, -187500.02, 0.000, 0.000, 0.000, 17:55:28.229
141, 45741.19, 66092.97, -187500.02, -187500.02, -154506.86, -187500.02, -187500.02, -187500.02, 0.020, -0.012, 1.024, 17:55:28.229
142, 45496.68, 66629.63, -187500.02, -187500.02, -154614.03, -187500.02, -187500.02, -187500.02, 0.000, 0.000, 0.000, 17:55:28.229
143, 46063.12, 67416.73, -187500.02, -187500.02, -154723.70, -187500.02, -187500.02, -187500.02, 0.000, 0.000, 0.000, 17:55:28.229
144, 46313.42, 67415.56, -187500.02, -187500.02, -154706.78, -187500.02, -187500.02, -187500.02, 0.000, 0.000, 0.000, 17:55:28.229
145, 46223.92, 66866.54, -187500.02, -187500.02, -154527.97, -187500.02, -187500.02, -187500.02, 0.000, 0.000, 0.000, 17:55:28.229
146, 45750.38, 66098.30, -187500.02, -187500.02, -154456.45, -187500.02, -187500.02, -187500.02, 0.000, 0.000, 0.000, 17:55:28.229
147, 45518.79, 66643.24, -187500.02, -187500.02, -154632.17, -187500.02, -187500.02, -187500.02, 0.000, 0.000, 0.000, 17:55:28.229
148, 46082.59, 67435.08, -187500.02, -187500.02, -154803.61, -187500.02, -187500.02, -187500.02, 0.000, 0.000, 0.000, 17:55:28.230
