%OpenBCI Raw EEG Data
%
%Sample Rate = 250.0 Hz
%First Column = SampleIndex
%Last Column = Timestamp 
%Other Columns = EEG data in microvolts followed by Accel Data (in G) interleaved with Aux Data
0, 30984.97, 12540.09, 187500.00, 187500.00, -187500.02, -187500.02, -187500.02, -187500.02, 0.010, -0.016, 1.034, 16:52:29.033
1, 30792.12, 12290.84, 187500.00, 187500.00, -187500.02, -187500.02, -187500.02, -187500.02, 0.000, 0.000, 0.000, 16:52:29.034
2, 30717.73, 12256.40, 187500.00, 187500.00, -187500.02, -187500.02, -187500.02, -187500.02, 0.000, 0.000, 0.000, 16:52:29.035
3, 30949.14, 12659.00, 187500.00, 187500.00, -187500.02, -187500.02, -187500.02, -187500.02, 0.000, 0.000, 0.000, 16:52:29.035
4, 31165.30, 12816.85, 187500.00, 187500.00, -187500.02, -187500.02, -187500.02, -187500.02, 0.000, 0.000, 0.000, 16:52:29.035
5, 30955.98, 12523.15, 187500.00, 187500.00, -187500.02, -187500.02, -187500.02, -187500.02, 0.000, 0.000, 0.000, 16:52:29.035
6, 30792.19, 12289.08, 187500.00, 187500.00, -187500.02, -187500.02, -187500.02, -187500.02, 0.000, 0.000, 0.000, 16:52:29.035
7, 30706.80, 12240.91, 187500.00, 187500.00, -187500.02, -187500.02, -187500.02, -187500.02, 0.004, -0.020, 1.032, 16:52:29.036
8, 30937.34, 12650.33, 187500.00, 187500.00, -187500.02, -187500.02, -187500.02, -187500.02, 0.000, 0.000, 0.000, 16:52:29.036
9, 31158.29, 12815.24, 187500.00, 187500.00, -187500.02, -187500.02, -187500.02, -187500.02, 0.000, 0.000, 0.000, 16:52:29.037
10, 30957.05, 12535.84, 187500.00, 187500.00, -187500.02, -187500.02, -187500.02, -187500.02, 0.000, 0.000, 0.000, 16:52:29.037
11, 30794.76, 12289.84, 187500.00, 187500.00, -187500.02, -187500.02, -187500.02, -187500.02, 0.000, 0.000, 0.000, 16:52:29.037
12, 30712.39, 12245.87, 187500.00, 187500.00, -187500.02, -187500.02, -187500.02, -187500.02, 0.000, 0.000, 0.000, 16:52:29.038
13, 30946.75, 12659.31, 187500.00, 187500.00, -187500.02, -187500.02, -187500.02, -187500.02, 0.000, 0.000, 0.000, 16:52:29.038
14, 31169.13, 12816.45, 187500.00, 187500.00, -187500.02, -187500.02, -187500.02, -187500.02, 0.000, 0.000, 0.000, 16:52:29.038
15, 30974.44, 12547.13, 187500.00, 187500.00, -187500.02, -187500.02, -187500.02, -187500.02, 0.000, 0.000, 0.000, 16:52:29.039
16, 30796.19, 12296.23, 187500.00, 187500.00, -187500.02, -187500.02, -187500.02, -187500.02, 0.000, 0.000, 0.000, 16:52:29.039
17, 30702.89, 12245.16, 187500.00, 187500.00, -187500.02, -187500.02, -187500.02, -187500.02, -0.006, -0.022, 1.028, 16:52:29.040
18, 30943.26, 12651.29, 187500.00, 187500.00, -187500.02, -187500.02, -187500.02, -187500.02, 0.000, 0.000, 0.000, 16:52:29.040
19, 31151.74, 12799.84, 187500.00, 187500.00, -187500.02, -187500.02, -187500.02, -187500.02, 0.000, 0.000, 0.000, 16:52:29.040
20, 30936.00, 12509.09, 187500.00, 187500.00, -187500.02, -187500.02, -187500.02, -187500.02, 0.000, 0.000, 0.000, 16:52:29.041
21, 30779.65, 12278.26, 187500.00, 187500.00, -187500.02, -187500.02, -187500.02, -187500.02, 0.000, 0.000, 0.000, 16:52:29.041
22, 30690.91, 12223.41, 187500.00, 187500.00, -187500.02, -187500.02, -187500.02, -187500.02, 0.000, 0.000, 0.000, 16:52:29.041
23, 30943.75, 12644.11, 187500.00, 187500.00, -187500.02, -187500.02, -187500.02, -187500.02, 0.000, 0.000, 0.000, 16:52:29.042
24, 31157.08, 12806.95, 187500.00, 187500.00, -187500.02, -187500.02, -187500.02, -187500.02, 0.000, 0.000, 0.000, 16:52:29.042
25, 30943.31, 12526.32, 187500.00, 187500.00, -187500.02, -187500.02, -187500.02, -187500.02, 0.000, 0.000, 0.000, 16:52:29.042
26, 30784.39, 12292.63, 187500.00, 187500.00, -187500.02, -187500.02, -187500.02, -187500.02, 0.000, -0.016, 1.014, 16:52:29.043
27, 30702.36, 12243.48, 187500.00, 187500.00, -187500.02, -187500.02, -187500.02, -187500.02, 0.000, 0.000, 0.000, 16:52:29.043
28, 30940.65, 12652.94, 187500.00, 187500.00, -187500.02, -187500.02, -187500.02, -187500.02, 0.000, 0.000, 0.000, 16:52:29.043
29, 31158.53, 12810.52, 187500.00, 187500.00, -187500.02, -187500.02, -187500.02, -187500.02, 0.000, 0.000, 0.000, 16:52:29.044
30, 30964.23, 12535.77, 187500.00, 187500.00, -187500.02, -187500.02, -187500.02, -187500.02, 0.000, 0.000, 0.000, 16:52:29.044
31, 30797.17, 12293.12, 187500.00, 187500.00, -187500.02, -187500.02, -187500.02, -187500.02, 0.000, 0.000, 0.000, 16:52:29.044
32, 30706.80, 12248.87, 187500.00, 187500.00, -187500.02, -187500.02, -187500.02, -187500.02, 0.000, 0.000, 0.000, 16:52:29.045
33, 30956.07, 12675.03, 187500.00, 187500.00, -187500.02, -187500.02, -187500.02, -187500.02, 0.000, 0.000, 0.000, 16:52:29.045
34, 31168.12, 12828.18, 187500.00, 187500.00, -187500.02, -187500.02, -187500.02, -187500.02, 0.000, 0.000, 0.000, 16:52:29.045
35, 30966.40, 12539.53, 187500.00, 187500.00, -187500.02, -187500.02, -187500.02, -187500.02, 0.000, 0.000, 0.000, 16:52:29.045
36, 30789.28, 12283.87, 187500.00, 187500.00, -187500.02, -187500.02, -187500.02, -187500.02, 0.002, -0.018, 1.030, 16:52:29.046
37, 30703.00, 12236.78, 187500.00, 187500.00, -187500.02, -187500.02, -187500.02, -187500.02, 0.000, 0.000, 0.000, 16:52:29.046
38, 30946.35, 12659.02, 187500.00, 187500.00, -187500.02, -187500.02, -187500.02, -187500.02, 0.000, 0.000, 0.000, 16:52:29.046
39, 31159.63, 12817.90, 187500.00, 187500.00, -187500.02, -187500.02, -187500.02, -187500.02, 0.000, 0.000, 0.000, 16:52:29.047
40, 30956.70, 12536.65, 187500.00, 187500.00, -187500.02, -187500.02, -187500.02, -187500.02, 0.000, 0.000, 0.000, 16:52:29.047
41, 30799.34, 12296.77, 187500.00, 187500.00, -187500.02, -187500.02, -187500.02, -187500.02, 0.000, 0.000, 0.000, 16:52:29.047
42, 30703.96, 12248.69, 187500.00, 187500.00, -187500.02, -187500.02, -187500.02, -187500.02, 0.000, 0.000, 0.000, 16:52:29.047
43, 30939.91, 12658.44, 187500.00, 187500.00, -187500.02, -187500.02, -187500.02, -187500.02, 0.000, 0.000, 0.000, 16:52:29.048
44, 31159.52, 12821.83, 187500.00, 187500.00, -187500.02, -187500.02, -187500.02, -187500.02, 0.000, 0.000, 0.000, 16:52:29.048
45, 30960.63, 12539.06, 187500.00, 187500.00, -187500.02, -187500.02, -187500.02, -187500.02, 0.000, 0.000, 0.000, 16:52:29.048
46, 30792.79, 12295.43, 187500.00, 187500.00, -187500.02, -187500.02, -187500.02, -187500.02, 0.004, -0.016, 1.024, 16:52:29.048
47, 30697.84, 12241.56, 187500.00, 187500.00, -187500.02, -187500.02, -187500.02, -187500.02, 0.000, 0.000, 0.000, 16:52:29.049
48, 30934.32, 12655.51, 187500.00, 187500.00, -187500.02, -187500.02, -187500.02, -187500.02, 0.000, 0.000, 0.000, 16:52:29.049
49, 31158.53, 12823.51, 187500.00, 187500.00, -187500.02, -187500.02, -187500.02, -187500.02, 0.000, 0.000, 0.000, 16:52:29.049
50, 30958.35, 12544.94, 187500.00, 187500.00, -187500.02, -187500.02, -187500.02, -187500.02, 0.000, 0.000, 0.000, 16:52:29.050
51, 30798.71, 12306.94, 187500.00, 187500.00, -187500.02, -187500.02, -187500.02, -187500.02, 0.000, 0.000, 0.000, 16:52:29.050
52, 30709.02, 12253.40, 187500.00, 187500.00, -187500.02, -187500.02, -187500.02, -187500.02, 0.000, 0.000, 0.000, 16:52:29.050
53, 30953.54, 12672.39, 187500.00, 187500.00, -187500.02, -187500.02, -187500.02, -187500.02, 0.000, 0.000, 0.000, 16:52:29.050
54, 31184.50, 12838.37, 187500.00, 187500.00, -187500.02, -187500.02, -187500.02, -187500.02, 0.000, 0.000, 0.000, 16:52:29.051
55, 30974.87, 12553.54, 187500.00, 187500.00, -187500.02, -187500.02, -187500.02, -187500.02, 0.000, 0.000, 0.000, 16:52:29.051
56, 30796.70, 12300.77, 187500.00, 187500.00, -187500.02, -187500.02, -187500.02, -187500.02, 0.004, -0.018, 1.026, 16:52:29.051
57, 30699.43, 12249.45, 187500.00, 187500.00, -187500.02, -187500.02, -187500.02, -187500.02, 0.000, 0.000, 0.000, 16:52:29.052
58, 30970.64, 12685.31, 187500.00, 187500.00, -187500.02, -187500.02, -187500.02, -187500.02, 0.000, 0.000, 0.000, 16:52:29.052
59, 31192.73, 12851.00, 187500.00, 187500.00, -187500.02, -187500.02, -187500.02, -187500.02, 0.000, 0.000, 0.000, 16:52:29.052
60, 30975.02, 12555.91, 187500.00, 187500.00, -187500.02, -187500.02, -187500.02, -187500.02, 0.000, 0.000, 0.000, 16:52:29.052
61, 30785.59, 12295.76, 187500.00, 187500.00, -187500.02, -187500.02, -187500.02, -187500.02, 0.000, 0.000, 0.000, 16:52:29.053
62, 30689.50, 12248.78, 187500.00, 187500.00, -187500.02, -187500.02, -187500.02, -187500.02, 0.000, 0.000, 0.000, 16:52:29.053
63, 30945.52, 12675.09, 187500.00, 187500.00, -187500.02, -187500.02, -187500.02, -187500.02, 0.000, 0.000, 0.000, 16:52:29.054
64, 31167.07, 12835.80, 187500.00, 187500.00, -187500.02, -187500.02, -187500.02, -187500.02, 0.000, 0.000, 0.000, 16:52:29.055
65, 30970.15, 12569.23, 187500.00, 187500.00, -187500.02, -187500.02, -187500.02, -187500.02, 0.000, 0.000, 0.000, 16:52:29.055
66, 30799.38, 12318.47, 187500.00, 187500.00, -187500.02, -187500.02, -187500.02, -187500.02, 0.010, -0.018, 1.024, 16:52:29.056
67, 30716.26, 12272.07, 187500.00, 187500.00, -187500.02, -187500.02, -187500.02, -187500.02, 0.000, 0.000, 0.000, 16:52:29.056
68, 30951.67, 12684.46, 187500.00, 187500.00, -187500.02, -187500.02, -187500.02, -187500.02, 0.000, 0.000, 0.000, 16:52:29.056
69, 31177.35, 12848.86, 187500.00, 187500.00, -187500.02, -187500.02, -187500.02, -187500.02, 0.000, 0.000, 0.000, 16:52:29.057
70, 30975.90, 12570.58, 187500.00, 187500.00, -187500.02, -187500.02, -187500.02, -187500.02, 0.000, 0.000, 0.000, 16:52:29.057
71, 30808.50, 12324.82, 187500.00, 187500.00, -187500.02, -187500.02, -187500.02, -187500.02, 0.000, 0.000, 0.000, 16:52:29.057
72, 30719.41, 12273.66, 187500.00, 187500.00, -187500.02, -187500.02, -187500.02, -187500.02, 0.000, 0.000, 0.000, 16:52:29.057
73, 30957.03, 12689.71, 187500.00, 187500.00, -187500.02, -187500.02, -187500.02, -187500.02, 0.000, 0.000, 0.000, 16:52:29.068
74, 31184.21, 12860.37, 187500.00, 187500.00, -187500.02, -187500.02, -187500.02, -187500.02, 0.000, 0.000, 0.000, 16:52:29.068
75, 30987.32, 12584.68, 187500.00, 187500.00, -187500.02, -187500.02, -187500.02, -187500.02, 0.000, 0.000, 0.000, 16:52:29.068
76, 30810.98, 12331.21, 187500.00, 187500.00, -187500.02, -187500.02, -187500.02, -187500.02, 0.008, -0.012, 1.026, 16:52:29.069
77, 30720.77, 12274.66, 187500.00, 187500.00, -187500.02, -187500.02, -187500.02, -187500.02, 0.000, 0.000, 0.000, 16:52:29.069
78, 30955.06, 12687.57, 187500.00, 187500.00, -187500.02, -187500.02, -187500.02, -187500.02, 0.000, 0.000, 0.000, 16:52:29.070
79, 31178.02, 12853.57, 187500.00, 187500.00, -187500.02, -187500.02, -187500.02, -187500.02, 0.000, 0.000, 0.000, 16:52:29.070
80, 30972.63, 12566.46, 187500.00, 187500.00, -187500.02, -187500.02, -187500.02, -187500.02, 0.000, 0.000, 0.000, 16:52:29.070
81, 30803.47, 12317.53, 187500.00, 187500.00, -187500.02, -187500.02, -187500.02, -187500.02, 0.000, 0.000, 0.000, 16:52:29.071
82, 30706.22, 12260.02, 187500.00, 187500.00, -187500.02, -187500.02, -187500.02, -187500.02, 0.000, 0.000, 0.000, 16:52:29.071
83, 30948.18, 12673.86, 187500.00, 187500.00, -187500.02, -187500.02, -187500.02, -187500.02, 0.000, 0.000, 0.000, 16:52:29.071
84, 31177.89, 12842.55, 187500.00, 187500.00, -187500.02, -187500.02, -187500.02, -187500.02, 0.000, 0.000, 0.000, 16:52:29.072
85, 30971.45, 12559.76, 187500.00, 187500.00, -187500.02, -187500.02, -187500.02, -187500.02, 0.000, 0.000, 0.000, 16:52:29.072
86, 30816.08, 12319.90, 187500.00, 187500.00, -187500.02, -187500.02, -187500.02, -187500.02, 0.006, -0.012, 1.024, 16:52:29.072
87, 30733.94, 12279.38, 187500.00, 187500.00, -187500.02, -187500.02, -187500.02, -187500.02, 0.000, 0.000, 0.000, 16:52:29.073
88, 30946.19, 12677.86, 187500.00, 187500.00, -187500.02, -187500.02, -187500.02, -187500.02, 0.000, 0.000, 0.000, 16:52:29.075
89, 31170.74, 12840.58, 187500.00, 187500.00, -187500.02, -187500.02, -187500.02, -187500.02, 0.000, 0.000, 0.000, 16:52:29.075
90, 30964.56, 12560.81, 187500.00, 187500.00, -187500.02, -187500.02, -187500.02, -187500.02, 0.000, 0.000, 0.000, 16:52:29.075
91, 30795.43, 12316.33, 187500.00, 187500.00, -187500.02, -187500.02, -187500.02, -187500.02, 0.000, 0.000, 0.000, 16:52:29.076
92, 30706.24, 12260.00, 187500.00, 187500.00, -187500.02, -187500.02, -187500.02, -187500.02, 0.000, 0.000, 0.000, 16:52:29.076
93, 30952.54, 12686.29, 187500.00, 187500.00, -187500.02, -187500.02, -187500.02, -187500.02, 0.000, 0.000, 0.000, 16:52:29.077
94, 31186.25, 12859.05, 187500.00, 187500.00, -187500.02, -187500.02, -187500.02, -187500.02, 0.000, 0.000, 0.000, 16:52:29.077
95, 30985.82, 12591.81, 187500.00, 187500.00, -187500.02, -187500.02, -187500.02, -187500.02, 0.000, 0.000, 0.000, 16:52:29.077
96, 30813.00, 12338.07, 187500.00, 187500.00, -187500.02, -187500.02, -187500.02, -187500.02, 0.012, -0.012, 1.022, 16:52:29.077
97, 30719.28, 12274.04, 187500.00, 187500.00, -187500.02, -187500.02, -187500.02, -187500.02, 0.000, 0.000, 0.000, 16:52:29.078
98, 30967.65, 12704.08, 187500.00, 187500.00, -187500.02, -187500.02, -187500.02, -187500.02, 0.000, 0.000, 0.000, 16:52:29.083
99, 31182.25, 12859.14, 187500.00, 187500.00, -187500.02, -187500.02, -187500.02, -187500.02, 0.000, 0.000, 0.000, 16:52:29.088
100, 30984.75, 12576.19, 187500.00, 187500.00, -187500.02, -187500.02, -187500.02, -187500.02, 0.000, 0.000, 0.000, 16:52:29.088
101, 30798.69, 12322.05, 187500.00, 187500.00, -187500.02, -187500.02, -187500.02, -187500.02, 0.000, 0.000, 0.000, 16:52:29.089
102, 30719.59, 12280.56, 187500.00, 187500.00, -187500.02, -187500.02, -187500.02, -187500.02, 0.000, 0.000, 0.000, 16:52:29.089
103, 30953.92, 12699.68, 187500.00, 187500.00, -187500.02, -187500.02, -187500.02, -187500.02, 0.000, 0.000, 0.000, 16:52:29.089
104, 31173.80, 12862.29, 187500.00, 187500.00, -187500.02, -187500.02, -187500.02, -187500.02, 0.000, 0.000, 0.000, 16:52:29.090
105, 30979.25, 12585.22, 187500.00, 187500.00, -187500.02, -187500.02, -187500.02, -187500.02, 0.000, 0.000, 0.000, 16:52:29.090
106, 30798.71, 12327.21, 187500.00, 187500.00, -187500.02, -187500.02, -187500.02, -187500.02, 0.010, -0.014, 1.026, 16:52:29.090
107, 30704.32, 12270.37, 187500.00, 187500.00, -187500.02, -187500.02, -187500.02, -187500.02, 0.000, 0.000, 0.000, 16:52:29.090
108, 30946.23, 12691.23, 187500.00, 187500.00, -187500.02, -187500.02, -187500.02, -187500.02, 0.000, 0.000, 0.000, 16:52:29.091
109, 31174.38, 12859.58, 187500.00, 187500.00, -187500.02, -187500.02, -187500.02, -187500.02, 0.000, 0.000, 0.000, 16:52:29.091
110, 30977.79, 12580.68, 187500.00, 187500.00, -187500.02, -187500.02, -187500.02, -187500.02, 0.000, 0.000, 0.000, 16:52:29.091
111, 30798.69, 12323.21, 187500.00, 187500.00, -187500.02, -187500.02, -187500.02, -187500.02, 0.000, 0.000, 0.000, 16:52:29.091
112, 30716.24, 12279.65, 187500.00, 187500.00, -187500.02, -187500.02, -187500.02, -187500.02, 0.000, 0.000, 0.000, 16:52:29.092
113, 30953.46, 12701.02, 187500.00, 187500.00, -187500.02, -187500.02, -187500.02, -187500.02, 0.000, 0.000, 0.000, 16:52:29.092
114, 31177.60, 12862.51, 187500.00, 187500.00, -187500.02, -187500.02, -187500.02, -187500.02, 0.000, 0.000, 0.000, 16:52:29.092
115, 30968.56, 12574.76, 187500.00, 187500.00, -187500.02, -187500.02, -187500.02, -187500.02, 0.000, 0.000, 0.000, 16:52:29.093
116, 30798.54, 12335.84, 187500.00, 187500.00, -187500.02, -187500.02, -187500.02, -187500.02, 0.012, -0.014, 1.034, 16:52:29.093
117, 30714.63, 12287.85, 187500.00, 187500.00, -187500.02, -187500.02, -187500.02, -187500.02, 0.000, 0.000, 0.000, 16:52:29.093
118, 30944.40, 12696.35, 187500.00, 187500.00, -187500.02, -187500.02, -187500.02, -187500.02, 0.000, 0.000, 0.000, 16:52:29.093
119, 31175.56, 12864.43, 187500.00, 187500.00, -187500.02, -187500.02, -187500.02, -187500.02, 0.000, 0.000, 0.000, 16:52:29.094
120, 30979.54, 12588.50, 187500.00, 187500.00, -187500.02, -187500.02, -187500.02, -187500.02, 0.000, 0.000, 0.000, 16:52:29.513
121, 30812.08, 12348.40, 187500.00, 187500.00, -187500.02, -187500.02, -187500.02, -187500.02, 0.000, 0.000, 0.000, 16:52:29.513
122, 30730.83, 12299.67, 187500.00, 187500.00, -187500.02, -187500.02, -187500.02, -187500.02, 0.000, 0.000, 0.000, 16:52:29.514
123, 30955.69, 12700.51, 187500.00, 187500.00, -187500.02, -187500.02, -187500.02, -187500.02, 0.000, 0.000, 0.000, 16:52:29.514
124, 31170.47, 12859.49, 187500.00, 187500.00, -187500.02, -187500.02, -187500.02, -187500.02, 0.000, 0.000, 0.000, 16:52:29.514
125, 30977.26, 12592.03, 187500.00, 187500.00, -187500.02, -187500.02, -187500.02, -187500.02, 0.000, 0.000, 0.000, 16:52:29.514
126, 30817.87, 12351.93, 187500.00, 187500.00, -187500.02, -187500.02, -187500.02, -187500.02, 0.010, -0.014, 1.028, 16:52:29.515
127, 30720.06, 12287.09, 187500.00, 187500.00, -187500.02, -187500.02, -187500.02, -187500.02, 0.000, 0.000, 0.000, 16:52:29.515
128, 30959.02, 12703.84, 187500.00, 187500.00, -187500.02, -187500.02, -187500.02, -187500.02, 0.000, 0.000, 0.000, 16:52:29.516
129, 31178.38, 12865.91, 187500.00, 187500.00, -187500.02, -187500.02, -187500.02, -187500.02, 0.000, 0.000, 0.000, 16:52:29.516
130, 30976.37, 12591.05, 187500.00, 187500.00, -187500.02, -187500.02, -187500.02, -187500.02, 0.000, 0.000, 0.000, 16:52:29.516
131, 30814.76, 12358.50, 187500.00, 187500.00, -187500.02, -187500.02, -187500.02, -187500.02, 0.000, 0.000, 0.000, 16:52:29.516
132, 30729.00, 12309.57, 187500.00, 187500.00, -187500.02, -187500.02, -187500.02, -187500.02, 0.000, 0.000, 0.000, 16:52:29.517
133, 30958.86, 12715.17, 187500.00, 187500.00, -187500.02, -187500.02, -187500.02, -187500.02, 0.000, 0.000, 0.000, 16:52:29.517
134, 31178.63, 12872.95, 187500.00, 187500.00, -187500.02, -187500.02, -187500.02, -187500.02, 0.000, 0.000, 0.000, 16:52:29.517
135, 30964.50, 12586.85, 187500.00, 187500.00, -187500.02, -187500.02, -187500.02, -187500.02, 0.000, 0.000, 0.000, 16:52:29.518
136, 30788.48, 12334.16, 187500.00, 187500.00, -187500.02, -187500.02, -187500.02, -187500.02, 0.014, -0.010, 1.028, 16:52:29.518
137, 30703.21, 12284.58, 187500.00, 187500.00, -187500.02, -187500.02, -187500.02, -187500.02, 0.000, 0.000, 0.000, 16:52:29.518
138, 30945.03, 12701.11, 187500.00, 187500.00, -187500.02, -187500.02, -187500.02, -187500.02, 0.000, 0.000, 0.000, 16:52:29.519
139, 31167.70, 12867.65, 187500.00, 187500.00, -187500.02, -187500.02, -187500.02, -187500.02, 0.000, 0.000, 0.000, 16:52:29.519
140, 30958.93, 12577.46, 187500.00, 187500.00, -187500.02, -187500.02, -187500.02, -187500.02, 0.000, 0.000, 0.000, 16:52:29.519
141, 30795.32, 12332.51, 187500.00, 187500.00, -187500.02, -187500.02, -187500.02, -187500.02, 0.000, 0.000, 0.000, 16:52:29.519
142, 30696.52, 12275.85, 187500.00, 187500.00, -187500.02, -187500.02, -187500.02, -187500.02, 0.000, 0.000, 0.000, 16:52:29.520
143, 30924.49, 12683.25, 187500.00, 187500.00, -187500.02, -187500.02, -187500.02, -187500.02, 0.000, 0.000, 0.000, 16:52:29.520
144, 31157.39, 12853.79, 187500.00, 187500.00, -187500.02, -187500.02, -187500.02, -187500.02, 0.000, 0.000, 0.000, 16:52:29.521
145, 30972.01, 12586.87, 187500.00, 187500.00, -187500.02, -187500.02, -187500.02, -187500.02, 0.016, -0.018, 1.028, 16:52:29.521
146, 30793.97, 12340.11, 187500.00, 187500.00, -187500.02, -187500.02, -187500.02, -187500.02, 0.000, 0.000, 0.000, 16:52:29.521
147, 30697.46, 12270.66, 187500.00, 187500.00, -187500.02, -187500.02, -187500.02, -187500.02, 0.000, 0.000, 0.000, 16:52:29.521
148, 30942.73, 12685.35, 187500.00, 187500.00, -187500.02, -187500.02, -187500.02, -187500.02, 0.000, 0.000, 0.000, 16:52:29.522
149, 31176.19, 12861.51, 187500.00, 187500.00, -187500.02, -187500.02, -187500.02, -187500.02, 0.000, 0.000, 0.000, 16:52:29.522
150, 30964.25, 12578.31, 187500.00, 187500.00, -187500.02, -187500.02, -187500.02, -187500.02, 0.000, 0.000, 0.000, 16:52:29.522
151, 30780.94, 12327.41, 187500.00, 187500.00, -187500.02, -187500.02, -187500.02, -187500.02, 0.000, 0.000, 0.000, 16:52:29.523
152, 30702.62, 12287.22, 187500.00, 187500.00, -187500.02, -187500.02, -187500.02, -187500.02, 0.000, 0.000, 0.000, 16:52:29.523
153, 30943.29, 12706.83, 187500.00, 187500.00, -187500.02, -187500.02, -187500.02, -187500.02, 0.000, 0.000, 0.000, 16:52:29.523
154, 31159.61, 12866.25, 187500.00, 187500.00, -187500.02, -187500.02, -187500.02, -187500.02, 0.000, 0.000, 0.000, 16:52:29.523
155, 30961.95, 12588.52, 187500.00, 187500.00, -187500.02, -187500.02, -187500.02, -187500.02, 0.012, -0.014, 1.032, 16:52:29.524
156, 30783.18, 12330.54, 187500.00, 187500.00, -187500.02, -187500.02, -187500.02, -187500.02, 0.000, 0.000, 0.000, 16:52:29.524
157, 30697.04, 12276.90, 187500.00, 187500.00, -187500.02, -187500.02, -187500.02, -187500.02, 0.000, 0.000, 0.000, 16:52:29.524
158, 30921.36, 12683.94, 187500.00, 187500.00, -187500.02, -187500.02, -187500.02, -187500.02, 0.000, 0.000, 0.000, 16:52:29.525
159, 31166.51, 12857.10, 187500.00, 187500.00, -187500.02, -187500.02, -187500.02, -187500.02, 0.000, 0.000, 0.000, 16:52:29.525
160, 30976.48, 12586.58, 187500.00, 187500.00, -187500.02, -187500.02, -187500.02, -187500.02, 0.000, 0.000, 0.000, 16:52:29.525
161, 30791.23, 12333.65, 187500.00, 187500.00, -187500.02, -187500.02, -187500.02, -187500.02, 0.000, 0.000, 0.000, 16:52:29.525
162, 30697.64, 12272.85, 187500.00, 187500.00, -187500.02, -187500.02, -187500.02, -187500.02, 0.000, 0.000, 0.000, 16:52:29.526
163, 30952.90, 12704.49, 187500.00, 187500.00, -187500.02, -187500.02, -187500.02, -187500.02, 0.000, 0.000, 0.000, 16:52:29.526
164, 31180.30, 12881.62, 187500.00, 187500.00, -187500.02, -187500.02, -187500.02, -187500.02, 0.000, 0.000, 0.000, 16:52:29.526
165, 30968.21, 12586.20, 187500.00, 187500.00, -187500.02, -187500.02, -187500.02, -187500.02, 0.008, -0.018, 1.026, 16:52:29.527
166, 30795.74, 12335.66, 187500.00, 187500.00, -187500.02, -187500.02, -187500.02, -187500.02, 0.000, 0.000, 0.000, 16:52:29.527
167, 30705.22, 12281.97, 187500.00, 187500.00, -187500.02, -187500.02, -187500.02, -187500.02, 0.000, 0.000, 0.000, 16:52:29.527
168, 30948.89, 12700.39, 187500.00, 187500.00, -187500.02, -187500.02, -187500.02, -187500.02, 0.000, 0.000, 0.000, 16:52:29.528
169, 31175.34, 12879.48, 187500.00, 187500.00, -187500.02, -187500.02, -187500.02, -187500.02, 0.000, 0.000, 0.000, 16:52:29.528
170, 30969.97, 12593.84, 187500.00, 187500.00, -187500.02, -187500.02, -187500.02, -187500.02, 0.000, 0.000, 0.000, 16:52:29.528
171, 30802.98, 12347.42, 187500.00, 187500.00, -187500.02, -187500.02, -187500.02, -187500.02, 0.000, 0.000, 0.000, 16:52:29.529
172, 30714.36, 12292.25, 187500.00, 187500.00, -187500.02, -187500.02, -187500.02, -187500.02, 0.000, 0.000, 0.000, 16:52:29.529
173, 30954.79, 12702.81, 187500.00, 187500.00, -187500.02, -187500.02, -187500.02, -187500.02, 0.000, 0.000, 0.000, 16:52:29.529
174, 31176.12, 12876.48, 187500.00, 187500.00, -187500.02, -187500.02, -187500.02, -187500.02, 0.000, 0.000, 0.000, 16:52:29.529
175, 30971.72, 12596.97, 187500.00, 187500.00, -187500.02, -187500.02, -187500.02, -187500.02, 0.010, -0.020, 1.030, 16:52:29.530
176, 30786.64, 12335.44, 187500.00, 187500.00, -187500.02, -187500.02, -187500.02, -187500.02, 0.000, 0.000, 0.000, 16:52:29.530
177, 30692.74, 12280.20, 187500.00, 187500.00, -187500.02, -187500.02, -187500.02, -187500.02, 0.000, 0.000, 0.000, 16:52:29.530
178, 30942.55, 12705.49, 187500.00, 187500.00, -187500.02, -187500.02, -187500.02, -187500.02, 0.000, 0.000, 0.000, 16:52:29.531
179, 31182.85, 12881.51, 187500.00, 187500.00, -187500.02, -187500.02, -187500.02, -187500.02, 0.000, 0.000, 0.000, 16:52:29.531
180, 30975.43, 12594.60, 187500.00, 187500.00, -187500.02, -187500.02, -187500.02, -187500.02, 0.000, 0.000, 0.000, 16:52:29.531
181, 30808.48, 12351.46, 187500.00, 187500.00, -187500.02, -187500.02, -187500.02, -187500.02, 0.000, 0.000, 0.000, 16:52:29.532
182, 30706.29, 12280.07, 187500.00, 187500.00, -187500.02, -187500.02, -187500.02, -187500.02, 0.000, 0.000, 0.000, 16:52:29.532
183, 30936.18, 12697.62, 187500.00, 187500.00, -187500.02, -187500.02, -187500.02, -187500.02, 0.000, 0.000, 0.000, 16:52:29.532
184, 31178.60, 12876.33, 187500.00, 187500.00, -187500.02, -187500.02, -187500.02, -187500.02, 0.000, 0.000, 0.000, 16:52:29.533
185, 30982.38, 12602.05, 187500.00, 187500.00, -187500.02, -187500.02, -187500.02, -187500.02, 0.012, -0.022, 1.032, 16:52:29.533
186, 30796.30, 12345.38, 187500.00, 187500.00, -187500.02, -187500.02, -187500.02, -187500.02, 0.000, 0.000, 0.000, 16:52:29.533
187, 30696.57, 12277.10, 187500.00, 187500.00, -187500.02, -187500.02, -187500.02, -187500.02, 0.000, 0.000, 0.000, 16:52:29.533
188, 30931.55, 12691.07, 187500.00, 187500.00, -187500.02, -187500.02, -187500.02, -187500.02, 0.000, 0.000, 0.000, 16:52:29.534
189, 31153.95, 12856.61, 187500.00, 187500.00, -187500.02, -187500.02, -187500.02, -187500.02, 0.000, 0.000, 0.000, 16:52:29.534
190, 30961.01, 12574.44, 187500.00, 187500.00, -187500.02, -187500.02, -187500.02, -187500.02, 0.000, 0.000, 0.000, 16:52:29.534
191, 30771.38, 12306.94, 187500.00, 187500.00, -187500.02, -187500.02, -187500.02, -187500.02, 0.000, 0.000, 0.000, 16:52:29.535
192, 30673.07, 12252.11, 187500.00, 187500.00, -187500.02, -187500.02, -187500.02, -187500.02, 0.000, 0.000, 0.000, 16:52:29.535
193, 30907.34, 12664.30, 187500.00, 187500.00, -187500.02, -187500.02, -187500.02, -187500.02, 0.000, 0.000, 0.000, 16:52:29.535
194, 31138.46, 12838.71, 187500.00, 187500.00, -187500.02, -187500.02, -187500.02, -187500.02, 0.000, 0.000, 0.000, 16:52:29.535
195, 30939.13, 12559.78, 187500.00, 187500.00, -187500.02, -187500.02, -187500.02, -187500.02, 0.010, -0.022, 1.026, 16:52:29.536
196, 30757.43, 12291.76, 187500.00, 187500.00, -187500.02, -187500.02, -187500.02, -187500.02, 0.000, 0.000, 0.000, 16:52:29.536
197, 30667.91, 12234.52, 187500.00, 187500.00, -187500.02, -187500.02, -187500.02, -187500.02, 0.000, 0.000, 0.000, 16:52:29.536
198, 30904.35, 12659.67, 187500.00, 187500.00, -187500.02, -187500.02, -187500.02, -187500.02, 0.000, 0.000, 0.000, 16:52:29.537
199, 31132.85, 12815.39, 187500.00, 187500.00, -187500.02, -187500.02, -187500.02, -187500.02, 0.000, 0.000, 0.000, 16:52:29.537
200, 30942.35, 12543.75, 187500.00, 187500.00, -187500.02, -187500.02, -187500.02, -187500.02, 0.000, 0.000, 0.000, 16:52:29.537
201, 30765.37, 12306.18, 187500.00, 187500.00, -187500.02, -187500.02, -187500.02, -187500.02, 0.000, 0.000, 0.000, 16:52:29.538
202, 30682.37, 12260.85, 187500.00, 187500.00, -187500.02, -187500.02, -187500.02, -187500.02, 0.000, 0.000, 0.000, 16:52:29.538
203, 30928.64, 12678.49, 187500.00, 187500.00, -187500.02, -187500.02, -187500.02, -187500.02, 0.000, 0.000, 0.000, 16:52:29.538
204, 31152.32, 12841.50, 187500.00, 187500.00, -187500.02, -187500.02, -187500.02, -187500.02, 0.000, 0.000, 0.000, 16:52:29.539
205, 30943.06, 12553.41, 187500.00, 187500.00, -187500.02, -187500.02, -187500.02, -187500.02, 0.006, -0.020, 1.024, 16:52:29.539
206, 30784.77, 12312.64, 187500.00, 187500.00, -187500.02, -187500.02, -187500.02, -187500.02, 0.000, 0.000, 0.000, 16:52:29.539
207, 30701.42, 12264.36, 187500.00, 187500.00, -187500.02, -187500.02, -187500.02, -187500.02, 0.000, 0.000, 0.000, 16:52:29.539
208, 30934.50, 12675.32, 187500.00, 187500.00, -187500.02, -187500.02, -187500.02, -187500.02, 0.000, 0.000, 0.000, 16:52:29.540
209, 31148.65, 12834.01, 187500.00, 187500.00, -187500.02, -187500.02, -187500.02, -187500.02, 0.000, 0.000, 0.000, 16:52:29.540
210, 30955.51, 12563.31, 187500.00, 187500.00, -187500.02, -187500.02, -187500.02, -187500.02, 0.000, 0.000, 0.000, 16:52:29.540
211, 30791.79, 12324.37, 187500.00, 187500.00, -187500.02, -187500.02, -187500.02, -187500.02, 0.000, 0.000, 0.000, 16:52:29.541
212, 30710.25, 12271.60, 187500.00, 187500.00, -187500.02, -187500.02, -187500.02, -187500.02, 0.000, 0.000, 0.000, 16:52:29.541
213, 30931.62, 12687.25, 187500.00, 187500.00, -187500.02, -187500.02, -187500.02, -187500.02, 0.000, 0.000, 0.000, 16:52:29.541
214, 31155.49, 12862.09, 187500.00, 187500.00, -187500.02, -187500.02, -187500.02, -187500.02, 0.000, 0.000, 0.000, 16:52:29.542
215, 30967.25, 12589.26, 187500.00, 187500.00, -187500.02, -187500.02, -187500.02, -187500.02, 0.010, -0.016, 1.028, 16:52:29.542
216, 30778.15, 12319.54, 187500.00, 187500.00, -187500.02, -187500.02, -187500.02, -187500.02, 0.000, 0.000, 0.000, 16:52:29.542
217, 30677.43, 12252.76, 187500.00, 187500.00, -187500.02, -187500.02, -187500.02, -187500.02, 0.000, 0.000, 0.000, 16:52:29.542
218, 30913.85, 12662.42, 187500.00, 187500.00, -187500.02, -187500.02, -187500.02, -187500.02, 0.000, 0.000, 0.000, 16:52:29.543
219, 31142.17, 12836.05, 187500.00, 187500.00, -187500.02, -187500.02, -187500.02, -187500.02, 0.000, 0.000, 0.000, 16:52:29.543
220, 30948.18, 12563.20, 187500.00, 187500.00, -187500.02, -187500.02, -187500.02, -187500.02, 0.000, 0.000, 0.000, 16:52:29.543
221, 30774.35, 12321.58, 187500.00, 187500.00, -187500.02, -187500.02, -187500.02, -187500.02, 0.000, 0.000, 0.000, 16:52:29.544
222, 30693.37, 12268.49, 187500.00, 187500.00, -187500.02, -187500.02, -187500.02, -187500.02, 0.000, 0.000, 0.000, 16:52:29.544
223, 30914.45, 12663.96, 187500.00, 187500.00, -187500.02, -187500.02, -187500.02, -187500.02, 0.000, 0.000, 0.000, 16:52:29.544
224, 31135.06, 12826.75, 187500.00, 187500.00, -187500.02, -187500.02, -187500.02, -187500.02, 0.000, 0.000, 0.000, 16:52:29.545
225, 30943.15, 12550.53, 187500.00, 187500.00, -187500.02, -187500.02, -187500.02, -187500.02, 0.010, -0.022, 1.026, 16:52:29.545
226, 30767.38, 12293.01, 187500.00, 187500.00, -187500.02, -187500.02, -187500.02, -187500.02, 0.000, 0.000, 0.000, 16:52:29.545
227, 30675.55, 12242.45, 187500.00, 187500.00, -187500.02, -187500.02, -187500.02, -187500.02, 0.000, 0.000, 0.000, 16:52:29.546
228, 30915.21, 12670.64, 187500.00, 187500.00, -187500.02, -187500.02, -187500.02, -187500.02, 0.000, 0.000, 0.000, 16:52:29.546
229, 31158.29, 12854.62, 187500.00, 187500.00, -187500.02, -187500.02, -187500.02, -187500.02, 0.000, 0.000, 0.000, 16:52:29.546
230, 30962.33, 12579.81, 187500.00, 187500.00, -187500.02, -187500.02, -187500.02, -187500.02, 0.000, 0.000, 0.000, 16:52:29.547
231, 30788.88, 12332.75, 187500.00, 187500.00, -187500.02, -187500.02, -187500.02, -187500.02, 0.000, 0.000, 0.000, 16:52:29.547
232, 30700.52, 12276.11, 187500.00, 187500.00, -187500.02, -187500.02, -187500.02, -187500.02, 0.000, 0.000, 0.000, 16:52:29.547
233, 30921.58, 12664.90, 187500.00, 187500.00, -187500.02, -187500.02, -187500.02, -187500.02, 0.000, 0.000, 0.000, 16:52:29.547
234, 31153.50, 12819.28, 187500.00, 187500.00, -187500.02, -187500.02, -187500.02, -187500.02, 0.000, 0.000, 0.000, 16:52:29.548
235, 30940.31, 12547.24, 187500.00, 187500.00, -187500.02, -187500.02, -187500.02, -187500.02, 0.012, -0.018, 1.024, 16:52:29.548
236, 30761.77, 12305.01, 187500.00, 187500.00, -187500.02, -187500.02, -187500.02, -187500.02, 0.000, 0.000, 0.000, 16:52:29.548
237, 30676.96, 12256.53, 187500.00, 187500.00, -187500.02, -187500.02, -187500.02, -187500.02, 0.000, 0.000, 0.000, 16:52:29.548
238, 30925.72, 12684.37, 187500.00, 187500.00, -187500.02, -187500.02, -187500.02, -187500.02, 0.000, 0.000, 0.000, 16:52:29.549
239, 31138.64, 12837.43, 187500.00, 187500.00, -187500.02, -187500.02, -187500.02, -187500.02, 0.000, 0.000, 0.000, 16:52:29.549
240, 30932.89, 12546.12, 187500.00, 187500.00, -187500.02, -187500.02, -187500.02, -187500.02, 0.000, 0.000, 0.000, 16:52:29.998
241, 30769.03, 12303.14, 187500.00, 187500.00, -187500.02, -187500.02, -187500.02, -187500.02, 0.000, 0.000, 0.000, 16:52:29.999
242, 30677.39, 12243.77, 187500.00, 187500.00, -187500.02, -187500.02, -187500.02, -187500.02, 0.000, 0.000, 0.000, 16:52:29.999
243, 30904.77, 12653.97, 187500.00, 187500.00, -187500.02, -187500.02, -187500.02, -187500.02, 0.000, 0.000, 0.000, 16:52:29.999
244, 31136.13, 12829.21, 187500.00, 187500.00, -187500.02, -187500.02, -187500.02, -187500.02, 0.000, 0.000, 0.000, 16:52:30.000
245, 30949.63, 12555.71, 187500.00, 187500.00, -187500.02, -187500.02, -187500.02, -187500.02, 0.016, -0.020, 1.016, 16:52:30.000
246, 30761.32, 12291.51, 187500.00, 187500.00, -187500.02, -187500.02, -187500.02, -187500.02, 0.000, 0.000, 0.000, 16:52:30.000
247, 30667.96, 12237.36, 187500.00, 187500.00, -187500.02, -187500.02, -187500.02, -187500.02, 0.000, 0.000, 0.000, 16:52:30.000
248, 30907.70, 12662.46, 187500.00, 187500.00, -187500.02, -187500.02, -187500.02, -187500.02, 0.000, 0.000, 0.000, 16:52:30.001
249, 31156.23, 12850.11, 187500.00, 187500.00, -187500.02, -187500.02, -187500.02, -187500.02, 0.000, 0.000, 0.000, 16:52:30.001
250, 30954.68, 12561.10, 187500.00, 187500.00, -187500.02, -187500.02, -187500.02, -187500.02, 0.000, 0.000, 0.000, 16:52:30.001
251, 30771.78, 12312.53, 187500.00, 187500.00, -187500.02, -187500.02, -187500.02, -187500.02, 0.000, 0.000, 0.000, 16:52:30.002
252, 30688.07, 12258.77, 187500.00, 187500.00, -187500.02, -187500.02, -187500.02, -187500.02, 0.000, 0.000, 0.000, 16:52:30.002
253, 30919.50, 12675.00, 187500.00, 187500.00, -187500.02, -187500.02, -187500.02, -187500.02, 0.000, 0.000, 0.000, 16:52:30.002
254, 31147.67, 12842.87, 187500.00, 187500.00, -187500.02, -187500.02, -187500.02, -187500.02, 0.000, 0.000, 0.000, 16:52:30.003
255, 30945.14, 12558.84, 187500.00, 187500.00, -187500.02, -187500.02, -187500.02, -187500.02, 0.012, -0.016, 1.024, 16:52:30.003
0, 30790.06, 12316.39, 187500.00, 187500.00, -187500.02, -187500.02, -187500.02, -187500.02, 0.000, 0.000, 0.000, 16:52:30.003
1, 30706.22, 12267.44, 187500.00, 187500.00, -187500.02, -187500.02, -187500.02, -187500.02, 0.000, 0.000, 0.000, 16:52:30.003
2, 30922.50, 12678.20, 187500.00, 187500.00, -187500.02, -187500.02, -187500.02, -187500.02, 0.000, 0.000, 0.000, 16:52:30.004
3, 31134.24, 12826.73, 187500.00, 187500.00, -187500.02, -187500.02, -187500.02, -187500.02, 0.000, 0.000, 0.000, 16:52:30.004
4, 30936.96, 12541.81, 187500.00, 187500.00, -187500.02, -187500.02, -187500.02, -187500.02, 0.000, 0.000, 0.000, 16:52:30.004
5, 30769.10, 12296.61, 187500.00, 187500.00, -187500.02, -187500.02, -187500.02, -187500.02, 0.000, 0.000, 0.000, 16:52:30.005
6, 30692.05, 12242.79, 187500.00, 187500.00, -187500.02, -187500.02, -187500.02, -187500.02, 0.000, 0.000, 0.000, 16:52:30.005
7, 30903.14, 12647.73, 187500.00, 187500.00, -187500.02, -187500.02, -187500.02, -187500.02, 0.000, 0.000, 0.000, 16:52:30.005
8, 31144.27, 12835.24, 187500.00, 187500.00, -187500.02, -187500.02, -187500.02, -187500.02, 0.000, 0.000, 0.000, 16:52:30.005
9, 30946.41, 12554.73, 187500.00, 187500.00, -187500.02, -187500.02, -187500.02, -187500.02, 0.012, -0.016, 1.028, 16:52:30.006
10, 30769.61, 12300.25, 187500.00, 187500.00, -187500.02, -187500.02, -187500.02, -187500.02, 0.000, 0.000, 0.000, 16:52:30.006
11, 30687.33, 12250.97, 187500.00, 187500.00, -187500.02, -187500.02, -187500.02, -187500.02, 0.000, 0.000, 0.000, 16:52:30.006
12, 30916.55, 12662.87, 187500.00, 187500.00, -187500.02, -187500.02, -187500.02, -187500.02, 0.000, 0.000, 0.000, 16:52:30.007
13, 31141.25, 12839.13, 187500.00, 187500.00, -187500.02, -187500.02, -187500.02, -187500.02, 0.000, 0.000, 0.000, 16:52:30.007
14, 30952.72, 12569.08, 187500.00, 187500.00, -187500.02, -187500.02, -187500.02, -187500.02, 0.000, 0.000, 0.000, 16:52:30.007
15, 30777.28, 12315.12, 187500.00, 187500.00, -187500.02, -187500.02, -187500.02, -187500.02, 0.000, 0.000, 0.000, 16:52:30.007
16, 30674.19, 12249.60, 187500.00, 187500.00, -187500.02, -187500.02, -187500.02, -187500.02, 0.000, 0.000, 0.000, 16:52:30.008
17, 30903.48, 12658.60, 187500.00, 187500.00, -187500.02, -187500.02, -187500.02, -187500.02, 0.000, 0.000, 0.000, 16:52:30.008
18, 31137.30, 12835.42, 187500.00, 187500.00, -187500.02, -187500.02, -187500.02, -187500.02, 0.000, 0.000, 0.000, 16:52:30.008
19, 30936.36, 12545.99, 187500.00, 187500.00, -187500.02, -187500.02, -187500.02, -187500.02, 0.008, -0.020, 1.026, 16:52:30.008
20, 30758.28, 12295.98, 187500.00, 187500.00, -187500.02, -187500.02, -187500.02, -187500.02, 0.000, 0.000, 0.000, 16:52:30.009
21, 30671.98, 12245.09, 187500.00, 187500.00, -187500.02, -187500.02, -187500.02, -187500.02, 0.000, 0.000, 0.000, 16:52:30.009
22, 30918.14, 12664.34, 187500.00, 187500.00, -187500.02, -187500.02, -187500.02, -187500.02, 0.000, 0.000, 0.000, 16:52:30.009
23, 31150.48, 12842.46, 187500.00, 187500.00, -187500.02, -187500.02, -187500.02, -187500.02, 0.000, 0.000, 0.000, 16:52:30.010
24, 30953.92, 12571.13, 187500.00, 187500.00, -187500.02, -187500.02, -187500.02, -187500.02, 0.000, 0.000, 0.000, 16:52:30.010
25, 30774.06, 12313.35, 187500.00, 187500.00, -187500.02, -187500.02, -187500.02, -187500.02, 0.000, 0.000, 0.000, 16:52:30.010
26, 30684.05, 12257.09, 187500.00, 187500.00, -187500.02, -187500.02, -187500.02, -187500.02, 0.000, 0.000, 0.000, 16:52:30.011
27, 30919.12, 12664.21, 187500.00, 187500.00, -187500.02, -187500.02, -187500.02, -187500.02, 0.000, 0.000, 0.000, 16:52:30.011
28, 31153.86, 12845.68, 187500.00, 187500.00, -187500.02, -187500.02, -187500.02, -187500.02, 0.010, -0.018, 1.028, 16:52:30.011
29, 30944.38, 12578.29, 187500.00, 187500.00, -187500.02, -187500.02, -187500.02, -187500.02, 0.000, 0.000, 0.000, 16:52:30.011
30, 30768.47, 12320.86, 187500.00, 187500.00, -187500.02, -187500.02, -187500.02, -187500.02, 0.000, 0.000, 0.000, 16:52:30.012
31, 30681.93, 12262.66, 187500.00, 187500.00, -187500.02, -187500.02, -187500.02, -187500.02, 0.000, 0.000, 0.000, 16:52:30.012
32, 30917.33, 12684.86, 187500.00, 187500.00, -187500.02, -187500.02, -187500.02, -187500.02, 0.000, 0.000, 0.000, 16:52:30.012
33, 31151.71, 12860.05, 187500.00, 187500.00, -187500.02, -187500.02, -187500.02, -187500.02, 0.000, 0.000, 0.000, 16:52:30.012
34, 30950.75, 12575.18, 187500.00, 187500.00, -187500.02, -187500.02, -187500.02, -187500.02, 0.000, 0.000, 0.000, 16:52:30.013
35, 30772.47, 12326.88, 187500.00, 187500.00, -187500.02, -187500.02, -187500.02, -187500.02, 0.000, 0.000, 0.000, 16:52:30.013
36, 30691.09, 12277.79, 187500.00, 187500.00, -187500.02, -187500.02, -187500.02, -187500.02, 0.000, 0.000, 0.000, 16:52:30.013
37, 30914.99, 12682.13, 187500.00, 187500.00, -187500.02, -187500.02, -187500.02, -187500.02, 0.000, 0.000, 0.000, 16:52:30.014
38, 31137.57, 12848.18, 187500.00, 187500.00, -187500.02, -187500.02, -187500.02, -187500.02, 0.014, -0.014, 1.028, 16:52:30.014
39, 30958.39, 12574.82, 187500.00, 187500.00, -187500.02, -187500.02, -187500.02, -187500.02, 0.000, 0.000, 0.000, 16:52:30.014
40, 30765.30, 12316.55, 187500.00, 187500.00, -187500.02, -187500.02, -187500.02, -187500.02, 0.000, 0.000, 0.000, 16:52:30.014
41, 30678.39, 12259.53, 187500.00, 187500.00, -187500.02, -187500.02, -187500.02, -187500.02, 0.000, 0.000, 0.000, 16:52:30.015
42, 30916.02, 12674.62, 187500.00, 187500.00, -187500.02, -187500.02, -187500.02, -187500.02, 0.000, 0.000, 0.000, 16:52:30.015
43, 31145.88, 12855.81, 187500.00, 187500.00, -187500.02, -187500.02, -187500.02, -187500.02, 0.000, 0.000, 0.000, 16:52:30.015
44, 30956.18, 12586.36, 187500.00, 187500.00, -187500.02, -187500.02, -187500.02, -187500.02, 0.000, 0.000, 0.000, 16:52:30.015
45, 30784.68, 12338.50, 187500.00, 187500.00, -187500.02, -187500.02, -187500.02, -187500.02, 0.000, 0.000, 0.000, 16:52:30.016
46, 30701.51, 12277.61, 187500.00, 187500.00, -187500.02, -187500.02, -187500.02, -187500.02, 0.000, 0.000, 0.000, 16:52:30.016
47, 30932.42, 12685.62, 187500.00, 187500.00, -187500.02, -187500.02, -187500.02, -187500.02, 0.000, 0.000, 0.000, 16:52:30.016
48, 31155.49, 12861.48, 187500.00, 187500.00, -187500.02, -187500.02, -187500.02, -187500.02, 0.010, -0.012, 1.028, 16:52:30.016
49, 30967.09, 12595.34, 187500.00, 187500.00, -187500.02, -187500.02, -187500.02, -187500.02, 0.000, 0.000, 0.000, 16:52:30.017
50, 30798.36, 12345.29, 187500.00, 187500.00, -187500.02, -187500.02, -187500.02, -187500.02, 0.000, 0.000, 0.000, 16:52:30.017
51, 30698.42, 12276.83, 187500.00, 187500.00, -187500.02, -187500.02, -187500.02, -187500.02, 0.000, 0.000, 0.000, 16:52:30.017
52, 30927.82, 12687.39, 187500.00, 187500.00, -187500.02, -187500.02, -187500.02, -187500.02, 0.000, 0.000, 0.000, 16:52:30.018
53, 31169.24, 12874.81, 187500.00, 187500.00, -187500.02, -187500.02, -187500.02, -187500.02, 0.000, 0.000, 0.000, 16:52:30.018
54, 30970.62, 12597.93, 187500.00, 187500.00, -187500.02, -187500.02, -187500.02, -187500.02, 0.000, 0.000, 0.000, 16:52:30.018
55, 30793.26, 12346.01, 187500.00, 187500.00, -187500.02, -187500.02, -187500.02, -187500.02, 0.000, 0.000, 0.000, 16:52:30.018
56, 30694.38, 12279.18, 187500.00, 187500.00, -187500.02, -187500.02, -187500.02, -187500.02, 0.000, 0.000, 0.000, 16:52:30.019
57, 30932.44, 12682.58, 187500.00, 187500.00, -187500.02, -187500.02, -187500.02, -187500.02, 0.000, 0.000, 0.000, 16:52:30.019
58, 31147.69, 12860.01, 187500.00, 187500.00, -187500.02, -187500.02, -187500.02, -187500.02, 0.016, -0.016, 1.024, 16:52:30.019
59, 30959.82, 12598.36, 187500.00, 187500.00, -187500.02, -187500.02, -187500.02, -187500.02, 0.000, 0.000, 0.000, 16:52:30.019
60, 30800.05, 12343.44, 187500.00, 187500.00, -187500.02, -187500.02, -187500.02, -187500.02, 0.000, 0.000, 0.000, 16:52:30.020
61, 30698.24, 12278.42, 187500.00, 187500.00, -187500.02, -187500.02, -187500.02, -187500.02, 0.000, 0.000, 0.000, 16:52:30.020
62, 30922.72, 12695.77, 187500.00, 187500.00, -187500.02, -187500.02, -187500.02, -187500.02, 0.000, 0.000, 0.000, 16:52:30.020
63, 31160.97, 12879.83, 187500.00, 187500.00, -187500.02, -187500.02, -187500.02, -187500.02, 0.000, 0.000, 0.000, 16:52:30.021
64, 30968.03, 12603.75, 187500.00, 187500.00, -187500.02, -187500.02, -187500.02, -187500.02, 0.000, 0.000, 0.000, 16:52:30.021
65, 30798.00, 12351.13, 187500.00, 187500.00, -187500.02, -187500.02, -187500.02, -187500.02, 0.000, 0.000, 0.000, 16:52:30.021
66, 30703.83, 12285.66, 187500.00, 187500.00, -187500.02, -187500.02, -187500.02, -187500.02, 0.000, 0.000, 0.000, 16:52:30.021
67, 30942.32, 12714.79, 187500.00, 187500.00, -187500.02, -187500.02, -187500.02, -187500.02, 0.000, 0.000, 0.000, 16:52:30.022
68, 31168.63, 12886.92, 187500.00, 187500.00, -187500.02, -187500.02, -187500.02, -187500.02, 0.014, -0.018, 1.026, 16:52:30.022
69, 30979.99, 12604.80, 187500.00, 187500.00, -187500.02, -187500.02, -187500.02, -187500.02, 0.000, 0.000, 0.000, 16:52:30.022
70, 30808.55, 12358.91, 187500.00, 187500.00, -187500.02, -187500.02, -187500.02, -187500.02, 0.000, 0.000, 0.000, 16:52:30.023
71, 30714.00, 12288.97, 187500.00, 187500.00, -187500.02, -187500.02, -187500.02, -187500.02, 0.000, 0.000, 0.000, 16:52:30.023
72, 30946.21, 12702.12, 187500.00, 187500.00, -187500.02, -187500.02, -187500.02, -187500.02, 0.000, 0.000, 0.000, 16:52:30.023
73, 31176.75, 12886.58, 187500.00, 187500.00, -187500.02, -187500.02, -187500.02, -187500.02, 0.000, 0.000, 0.000, 16:52:30.023
74, 30980.14, 12611.12, 187500.00, 187500.00, -187500.02, -187500.02, -187500.02, -187500.02, 0.000, 0.000, 0.000, 16:52:30.024
75, 30801.53, 12351.86, 187500.00, 187500.00, -187500.02, -187500.02, -187500.02, -187500.02, 0.000, 0.000, 0.000, 16:52:30.024
76, 30715.19, 12293.55, 187500.00, 187500.00, -187500.02, -187500.02, -187500.02, -187500.02, 0.000, 0.000, 0.000, 16:52:30.024
77, 30942.73, 12702.34, 187500.00, 187500.00, -187500.02, -187500.02, -187500.02, -187500.02, 0.000, 0.000, 0.000, 16:52:30.024
78, 31183.54, 12883.90, 187500.00, 187500.00, -187500.02, -187500.02, -187500.02, -187500.02, 0.012, -0.018, 1.024, 16:52:30.025
79, 30983.18, 12603.23, 187500.00, 187500.00, -187500.02, -187500.02, -187500.02, -187500.02, 0.000, 0.000, 0.000, 16:52:30.025
80, 30802.40, 12350.52, 187500.00, 187500.00, -187500.02, -187500.02, -187500.02, -187500.02, 0.000, 0.000, 0.000, 16:52:30.025
81, 30716.30, 12294.24, 187500.00, 187500.00, -187500.02, -187500.02, -187500.02, -187500.02, 0.000, 0.000, 0.000, 16:52:30.026
82, 30935.69, 12695.77, 187500.00, 187500.00, -187500.02, -187500.02, -187500.02, -187500.02, 0.000, 0.000, 0.000, 16:52:30.026
83, 31172.08, 12876.24, 187500.00, 187500.00, -187500.02, -187500.02, -187500.02, -187500.02, 0.000, 0.000, 0.000, 16:52:30.026
84, 30981.69, 12608.60, 187500.00, 187500.00, -187500.02, -187500.02, -187500.02, -187500.02, 0.000, 0.000, 0.000, 16:52:30.026
85, 30823.12, 12368.40, 187500.00, 187500.00, -187500.02, -187500.02, -187500.02, -187500.02, 0.000, 0.000, 0.000, 16:52:30.027
86, 30732.69, 12301.30, 187500.00, 187500.00, -187500.02, -187500.02, -187500.02, -187500.02, 0.000, 0.000, 0.000, 16:52:30.027
87, 30971.09, 12715.75, 187500.00, 187500.00, -187500.02, -187500.02, -187500.02, -187500.02, 0.000, 0.000, 0.000, 16:52:30.027
88, 31210.19, 12907.13, 187500.00, 187500.00, -187500.02, -187500.02, -187500.02, -187500.02, 0.012, -0.018, 1.030, 16:52:30.027
89, 31002.45, 12623.88, 187500.00, 187500.00, -187500.02, -187500.02, -187500.02, -187500.02, 0.000, 0.000, 0.000, 16:52:30.028
90, 30823.39, 12362.77, 187500.00, 187500.00, -187500.02, -187500.02, -187500.02, -187500.02, 0.000, 0.000, 0.000, 16:52:30.028
91, 30729.11, 12301.97, 187500.00, 187500.00, -187500.02, -187500.02, -187500.02, -187500.02, 0.000, 0.000, 0.000, 16:52:30.028
92, 30960.99, 12713.96, 187500.00, 187500.00, -187500.02, -187500.02, -187500.02, -187500.02, 0.000, 0.000, 0.000, 16:52:30.029
93, 31196.06, 12896.67, 187500.00, 187500.00, -187500.02, -187500.02, -187500.02, -187500.02, 0.000, 0.000, 0.000, 16:52:30.029
94, 30997.80, 12618.14, 187500.00, 187500.00, -187500.02, -187500.02, -187500.02, -187500.02, 0.000, 0.000, 0.000, 16:52:30.029
95, 30820.28, 12357.74, 187500.00, 187500.00, -187500.02, -187500.02, -187500.02, -187500.02, 0.000, 0.000, 0.000, 16:52:30.029
96, 30722.61, 12288.50, 187500.00, 187500.00, -187500.02, -187500.02, -187500.02, -187500.02, 0.000, 0.000, 0.000, 16:52:30.030
97, 30941.59, 12689.24, 187500.00, 187500.00, -187500.02, -187500.02, -187500.02, -187500.02, 0.000, 0.000, 0.000, 16:52:30.030
98, 31177.06, 12872.39, 187500.00, 187500.00, -187500.02, -187500.02, -187500.02, -187500.02, 0.014, -0.022, 1.034, 16:52:30.030
99, 30990.47, 12607.68, 187500.00, 187500.00, -187500.02, -187500.02, -187500.02, -187500.02, 0.000, 0.000, 0.000, 16:52:30.030
100, 30819.86, 12354.79, 187500.00, 187500.00, -187500.02, -187500.02, -187500.02, -187500.02, 0.000, 0.000, 0.000, 16:52:30.031
101, 30721.98, 12284.29, 187500.00, 187500.00, -187500.02, -187500.02, -187500.02, -187500.02, 0.000, 0.000, 0.000, 16:52:30.031
102, 30941.41, 12691.12, 187500.00, 187500.00, -187500.02, -187500.02, -187500.02, -187500.02, 0.000, 0.000, 0.000, 16:52:30.031
103, 31172.99, 12872.75, 187500.00, 187500.00, -187500.02, -187500.02, -187500.02, -187500.02, 0.000, 0.000, 0.000, 16:52:30.031
104, 30983.96, 12609.02, 187500.00, 187500.00, -187500.02, -187500.02, -187500.02, -187500.02, 0.000, 0.000, 0.000, 16:52:30.479
105, 30819.32, 12361.32, 187500.00, 187500.00, -187500.02, -187500.02, -187500.02, -187500.02, 0.000, 0.000, 0.000, 16:52:30.479
106, 30728.57, 12295.49, 187500.00, 187500.00, -187500.02, -187500.02, -187500.02, -187500.02, 0.000, 0.000, 0.000, 16:52:30.479
107, 30962.95, 12713.25, 187500.00, 187500.00, -187500.02, -187500.02, -187500.02, -187500.02, 0.000, 0.000, 0.000, 16:52:30.480
108, 31216.40, 12903.62, 187500.00, 187500.00, -187500.02, -187500.02, -187500.02, -187500.02, 0.014, -0.014, 1.024, 16:52:30.480
109, 30995.19, 12610.72, 187500.00, 187500.00, -187500.02, -187500.02, -187500.02, -187500.02, 0.000, 0.000, 0.000, 16:52:30.480
110, 30813.80, 12355.75, 187500.00, 187500.00, -187500.02, -187500.02, -187500.02, -187500.02, 0.000, 0.000, 0.000, 16:52:30.480
111, 30721.42, 12292.41, 187500.00, 187500.00, -187500.02, -187500.02, -187500.02, -187500.02, 0.000, 0.000, 0.000, 16:52:30.480
112, 30949.07, 12700.77, 187500.00, 187500.00, -187500.02, -187500.02, -187500.02, -187500.02, 0.000, 0.000, 0.000, 16:52:30.481
113, 31174.60, 12873.42, 187500.00, 187500.00, -187500.02, -187500.02, -187500.02, -187500.02, 0.000, 0.000, 0.000, 16:52:30.481
114, 30983.85, 12601.33, 187500.00, 187500.00, -187500.02, -187500.02, -187500.02, -187500.02, 0.000, 0.000, 0.000, 16:52:30.481
115, 30806.47, 12347.73, 187500.00, 187500.00, -187500.02, -187500.02, -187500.02, -187500.02, 0.000, 0.000, 0.000, 16:52:30.481
116, 30710.85, 12282.26, 187500.00, 187500.00, -187500.02, -187500.02, -187500.02, -187500.02, 0.000, 0.000, 0.000, 16:52:30.482
117, 30940.09, 12695.57, 187500.00, 187500.00, -187500.02, -187500.02, -187500.02, -187500.02, 0.000, 0.000, 0.000, 16:52:30.482
118, 31171.63, 12878.76, 187500.00, 187500.00, -187500.02, -187500.02, -187500.02, -187500.02, 0.014, -0.012, 1.032, 16:52:30.482
119, 30985.60, 12600.84, 187500.00, 187500.00, -187500.02, -187500.02, -187500.02, -187500.02, 0.000, 0.000, 0.000, 16:52:30.482
120, 30801.98, 12344.85, 187500.00, 187500.00, -187500.02, -187500.02, -187500.02, -187500.02, 0.000, 0.000, 0.000, 16:52:30.483
121, 30701.86, 12282.57, 187500.00, 187500.00, -187500.02, -187500.02, -187500.02, -187500.02, 0.000, 0.000, 0.000, 16:52:30.483
122, 30935.24, 12697.82, 187500.00, 187500.00, -187500.02, -187500.02, -187500.02, -187500.02, 0.000, 0.000, 0.000, 16:52:30.483
123, 31181.22, 12885.09, 187500.00, 187500.00, -187500.02, -187500.02, -187500.02, -187500.02, 0.000, 0.000, 0.000, 16:52:30.483
124, 30999.50, 12611.88, 187500.00, 187500.00, -187500.02, -187500.02, -187500.02, -187500.02, 0.000, 0.000, 0.000, 16:52:30.484
125, 30815.32, 12359.46, 187500.00, 187500.00, -187500.02, -187500.02, -187500.02, -187500.02, 0.000, 0.000, 0.000, 16:52:30.484
126, 30728.89, 12305.82, 187500.00, 187500.00, -187500.02, -187500.02, -187500.02, -187500.02, 0.000, 0.000, 0.000, 16:52:30.484
127, 30956.36, 12713.02, 187500.00, 187500.00, -187500.02, -187500.02, -187500.02, -187500.02, 0.000, 0.000, 0.000, 16:52:30.484
128, 31198.32, 12897.49, 187500.00, 187500.00, -187500.02, -187500.02, -187500.02, -187500.02, 0.012, -0.010, 1.030, 16:52:30.485
129, 31013.65, 12628.11, 187500.00, 187500.00, -187500.02, -187500.02, -187500.02, -187500.02, 0.000, 0.000, 0.000, 16:52:30.485
130, 30827.48, 12372.54, 187500.00, 187500.00, -187500.02, -187500.02, -187500.02, -187500.02, 0.000, 0.000, 0.000, 16:52:30.485
131, 30736.40, 12308.55, 187500.00, 187500.00, -187500.02, -187500.02, -187500.02, -187500.02, 0.000, 0.000, 0.000, 16:52:30.486
132, 30963.94, 12716.47, 187500.00, 187500.00, -187500.02, -187500.02, -187500.02, -187500.02, 0.000, 0.000, 0.000, 16:52:30.486
133, 31201.16, 12894.18, 187500.00, 187500.00, -187500.02, -187500.02, -187500.02, -187500.02, 0.000, 0.000, 0.000, 16:52:30.486
134, 30997.20, 12622.99, 187500.00, 187500.00, -187500.02, -187500.02, -187500.02, -187500.02, 0.000, 0.000, 0.000, 16:52:30.486
135, 30807.59, 12365.45, 187500.00, 187500.00, -187500.02, -187500.02, -187500.02, -187500.02, 0.000, 0.000, 0.000, 16:52:30.487
136, 30708.70, 12288.94, 187500.00, 187500.00, -187500.02, -187500.02, -187500.02, -187500.02, 0.000, 0.000, 0.000, 16:52:30.487
137, 30934.23, 12690.94, 187500.00, 187500.00, -187500.02, -187500.02, -187500.02, -187500.02, 0.000, 0.000, 0.000, 16:52:30.487
138, 31168.43, 12872.70, 187500.00, 187500.00, -187500.02, -187500.02, -187500.02, -187500.02, 0.014, -0.012, 1.028, 16:52:30.488
139, 30985.33, 12607.79, 187500.00, 187500.00, -187500.02, -187500.02, -187500.02, -187500.02, 0.000, 0.000, 0.000, 16:52:30.488
140, 30799.29, 12344.29, 187500.00, 187500.00, -187500.02, -187500.02, -187500.02, -187500.02, 0.000, 0.000, 0.000, 16:52:30.488
141, 30715.27, 12283.56, 187500.00, 187500.00, -187500.02, -187500.02, -187500.02, -187500.02, 0.000, 0.000, 0.000, 16:52:30.488
142, 30942.48, 12697.44, 187500.00, 187500.00, -187500.02, -187500.02, -187500.02, -187500.02, 0.000, 0.000, 0.000, 16:52:30.488
143, 31181.00, 12883.41, 187500.00, 187500.00, -187500.02, -187500.02, -187500.02, -187500.02, 0.000, 0.000, 0.000, 16:52:30.489
144, 30999.61, 12614.52, 187500.00, 187500.00, -187500.02, -187500.02, -187500.02, -187500.02, 0.000, 0.000, 0.000, 16:52:30.489
145, 30830.39, 12371.89, 187500.00, 187500.00, -187500.02, -187500.02, -187500.02, -187500.02, 0.000, 0.000, 0.000, 16:52:30.489
146, 30734.45, 12303.43, 187500.00, 187500.00, -187500.02, -187500.02, -187500.02, -187500.02, 0.000, 0.000, 0.000, 16:52:30.489
147, 30961.37, 12718.34, 187500.00, 187500.00, -187500.02, -187500.02, -187500.02, -187500.02, 0.012, -0.012, 1.030, 16:52:30.490
148, 31204.73, 12908.65, 187500.00, 187500.00, -187500.02, -187500.02, -187500.02, -187500.02, 0.000, 0.000, 0.000, 16:52:30.490
149, 31019.10, 12642.88, 187500.00, 187500.00, -187500.02, -187500.02, -187500.02, -187500.02, 0.000, 0.000, 0.000, 16:52:30.490
150, 30838.21, 12387.56, 187500.00, 187500.00, -187500.02, -187500.02, -187500.02, -187500.02, 0.000, 0.000, 0.000, 16:52:30.490
151, 30733.11, 12310.49, 187500.00, 187500.00, -187500.02, -187500.02, -187500.02, -187500.02, 0.000, 0.000, 0.000, 16:52:30.491
152, 30949.21, 12707.61, 187500.00, 187500.00, -187500.02, -187500.02, -187500.02, -187500.02, 0.000, 0.000, 0.000, 16:52:30.491
153, 31195.08, 12894.77, 187500.00, 187500.00, -187500.02, -187500.02, -187500.02, -187500.02, 0.000, 0.000, 0.000, 16:52:30.491
154, 31001.18, 12620.11, 187500.00, 187500.00, -187500.02, -187500.02, -187500.02, -187500.02, 0.000, 0.000, 0.000, 16:52:30.491
155, 30812.24, 12362.73, 187500.00, 187500.00, -187500.02, -187500.02, -187500.02, -187500.02, 0.000, 0.000, 0.000, 16:52:30.492
156, 30720.71, 12292.39, 187500.00, 187500.00, -187500.02, -187500.02, -187500.02, -187500.02, 0.000, 0.000, 0.000, 16:52:30.492
157, 30946.73, 12704.91, 187500.00, 187500.00, -187500.02, -187500.02, -187500.02, -187500.02, 0.008, -0.010, 1.028, 16:52:30.492
158, 31174.60, 12884.10, 187500.00, 187500.00, -187500.02, -187500.02, -187500.02, -187500.02, 0.000, 0.000, 0.000, 16:52:30.492
159, 30992.12, 12612.60, 187500.00, 187500.00, -187500.02, -187500.02, -187500.02, -187500.02, 0.000, 0.000, 0.000, 16:52:30.493
160, 30824.31, 12362.71, 187500.00, 187500.00, -187500.02, -187500.02, -187500.02, -187500.02, 0.000, 0.000, 0.000, 16:52:30.493
161, 30728.22, 12299.76, 187500.00, 187500.00, -187500.02, -187500.02, -187500.02, -187500.02, 0.000, 0.000, 0.000, 16:52:30.493
162, 30942.73, 12698.65, 187500.00, 187500.00, -187500.02, -187500.02, -187500.02, -187500.02, 0.000, 0.000, 0.000, 16:52:30.494
163, 31193.49, 12897.83, 187500.00, 187500.00, -187500.02, -187500.02, -187500.02, -187500.02, 0.000, 0.000, 0.000, 16:52:30.494
164, 31006.50, 12626.79, 187500.00, 187500.00, -187500.02, -187500.02, -187500.02, -187500.02, 0.000, 0.000, 0.000, 16:52:30.494
165, 30829.94, 12374.22, 187500.00, 187500.00, -187500.02, -187500.02, -187500.02, -187500.02, 0.000, 0.000, 0.000, 16:52:30.495
166, 30737.49, 12307.36, 187500.00, 187500.00, -187500.02, -187500.02, -187500.02, -187500.02, 0.000, 0.000, 0.000, 16:52:30.495
167, 30972.83, 12725.88, 187500.00, 187500.00, -187500.02, -187500.02, -187500.02, -187500.02, 0.010, -0.012, 1.026, 16:52:30.495
168, 31215.57, 12918.77, 187500.00, 187500.00, -187500.02, -187500.02, -187500.02, -187500.02, 0.000, 0.000, 0.000, 16:52:30.495
169, 31023.39, 12644.87, 187500.00, 187500.00, -187500.02, -187500.02, -187500.02, -187500.02, 0.000, 0.000, 0.000, 16:52:30.496
170, 30837.56, 12383.11, 187500.00, 187500.00, -187500.02, -187500.02, -187500.02, -187500.02, 0.000, 0.000, 0.000, 16:52:30.496
171, 30744.62, 12318.36, 187500.00, 187500.00, -187500.02, -187500.02, -187500.02, -187500.02, 0.000, 0.000, 0.000, 16:52:30.496
172, 30961.70, 12713.18, 187500.00, 187500.00, -187500.02, -187500.02, -187500.02, -187500.02, 0.000, 0.000, 0.000, 16:52:30.496
173, 31196.82, 12896.98, 187500.00, 187500.00, -187500.02, -187500.02, -187500.02, -187500.02, 0.000, 0.000, 0.000, 16:52:30.497
174, 30998.63, 12614.79, 187500.00, 187500.00, -187500.02, -187500.02, -187500.02, -187500.02, 0.000, 0.000, 0.000, 16:52:30.497
175, 30817.31, 12358.97, 187500.00, 187500.00, -187500.02, -187500.02, -187500.02, -187500.02, 0.000, 0.000, 0.000, 16:52:30.497
176, 30730.70, 12300.81, 187500.00, 187500.00, -187500.02, -187500.02, -187500.02, -187500.02, 0.000, 0.000, 0.000, 16:52:30.498
177, 30953.68, 12710.34, 187500.00, 187500.00, -187500.02, -187500.02, -187500.02, -187500.02, 0.012, -0.014, 1.028, 16:52:30.498
178, 31177.49, 12882.67, 187500.00, 187500.00, -187500.02, -187500.02, -187500.02, -187500.02, 0.000, 0.000, 0.000, 16:52:30.498
179, 30980.66, 12608.01, 187500.00, 187500.00, -187500.02, -187500.02, -187500.02, -187500.02, 0.000, 0.000, 0.000, 16:52:30.498
180, 30797.19, 12352.74, 187500.00, 187500.00, -187500.02, -187500.02, -187500.02, -187500.02, 0.000, 0.000, 0.000, 16:52:30.498
181, 30707.41, 12283.69, 187500.00, 187500.00, -187500.02, -187500.02, -187500.02, -187500.02, 0.000, 0.000, 0.000, 16:52:30.499
182, 30939.44, 12692.71, 187500.00, 187500.00, -187500.02, -187500.02, -187500.02, -187500.02, 0.000, 0.000, 0.000, 16:52:30.499
183, 31174.00, 12887.05, 187500.00, 187500.00, -187500.02, -187500.02, -187500.02, -187500.02, 0.000, 0.000, 0.000, 16:52:30.499
184, 30984.77, 12612.33, 187500.00, 187500.00, -187500.02, -187500.02, -187500.02, -187500.02, 0.000, 0.000, 0.000, 16:52:30.499
185, 30817.09, 12369.01, 187500.00, 187500.00, -187500.02, -187500.02, -187500.02, -187500.02, 0.000, 0.000, 0.000, 16:52:30.500
186, 30737.78, 12315.83, 187500.00, 187500.00, -187500.02, -187500.02, -187500.02, -187500.02, 0.000, 0.000, 0.000, 16:52:30.500
187, 30964.43, 12725.88, 187500.00, 187500.00, -187500.02, -187500.02, -187500.02, -187500.02, 0.006, -0.014, 1.026, 16:52:30.500
188, 31195.86, 12904.53, 187500.00, 187500.00, -187500.02, -187500.02, -187500.02, -187500.02, 0.000, 0.000, 0.000, 16:52:30.500
189, 30998.72, 12629.41, 187500.00, 187500.00, -187500.02, -187500.02, -187500.02, -187500.02, 0.000, 0.000, 0.000, 16:52:30.501
190, 30815.63, 12374.22, 187500.00, 187500.00, -187500.02, -187500.02, -187500.02, -187500.02, 0.000, 0.000, 0.000, 16:52:30.501
191, 30713.15, 12292.92, 187500.00, 187500.00, -187500.02, -187500.02, -187500.02, -187500.02, 0.000, 0.000, 0.000, 16:52:30.501
192, 30941.81, 12703.75, 187500.00, 187500.00, -187500.02, -187500.02, -187500.02, -187500.02, 0.000, 0.000, 0.000, 16:52:30.501
193, 31175.05, 12885.33, 187500.00, 187500.00, -187500.02, -187500.02, -187500.02, -187500.02, 0.000, 0.000, 0.000, 16:52:30.502
194, 30992.12, 12621.87, 187500.00, 187500.00, -187500.02, -187500.02, -187500.02, -187500.02, 0.000, 0.000, 0.000, 16:52:30.502
195, 30803.29, 12358.75, 187500.00, 187500.00, -187500.02, -187500.02, -187500.02, -187500.02, 0.000, 0.000, 0.000, 16:52:30.502
196, 30712.21, 12289.30, 187500.00, 187500.00, -187500.02, -187500.02, -187500.02, -187500.02, 0.000, 0.000, 0.000, 16:52:30.502
197, 30931.77, 12693.69, 187500.00, 187500.00, -187500.02, -187500.02, -187500.02, -187500.02, 0.008, -0.012, 1.024, 16:52:30.503
198, 31167.96, 12876.62, 187500.00, 187500.00, -187500.02, -187500.02, -187500.02, -187500.02, 0.000, 0.000, 0.000, 16:52:30.503
199, 30971.40, 12597.42, 187500.00, 187500.00, -187500.02, -187500.02, -187500.02, -187500.02, 0.000, 0.000, 0.000, 16:52:30.503
200, 30788.10, 12336.82, 187500.00, 187500.00, -187500.02, -187500.02, -187500.02, -187500.02, 0.000, 0.000, 0.000, 16:52:30.504
201, 30700.21, 12273.88, 187500.00, 187500.00, -187500.02, -187500.02, -187500.02, -187500.02, 0.000, 0.000, 0.000, 16:52:30.504
202, 30926.61, 12683.18, 187500.00, 187500.00, -187500.02, -187500.02, -187500.02, -187500.02, 0.000, 0.000, 0.000, 16:52:30.505
203, 31165.80, 12880.53, 187500.00, 187500.00, -187500.02, -187500.02, -187500.02, -187500.02, 0.000, 0.000, 0.000, 16:52:30.505
204, 30973.24, 12609.98, 187500.00, 187500.00, -187500.02, -187500.02, -187500.02, -187500.02, 0.000, 0.000, 0.000, 16:52:30.505
205, 30807.77, 12366.97, 187500.00, 187500.00, -187500.02, -187500.02, -187500.02, -187500.02, 0.000, 0.000, 0.000, 16:52:30.505
206, 30714.20, 12294.00, 187500.00, 187500.00, -187500.02, -187500.02, -187500.02, -187500.02, 0.000, 0.000, 0.000, 16:52:30.505
207, 30948.85, 12710.32, 187500.00, 187500.00, -187500.02, -187500.02, -187500.02, -187500.02, 0.008, -0.014, 1.022, 16:52:30.506
208, 31191.23, 12901.83, 187500.00, 187500.00, -187500.02, -187500.02, -187500.02, -187500.02, 0.000, 0.000, 0.000, 16:52:30.507
209, 31002.18, 12631.22, 187500.00, 187500.00, -187500.02, -187500.02, -187500.02, -187500.02, 0.000, 0.000, 0.000, 16:52:30.507
210, 30810.49, 12366.46, 187500.00, 187500.00, -187500.02, -187500.02, -187500.02, -187500.02, 0.000, 0.000, 0.000, 16:52:30.507
211, 30720.15, 12297.39, 187500.00, 187500.00, -187500.02, -187500.02, -187500.02, -187500.02, 0.000, 0.000, 0.000, 16:52:30.507
212, 30942.08, 12704.80, 187500.00, 187500.00, -187500.02, -187500.02, -187500.02, -187500.02, 0.000, 0.000, 0.000, 16:52:30.508
213, 31177.29, 12889.54, 187500.00, 187500.00, -187500.02, -187500.02, -187500.02, -187500.02, 0.000, 0.000, 0.000, 16:52:30.508
214, 30987.00, 12614.05, 187500.00, 187500.00, -187500.02, -187500.02, -187500.02, -187500.02, 0.000, 0.000, 0.000, 16:52:30.508
215, 30781.88, 12341.02, 187500.00, 187500.00, -187500.02, -187500.02, -187500.02, -187500.02, 0.000, 0.000, 0.000, 16:52:30.508
216, 30701.28, 12282.57, 187500.00, 187500.00, -187500.02, -187500.02, -187500.02, -187500.02, 0.000, 0.000, 0.000, 16:52:30.509
217, 30922.86, 12691.23, 187500.00, 187500.00, -187500.02, -187500.02, -187500.02, -187500.02, 0.008, -0.016, 1.024, 16:52:30.509
218, 31155.56, 12878.43, 187500.00, 187500.00, -187500.02, -187500.02, -187500.02, -187500.02, 0.000, 0.000, 0.000, 16:52:30.509
219, 30990.65, 12620.67, 187500.00, 187500.00, -187500.02, -187500.02, -187500.02, -187500.02, 0.000, 0.000, 0.000, 16:52:30.509
220, 30798.65, 12360.74, 187500.00, 187500.00, -187500.02, -187500.02, -187500.02, -187500.02, 0.000, 0.000, 0.000, 16:52:30.510
221, 30691.02, 12274.37, 187500.00, 187500.00, -187500.02, -187500.02, -187500.02, -187500.02, 0.000, 0.000, 0.000, 16:52:30.510
222, 30926.77, 12692.79, 187500.00, 187500.00, -187500.02, -187500.02, -187500.02, -187500.02, 0.000, 0.000, 0.000, 16:52:30.510
223, 31179.83, 12894.47, 187500.00, 187500.00, -187500.02, -187500.02, -187500.02, -187500.02, 0.000, 0.000, 0.000, 16:52:30.510
224, 31007.63, 12635.73, 187500.00, 187500.00, -187500.02, -187500.02, -187500.02, -187500.02, 0.000, 0.000, 0.000, 16:52:30.959
225, 30840.40, 12391.67, 187500.00, 187500.00, -187500.02, -187500.02, -187500.02, -187500.02, 0.000, 0.000, 0.000, 16:52:30.960
226, 30726.56, 12304.97, 187500.00, 187500.00, -187500.02, -187500.02, -187500.02, -187500.02, 0.000, 0.000, 0.000, 16:52:30.960
227, 30954.93, 12719.64, 187500.00, 187500.00, -187500.02, -187500.02, -187500.02, -187500.02, 0.010, -0.014, 1.022, 16:52:30.960
228, 31202.03, 12912.49, 187500.00, 187500.00, -187500.02, -187500.02, -187500.02, -187500.02, 0.000, 0.000, 0.000, 16:52:30.960
229, 31023.01, 12650.21, 187500.00, 187500.00, -187500.02, -187500.02, -187500.02, -187500.02, 0.000, 0.000, 0.000, 16:52:30.961
230, 30829.38, 12383.51, 187500.00, 187500.00, -187500.02, -187500.02, -187500.02, -187500.02, 0.000, 0.000, 0.000, 16:52:30.961
231, 30740.58, 12314.49, 187500.00, 187500.00, -187500.02, -187500.02, -187500.02, -187500.02, 0.000, 0.000, 0.000, 16:52:30.961
232, 30965.75, 12722.39, 187500.00, 187500.00, -187500.02, -187500.02, -187500.02, -187500.02, 0.000, 0.000, 0.000, 16:52:30.961
233, 31192.62, 12903.80, 187500.00, 187500.00, -187500.02, -187500.02, -187500.02, -187500.02, 0.000, 0.000, 0.000, 16:52:30.962
234, 31003.05, 12634.88, 187500.00, 187500.00, -187500.02, -187500.02, -187500.02, -187500.02, 0.000, 0.000, 0.000, 16:52:30.962
235, 30826.70, 12383.38, 187500.00, 187500.00, -187500.02, -187500.02, -187500.02, -187500.02, 0.000, 0.000, 0.000, 16:52:30.962
236, 30728.30, 12312.26, 187500.00, 187500.00, -187500.02, -187500.02, -187500.02, -187500.02, 0.000, 0.000, 0.000, 16:52:30.962
237, 30947.11, 12715.48, 187500.00, 187500.00, -187500.02, -187500.02, -187500.02, -187500.02, 0.006, -0.012, 1.022, 16:52:30.962
238, 31187.07, 12903.13, 187500.00, 187500.00, -187500.02, -187500.02, -187500.02, -187500.02, 0.000, 0.000, 0.000, 16:52:30.963
239, 30990.67, 12625.14, 187500.00, 187500.00, -187500.02, -187500.02, -187500.02, -187500.02, 0.000, 0.000, 0.000, 16:52:30.963
240, 30810.69, 12370.91, 187500.00, 187500.00, -187500.02, -187500.02, -187500.02, -187500.02, 0.000, 0.000, 0.000, 16:52:30.963
241, 30728.78, 12305.48, 187500.00, 187500.00, -187500.02, -187500.02, -187500.02, -187500.02, 0.000, 0.000, 0.000, 16:52:30.963
242, 30942.44, 12709.87, 187500.00, 187500.00, -187500.02, -187500.02, -187500.02, -187500.02, 0.000, 0.000, 0.000, 16:52:30.964
243, 31186.81, 12901.14, 187500.00, 187500.00, -187500.02, -187500.02, -187500.02, -187500.02, 0.000, 0.000, 0.000, 16:52:30.964
244, 31007.52, 12636.58, 187500.00, 187500.00, -187500.02, -187500.02, -187500.02, -187500.02, 0.000, 0.000, 0.000, 16:52:30.964
245, 30826.99, 12375.58, 187500.00, 187500.00, -187500.02, -187500.02, -187500.02, -187500.02, 0.000, 0.000, 0.000, 16:52:30.964
246, 30733.65, 12299.07, 187500.00, 187500.00, -187500.02, -187500.02, -187500.02, -187500.02, 0.000, 0.000, 0.000, 16:52:30.965
247, 30948.47, 12716.58, 187500.00, 187500.00, -187500.02, -187500.02, -187500.02, -187500.02, 0.008, -0.016, 1.018, 16:52:30.965
248, 31189.02, 12912.07, 187500.00, 187500.00, -187500.02, -187500.02, -187500.02, -187500.02, 0.000, 0.000, 0.000, 16:52:30.965
249, 30992.35, 12630.79, 187500.00, 187500.00, -187500.02, -187500.02, -187500.02, -187500.02, 0.000, 0.000, 0.000, 16:52:30.965
250, 30826.94, 12385.53, 187500.00, 187500.00, -187500.02, -187500.02, -187500.02, -187500.02, 0.000, 0.000, 0.000, 16:52:30.966
251, 30723.23, 12305.04, 187500.00, 187500.00, -187500.02, -187500.02, -187500.02, -187500.02, 0.000, 0.000, 0.000, 16:52:30.966
252, 30945.72, 12714.61, 187500.00, 187500.00, -187500.02, -187500.02, -187500.02, -187500.02, 0.000, 0.000, 0.000, 16:52:30.966
253, 31196.98, 12913.41, 187500.00, 187500.00, -187500.02, -187500.02, -187500.02, -187500.02, 0.000, 0.000, 0.000, 16:52:30.966
254, 31000.59, 12632.16, 187500.00, 187500.00, -187500.02, -187500.02, -187500.02, -187500.02, 0.000, 0.000, 0.000, 16:52:30.966
255, 30815.59, 12373.72, 187500.00, 187500.00, -187500.02, -187500.02, -187500.02, -187500.02, 0.000, 0.000, 0.000, 16:52:30.967
0, 30710.96, 12295.27, 187500.00, 187500.00, -187500.02, -187500.02, -187500.02, -187500.02, 0.000, 0.000, 0.000, 16:52:30.967
1, 30925.98, 12696.48, 187500.00, 187500.00, -187500.02, -187500.02, -187500.02, -187500.02, 0.006, -0.014, 1.022, 16:52:30.967
2, 31166.69, 12883.77, 187500.00, 187500.00, -187500.02, -187500.02, -187500.02, -187500.02, 0.000, 0.000, 0.000, 16:52:30.967
3, 30994.00, 12623.91, 187500.00, 187500.00, -187500.02, -187500.02, -187500.02, -187500.02, 0.000, 0.000, 0.000, 16:52:30.968
4, 30797.42, 12362.21, 187500.00, 187500.00, -187500.02, -187500.02, -187500.02, -187500.02, 0.000, 0.000, 0.000, 16:52:30.968
5, 30706.09, 12290.80, 187500.00, 187500.00, -187500.02, -187500.02, -187500.02, -187500.02, 0.000, 0.000, 0.000, 16:52:30.968
6, 30925.45, 12691.43, 187500.00, 187500.00, -187500.02, -187500.02, -187500.02, -187500.02, 0.000, 0.000, 0.000, 16:52:30.968
7, 31174.67, 12888.40, 187500.00, 187500.00, -187500.02, -187500.02, -187500.02, -187500.02, 0.000, 0.000, 0.000, 16:52:30.969
8, 30985.26, 12625.02, 187500.00, 187500.00, -187500.02, -187500.02, -187500.02, -187500.02, 0.000, 0.000, 0.000, 16:52:30.969
9, 30811.52, 12377.97, 187500.00, 187500.00, -187500.02, -187500.02, -187500.02, -187500.02, 0.000, 0.000, 0.000, 16:52:30.969
10, 30725.91, 12306.74, 187500.00, 187500.00, -187500.02, -187500.02, -187500.02, -187500.02, 0.000, 0.000, 0.000, 16:52:30.970
11, 30952.49, 12719.48, 187500.00, 187500.00, -187500.02, -187500.02, -187500.02, -187500.02, 0.006, -0.016, 1.020, 16:52:30.970
12, 31201.49, 12924.99, 187500.00, 187500.00, -187500.02, -187500.02, -187500.02, -187500.02, 0.000, 0.000, 0.000, 16:52:30.970
13, 31002.63, 12641.57, 187500.00, 187500.00, -187500.02, -187500.02, -187500.02, -187500.02, 0.000, 0.000, 0.000, 16:52:30.970
14, 30823.37, 12388.79, 187500.00, 187500.00, -187500.02, -187500.02, -187500.02, -187500.02, 0.000, 0.000, 0.000, 16:52:30.971
15, 30733.13, 12320.06, 187500.00, 187500.00, -187500.02, -187500.02, -187500.02, -187500.02, 0.000, 0.000, 0.000, 16:52:30.971
16, 30947.04, 12718.28, 187500.00, 187500.00, -187500.02, -187500.02, -187500.02, -187500.02, 0.000, 0.000, 0.000, 16:52:30.971
17, 31179.83, 12912.69, 187500.00, 187500.00, -187500.02, -187500.02, -187500.02, -187500.02, 0.000, 0.000, 0.000, 16:52:30.971
18, 31000.28, 12647.31, 187500.00, 187500.00, -187500.02, -187500.02, -187500.02, -187500.02, 0.000, 0.000, 0.000, 16:52:30.972
19, 30826.72, 12394.76, 187500.00, 187500.00, -187500.02, -187500.02, -187500.02, -187500.02, 0.000, 0.000, 0.000, 16:52:30.972
20, 30733.36, 12320.46, 187500.00, 187500.00, -187500.02, -187500.02, -187500.02, -187500.02, 0.000, 0.000, 0.000, 16:52:30.972
21, 30936.51, 12708.73, 187500.00, 187500.00, -187500.02, -187500.02, -187500.02, -187500.02, 0.006, -0.018, 1.022, 16:52:30.972
22, 31181.04, 12899.33, 187500.00, 187500.00, -187500.02, -187500.02, -187500.02, -187500.02, 0.000, 0.000, 0.000, 16:52:30.972
23, 30984.43, 12631.44, 187500.00, 187500.00, -187500.02, -187500.02, -187500.02, -187500.02, 0.000, 0.000, 0.000, 16:52:30.973
24, 30792.63, 12374.82, 187500.00, 187500.00, -187500.02, -187500.02, -187500.02, -187500.02, 0.000, 0.000, 0.000, 16:52:30.973
25, 30708.14, 12305.84, 187500.00, 187500.00, -187500.02, -187500.02, -187500.02, -187500.02, 0.000, 0.000, 0.000, 16:52:30.973
26, 30938.48, 12712.53, 187500.00, 187500.00, -187500.02, -187500.02, -187500.02, -187500.02, 0.000, 0.000, 0.000, 16:52:30.973
27, 31181.11, 12911.06, 187500.00, 187500.00, -187500.02, -187500.02, -187500.02, -187500.02, 0.000, 0.000, 0.000, 16:52:30.974
28, 31001.94, 12647.69, 187500.00, 187500.00, -187500.02, -187500.02, -187500.02, -187500.02, 0.000, 0.000, 0.000, 16:52:30.974
29, 30813.38, 12385.44, 187500.00, 187500.00, -187500.02, -187500.02, -187500.02, -187500.02, 0.000, 0.000, 0.000, 16:52:30.974
30, 30717.04, 12312.08, 187500.00, 187500.00, -187500.02, -187500.02, -187500.02, -187500.02, 0.010, -0.014, 1.028, 16:52:30.974
31, 30934.66, 12714.50, 187500.00, 187500.00, -187500.02, -187500.02, -187500.02, -187500.02, 0.000, 0.000, 0.000, 16:52:30.974
32, 31189.91, 12920.67, 187500.00, 187500.00, -187500.02, -187500.02, -187500.02, -187500.02, 0.000, 0.000, 0.000, 16:52:30.975
33, 31009.54, 12653.79, 187500.00, 187500.00, -187500.02, -187500.02, -187500.02, -187500.02, 0.000, 0.000, 0.000, 16:52:30.975
34, 30825.49, 12395.90, 187500.00, 187500.00, -187500.02, -187500.02, -187500.02, -187500.02, 0.000, 0.000, 0.000, 16:52:30.975
35, 30735.28, 12325.00, 187500.00, 187500.00, -187500.02, -187500.02, -187500.02, -187500.02, 0.000, 0.000, 0.000, 16:52:30.975
36, 30949.07, 12724.98, 187500.00, 187500.00, -187500.02, -187500.02, -187500.02, -187500.02, 0.000, 0.000, 0.000, 16:52:30.975
37, 31190.14, 12919.89, 187500.00, 187500.00, -187500.02, -187500.02, -187500.02, -187500.02, 0.000, 0.000, 0.000, 16:52:30.976
38, 31009.38, 12657.03, 187500.00, 187500.00, -187500.02, -187500.02, -187500.02, -187500.02, 0.000, 0.000, 0.000, 16:52:30.976
39, 30835.17, 12402.02, 187500.00, 187500.00, -187500.02, -187500.02, -187500.02, -187500.02, 0.000, 0.000, 0.000, 16:52:30.976
40, 30729.29, 12320.13, 187500.00, 187500.00, -187500.02, -187500.02, -187500.02, -187500.02, 0.014, -0.020, 1.026, 16:52:30.976
41, 30934.54, 12713.27, 187500.00, 187500.00, -187500.02, -187500.02, -187500.02, -187500.02, 0.000, 0.000, 0.000, 16:52:30.977
42, 31182.85, 12907.15, 187500.00, 187500.00, -187500.02, -187500.02, -187500.02, -187500.02, 0.000, 0.000, 0.000, 16:52:30.977
43, 30998.52, 12634.14, 187500.00, 187500.00, -187500.02, -187500.02, -187500.02, -187500.02, 0.000, 0.000, 0.000, 16:52:30.977
44, 30800.70, 12375.18, 187500.00, 187500.00, -187500.02, -187500.02, -187500.02, -187500.02, 0.000, 0.000, 0.000, 16:52:30.977
45, 30714.60, 12310.42, 187500.00, 187500.00, -187500.02, -187500.02, -187500.02, -187500.02, 0.000, 0.000, 0.000, 16:52:30.977
46, 30935.19, 12715.08, 187500.00, 187500.00, -187500.02, -187500.02, -187500.02, -187500.02, 0.000, 0.000, 0.000, 16:52:30.978
47, 31179.81, 12915.24, 187500.00, 187500.00, -187500.02, -187500.02, -187500.02, -187500.02, 0.000, 0.000, 0.000, 16:52:30.978
48, 30989.04, 12641.77, 187500.00, 187500.00, -187500.02, -187500.02, -187500.02, -187500.02, 0.000, 0.000, 0.000, 16:52:30.978
49, 30809.44, 12387.52, 187500.00, 187500.00, -187500.02, -187500.02, -187500.02, -187500.02, 0.000, 0.000, 0.000, 16:52:30.978
50, 30729.56, 12325.04, 187500.00, 187500.00, -187500.02, -187500.02, -187500.02, -187500.02, 0.012, -0.012, 1.026, 16:52:30.978
51, 30948.83, 12729.09, 187500.00, 187500.00, -187500.02, -187500.02, -187500.02, -187500.02, 0.000, 0.000, 0.000, 16:52:30.979
52, 31189.85, 12926.75, 187500.00, 187500.00, -187500.02, -187500.02, -187500.02, -187500.02, 0.000, 0.000, 0.000, 16:52:30.979
53, 30999.77, 12651.94, 187500.00, 187500.00, -187500.02, -187500.02, -187500.02, -187500.02, 0.000, 0.000, 0.000, 16:52:30.979
54, 30812.04, 12387.09, 187500.00, 187500.00, -187500.02, -187500.02, -187500.02, -187500.02, 0.000, 0.000, 0.000, 16:52:30.979
55, 30739.06, 12330.25, 187500.00, 187500.00, -187500.02, -187500.02, -187500.02, -187500.02, 0.000, 0.000, 0.000, 16:52:30.980
56, 30963.83, 12736.43, 187500.00, 187500.00, -187500.02, -187500.02, -187500.02, -187500.02, 0.000, 0.000, 0.000, 16:52:30.980
57, 31183.92, 12917.65, 187500.00, 187500.00, -187500.02, -187500.02, -187500.02, -187500.02, 0.000, 0.000, 0.000, 16:52:30.980
58, 30994.13, 12644.47, 187500.00, 187500.00, -187500.02, -187500.02, -187500.02, -187500.02, 0.000, 0.000, 0.000, 16:52:30.980
59, 30821.31, 12397.98, 187500.00, 187500.00, -187500.02, -187500.02, -187500.02, -187500.02, 0.000, 0.000, 0.000, 16:52:30.980
60, 30724.21, 12321.02, 187500.00, 187500.00, -187500.02, -187500.02, -187500.02, -187500.02, 0.014, -0.020, 1.026, 16:52:30.981
61, 30923.62, 12709.83, 187500.00, 187500.00, -187500.02, -187500.02, -187500.02, -187500.02, 0.000, 0.000, 0.000, 16:52:30.981
62, 31168.52, 12911.33, 187500.00, 187500.00, -187500.02, -187500.02, -187500.02, -187500.02, 0.000, 0.000, 0.000, 16:52:30.981
63, 30984.23, 12640.29, 187500.00, 187500.00, -187500.02, -187500.02, -187500.02, -187500.02, 0.000, 0.000, 0.000, 16:52:30.981
64, 30809.08, 12394.11, 187500.00, 187500.00, -187500.02, -187500.02, -187500.02, -187500.02, 0.000, 0.000, 0.000, 16:52:30.982
65, 30721.76, 12324.15, 187500.00, 187500.00, -187500.02, -187500.02, -187500.02, -187500.02, 0.000, 0.000, 0.000, 16:52:30.982
66, 30948.58, 12730.41, 187500.00, 187500.00, -187500.02, -187500.02, -187500.02, -187500.02, 0.000, 0.000, 0.000, 16:52:30.982
67, 31176.12, 12915.20, 187500.00, 187500.00, -187500.02, -187500.02, -187500.02, -187500.02, 0.000, 0.000, 0.000, 16:52:30.982
68, 30995.45, 12653.95, 187500.00, 187500.00, -187500.02, -187500.02, -187500.02, -187500.02, 0.000, 0.000, 0.000, 16:52:30.982
69, 30822.14, 12405.60, 187500.00, 187500.00, -187500.02, -187500.02, -187500.02, -187500.02, 0.000, 0.000, 0.000, 16:52:30.983
70, 30718.83, 12321.71, 187500.00, 187500.00, -187500.02, -187500.02, -187500.02, -187500.02, 0.014, -0.018, 1.030, 16:52:30.983
71, 30935.10, 12722.50, 187500.00, 187500.00, -187500.02, -187500.02, -187500.02, -187500.02, 0.000, 0.000, 0.000, 16:52:30.983
72, 31185.71, 12924.58, 187500.00, 187500.00, -187500.02, -187500.02, -187500.02, -187500.02, 0.000, 0.000, 0.000, 16:52:30.983
73, 31006.18, 12663.04, 187500.00, 187500.00, -187500.02, -187500.02, -187500.02, -187500.02, 0.000, 0.000, 0.000, 16:52:30.984
74, 30829.40, 12412.75, 187500.00, 187500.00, -187500.02, -187500.02, -187500.02, -187500.02, 0.000, 0.000, 0.000, 16:52:30.984
75, 30739.41, 12340.46, 187500.00, 187500.00, -187500.02, -187500.02, -187500.02, -187500.02, 0.000, 0.000, 0.000, 16:52:30.984
76, 30965.41, 12746.39, 187500.00, 187500.00, -187500.02, -187500.02, -187500.02, -187500.02, 0.000, 0.000, 0.000, 16:52:30.984
77, 31206.39, 12944.79, 187500.00, 187500.00, -187500.02, -187500.02, -187500.02, -187500.02, 0.000, 0.000, 0.000, 16:52:30.984
78, 31015.75, 12674.47, 187500.00, 187500.00, -187500.02, -187500.02, -187500.02, -187500.02, 0.000, 0.000, 0.000, 16:52:30.985
79, 30831.50, 12410.90, 187500.00, 187500.00, -187500.02, -187500.02, -187500.02, -187500.02, 0.000, 0.000, 0.000, 16:52:30.985
80, 30744.11, 12343.17, 187500.00, 187500.00, -187500.02, -187500.02, -187500.02, -187500.02, 0.012, -0.016, 1.030, 16:52:30.985
81, 30950.64, 12735.78, 187500.00, 187500.00, -187500.02, -187500.02, -187500.02, -187500.02, 0.000, 0.000, 0.000, 16:52:30.985
82, 31200.38, 12941.35, 187500.00, 187500.00, -187500.02, -187500.02, -187500.02, -187500.02, 0.000, 0.000, 0.000, 16:52:30.986
83, 31012.84, 12669.75, 187500.00, 187500.00, -187500.02, -187500.02, -187500.02, -187500.02, 0.000, 0.000, 0.000, 16:52:30.986
84, 30830.83, 12408.48, 187500.00, 187500.00, -187500.02, -187500.02, -187500.02, -187500.02, 0.000, 0.000, 0.000, 16:52:30.986
85, 30731.17, 12330.72, 187500.00, 187500.00, -187500.02, -187500.02, -187500.02, -187500.02, 0.000, 0.000, 0.000, 16:52:30.986
86, 30951.33, 12733.14, 187500.00, 187500.00, -187500.02, -187500.02, -187500.02, -187500.02, 0.000, 0.000, 0.000, 16:52:30.987
87, 31196.91, 12937.21, 187500.00, 187500.00, -187500.02, -187500.02, -187500.02, -187500.02, 0.000, 0.000, 0.000, 16:52:30.987
88, 31012.62, 12665.01, 187500.00, 187500.00, -187500.02, -187500.02, -187500.02, -187500.02, 0.000, 0.000, 0.000, 16:52:30.987
89, 30846.14, 12425.69, 187500.00, 187500.00, -187500.02, -187500.02, -187500.02, -187500.02, 0.000, 0.000, 0.000, 16:52:31.441
90, 30743.62, 12336.13, 187500.00, 187500.00, -187500.02, -187500.02, -187500.02, -187500.02, 0.004, -0.016, 1.028, 16:52:31.441
91, 30951.33, 12734.71, 187500.00, 187500.00, -187500.02, -187500.02, -187500.02, -187500.02, 0.000, 0.000, 0.000, 16:52:31.441
92, 31192.15, 12935.51, 187500.00, 187500.00, -187500.02, -187500.02, -187500.02, -187500.02, 0.000, 0.000, 0.000, 16:52:31.442
93, 31024.02, 12679.41, 187500.00, 187500.00, -187500.02, -187500.02, -187500.02, -187500.02, 0.000, 0.000, 0.000, 16:52:31.442
94, 30844.27, 12425.25, 187500.00, 187500.00, -187500.02, -187500.02, -187500.02, -187500.02, 0.000, 0.000, 0.000, 16:52:31.442
95, 30738.52, 12336.40, 187500.00, 187500.00, -187500.02, -187500.02, -187500.02, -187500.02, 0.000, 0.000, 0.000, 16:52:31.442
96, 30944.78, 12728.74, 187500.00, 187500.00, -187500.02, -187500.02, -187500.02, -187500.02, 0.000, 0.000, 0.000, 16:52:31.442
97, 31203.79, 12943.22, 187500.00, 187500.00, -187500.02, -187500.02, -187500.02, -187500.02, 0.000, 0.000, 0.000, 16:52:31.443
98, 31022.05, 12678.87, 187500.00, 187500.00, -187500.02, -187500.02, -187500.02, -187500.02, 0.000, 0.000, 0.000, 16:52:31.443
99, 30839.28, 12419.23, 187500.00, 187500.00, -187500.02, -187500.02, -187500.02, -187500.02, 0.000, 0.000, 0.000, 16:52:31.443
100, 30757.79, 12348.82, 187500.00, 187500.00, -187500.02, -187500.02, -187500.02, -187500.02, 0.010, -0.016, 1.030, 16:52:31.443
101, 30958.80, 12745.46, 187500.00, 187500.00, -187500.02, -187500.02, -187500.02, -187500.02, 0.000, 0.000, 0.000, 16:52:31.443
102, 31183.16, 12936.47, 187500.00, 187500.00, -187500.02, -187500.02, -187500.02, -187500.02, 0.000, 0.000, 0.000, 16:52:31.444
103, 31000.95, 12666.38, 187500.00, 187500.00, -187500.02, -187500.02, -187500.02, -187500.02, 0.000, 0.000, 0.000, 16:52:31.444
104, 30822.59, 12409.17, 187500.00, 187500.00, -187500.02, -187500.02, -187500.02, -187500.02, 0.000, 0.000, 0.000, 16:52:31.444
105, 30727.30, 12334.09, 187500.00, 187500.00, -187500.02, -187500.02, -187500.02, -187500.02, 0.000, 0.000, 0.000, 16:52:31.444
106, 30933.88, 12728.04, 187500.00, 187500.00, -187500.02, -187500.02, -187500.02, -187500.02, 0.000, 0.000, 0.000, 16:52:31.444
107, 31181.69, 12933.25, 187500.00, 187500.00, -187500.02, -187500.02, -187500.02, -187500.02, 0.000, 0.000, 0.000, 16:52:31.444
108, 31011.05, 12679.03, 187500.00, 187500.00, -187500.02, -187500.02, -187500.02, -187500.02, 0.000, 0.000, 0.000, 16:52:31.445
109, 30829.65, 12421.71, 187500.00, 187500.00, -187500.02, -187500.02, -187500.02, -187500.02, 0.000, 0.000, 0.000, 16:52:31.445
110, 30725.98, 12333.83, 187500.00, 187500.00, -187500.02, -187500.02, -187500.02, -187500.02, 0.014, -0.016, 1.030, 16:52:31.445
111, 30934.16, 12727.95, 187500.00, 187500.00, -187500.02, -187500.02, -187500.02, -187500.02, 0.000, 0.000, 0.000, 16:52:31.445
112, 31189.04, 12936.27, 187500.00, 187500.00, -187500.02, -187500.02, -187500.02, -187500.02, 0.000, 0.000, 0.000, 16:52:31.446
113, 31017.87, 12677.75, 187500.00, 187500.00, -187500.02, -187500.02, -187500.02, -187500.02, 0.000, 0.000, 0.000, 16:52:31.446
114, 30823.17, 12411.34, 187500.00, 187500.00, -187500.02, -187500.02, -187500.02, -187500.02, 0.000, 0.000, 0.000, 16:52:31.446
115, 30738.86, 12347.17, 187500.00, 187500.00, -187500.02, -187500.02, -187500.02, -187500.02, 0.000, 0.000, 0.000, 16:52:31.446
116, 30961.88, 12758.91, 187500.00, 187500.00, -187500.02, -187500.02, -187500.02, -187500.02, 0.000, 0.000, 0.000, 16:52:31.446
117, 31181.02, 12933.46, 187500.00, 187500.00, -187500.02, -187500.02, -187500.02, -187500.02, 0.000, 0.000, 0.000, 16:52:31.447
118, 31005.02, 12674.06, 187500.00, 187500.00, -187500.02, -187500.02, -187500.02, -187500.02, 0.000, 0.000, 0.000, 16:52:31.447
119, 30826.74, 12423.50, 187500.00, 187500.00, -187500.02, -187500.02, -187500.02, -187500.02, 0.000, 0.000, 0.000, 16:52:31.447
120, 30728.33, 12334.81, 187500.00, 187500.00, -187500.02, -187500.02, -187500.02, -187500.02, 0.010, -0.020, 1.026, 16:52:31.447
121, 30941.81, 12732.54, 187500.00, 187500.00, -187500.02, -187500.02, -187500.02, -187500.02, 0.000, 0.000, 0.000, 16:52:31.447
122, 31199.10, 12943.94, 187500.00, 187500.00, -187500.02, -187500.02, -187500.02, -187500.02, 0.000, 0.000, 0.000, 16:52:31.448
123, 30998.70, 12667.69, 187500.00, 187500.00, -187500.02, -187500.02, -187500.02, -187500.02, 0.000, 0.000, 0.000, 16:52:31.448
124, 30823.86, 12418.20, 187500.00, 187500.00, -187500.02, -187500.02, -187500.02, -187500.02, 0.000, 0.000, 0.000, 16:52:31.448
125, 30725.53, 12338.63, 187500.00, 187500.00, -187500.02, -187500.02, -187500.02, -187500.02, 0.000, 0.000, 0.000, 16:52:31.448
126, 30929.65, 12730.55, 187500.00, 187500.00, -187500.02, -187500.02, -187500.02, -187500.02, 0.000, 0.000, 0.000, 16:52:31.449
127, 31175.68, 12929.43, 187500.00, 187500.00, -187500.02, -187500.02, -187500.02, -187500.02, 0.000, 0.000, 0.000, 16:52:31.449
128, 31002.70, 12670.09, 187500.00, 187500.00, -187500.02, -187500.02, -187500.02, -187500.02, 0.000, 0.000, 0.000, 16:52:31.449
129, 30826.56, 12417.71, 187500.00, 187500.00, -187500.02, -187500.02, -187500.02, -187500.02, 0.000, 0.000, 0.000, 16:52:31.449
130, 30730.32, 12340.04, 187500.00, 187500.00, -187500.02, -187500.02, -187500.02, -187500.02, 0.012, -0.022, 1.028, 16:52:31.449
131, 30946.97, 12744.50, 187500.00, 187500.00, -187500.02, -187500.02, -187500.02, -187500.02, 0.000, 0.000, 0.000, 16:52:31.449
132, 31186.25, 12943.31, 187500.00, 187500.00, -187500.02, -187500.02, -187500.02, -187500.02, 0.000, 0.000, 0.000, 16:52:31.449
133, 31001.73, 12675.85, 187500.00, 187500.00, -187500.02, -187500.02, -187500.02, -187500.02, 0.000, 0.000, 0.000, 16:52:31.450
134, 30826.23, 12427.70, 187500.00, 187500.00, -187500.02, -187500.02, -187500.02, -187500.02, 0.000, 0.000, 0.000, 16:52:31.450
135, 30736.42, 12352.22, 187500.00, 187500.00, -187500.02, -187500.02, -187500.02, -187500.02, 0.000, 0.000, 0.000, 16:52:31.450
136, 30943.40, 12750.35, 187500.00, 187500.00, -187500.02, -187500.02, -187500.02, -187500.02, 0.000, 0.000, 0.000, 16:52:31.450
137, 31193.67, 12955.88, 187500.00, 187500.00, -187500.02, -187500.02, -187500.02, -187500.02, 0.000, 0.000, 0.000, 16:52:31.450
138, 31021.52, 12698.32, 187500.00, 187500.00, -187500.02, -187500.02, -187500.02, -187500.02, 0.000, 0.000, 0.000, 16:52:31.451
139, 30830.34, 12434.23, 187500.00, 187500.00, -187500.02, -187500.02, -187500.02, -187500.02, 0.000, 0.000, 0.000, 16:52:31.451
140, 30736.82, 12355.89, 187500.00, 187500.00, -187500.02, -187500.02, -187500.02, -187500.02, 0.010, -0.018, 1.028, 16:52:31.451
141, 30952.78, 12757.75, 187500.00, 187500.00, -187500.02, -187500.02, -187500.02, -187500.02, 0.000, 0.000, 0.000, 16:52:31.451
142, 31191.48, 12950.24, 187500.00, 187500.00, -187500.02, -187500.02, -187500.02, -187500.02, 0.000, 0.000, 0.000, 16:52:31.452
143, 31009.47, 12683.03, 187500.00, 187500.00, -187500.02, -187500.02, -187500.02, -187500.02, 0.000, 0.000, 0.000, 16:52:31.452
144, 30823.99, 12425.07, 187500.00, 187500.00, -187500.02, -187500.02, -187500.02, -187500.02, 0.000, 0.000, 0.000, 16:52:31.452
145, 30715.36, 12333.29, 187500.00, 187500.00, -187500.02, -187500.02, -187500.02, -187500.02, 0.000, 0.000, 0.000, 16:52:31.452
146, 30923.44, 12725.18, 187500.00, 187500.00, -187500.02, -187500.02, -187500.02, -187500.02, 0.000, 0.000, 0.000, 16:52:31.452
147, 31180.30, 12939.33, 187500.00, 187500.00, -187500.02, -187500.02, -187500.02, -187500.02, 0.000, 0.000, 0.000, 16:52:31.455
148, 31000.35, 12679.54, 187500.00, 187500.00, -187500.02, -187500.02, -187500.02, -187500.02, 0.000, 0.000, 0.000, 16:52:31.455
149, 30822.47, 12426.61, 187500.00, 187500.00, -187500.02, -187500.02, -187500.02, -187500.02, 0.000, 0.000, 0.000, 16:52:31.455
150, 30722.16, 12343.91, 187500.00, 187500.00, -187500.02, -187500.02, -187500.02, -187500.02, 0.010, -0.020, 1.026, 16:52:31.455
151, 30925.52, 12736.72, 187500.00, 187500.00, -187500.02, -187500.02, -187500.02, -187500.02, 0.000, 0.000, 0.000, 16:52:31.456
152, 31173.66, 12941.62, 187500.00, 187500.00, -187500.02, -187500.02, -187500.02, -187500.02, 0.000, 0.000, 0.000, 16:52:31.456
153, 31000.71, 12682.00, 187500.00, 187500.00, -187500.02, -187500.02, -187500.02, -187500.02, 0.000, 0.000, 0.000, 16:52:31.456
154, 30816.84, 12424.69, 187500.00, 187500.00, -187500.02, -187500.02, -187500.02, -187500.02, 0.000, 0.000, 0.000, 16:52:31.456
155, 30726.52, 12344.51, 187500.00, 187500.00, -187500.02, -187500.02, -187500.02, -187500.02, 0.000, 0.000, 0.000, 16:52:31.456
156, 30951.80, 12751.54, 187500.00, 187500.00, -187500.02, -187500.02, -187500.02, -187500.02, 0.000, 0.000, 0.000, 16:52:31.457
157, 31183.34, 12945.86, 187500.00, 187500.00, -187500.02, -187500.02, -187500.02, -187500.02, 0.000, 0.000, 0.000, 16:52:31.457
158, 31005.40, 12682.18, 187500.00, 187500.00, -187500.02, -187500.02, -187500.02, -187500.02, 0.000, 0.000, 0.000, 16:52:31.457
159, 30824.91, 12426.25, 187500.00, 187500.00, -187500.02, -187500.02, -187500.02, -187500.02, 0.012, -0.018, 1.024, 16:52:31.457
160, 30719.21, 12334.99, 187500.00, 187500.00, -187500.02, -187500.02, -187500.02, -187500.02, 0.000, 0.000, 0.000, 16:52:31.457
161, 30934.95, 12736.83, 187500.00, 187500.00, -187500.02, -187500.02, -187500.02, -187500.02, 0.000, 0.000, 0.000, 16:52:31.458
162, 31184.28, 12940.18, 187500.00, 187500.00, -187500.02, -187500.02, -187500.02, -187500.02, 0.000, 0.000, 0.000, 16:52:31.458
163, 31011.48, 12677.95, 187500.00, 187500.00, -187500.02, -187500.02, -187500.02, -187500.02, 0.000, 0.000, 0.000, 16:52:31.458
164, 30815.86, 12412.48, 187500.00, 187500.00, -187500.02, -187500.02, -187500.02, -187500.02, 0.000, 0.000, 0.000, 16:52:31.458
165, 30700.99, 12323.32, 187500.00, 187500.00, -187500.02, -187500.02, -187500.02, -187500.02, 0.000, 0.000, 0.000, 16:52:31.459
166, 30922.43, 12731.02, 187500.00, 187500.00, -187500.02, -187500.02, -187500.02, -187500.02, 0.000, 0.000, 0.000, 16:52:31.459
167, 31164.90, 12931.36, 187500.00, 187500.00, -187500.02, -187500.02, -187500.02, -187500.02, 0.000, 0.000, 0.000, 16:52:31.459
168, 30968.23, 12653.97, 187500.00, 187500.00, -187500.02, -187500.02, -187500.02, -187500.02, 0.000, 0.000, 0.000, 16:52:31.459
169, 30798.18, 12409.53, 187500.00, 187500.00, -187500.02, -187500.02, -187500.02, -187500.02, 0.010, -0.012, 1.022, 16:52:31.459
170, 30686.69, 12309.91, 187500.00, 187500.00, -187500.02, -187500.02, -187500.02, -187500.02, 0.000, 0.000, 0.000, 16:52:31.460
171, 30890.40, 12702.18, 187500.00, 187500.00, -187500.02, -187500.02, -187500.02, -187500.02, 0.000, 0.000, 0.000, 16:52:31.460
172, 31133.86, 12907.86, 187500.00, 187500.00, -187500.02, -187500.02, -187500.02, -187500.02, 0.000, 0.000, 0.000, 16:52:31.460
173, 30956.54, 12643.89, 187500.00, 187500.00, -187500.02, -187500.02, -187500.02, -187500.02, 0.000, 0.000, 0.000, 16:52:31.460
174, 30783.92, 12392.75, 187500.00, 187500.00, -187500.02, -187500.02, -187500.02, -187500.02, 0.000, 0.000, 0.000, 16:52:31.461
175, 30697.97, 12319.77, 187500.00, 187500.00, -187500.02, -187500.02, -187500.02, -187500.02, 0.000, 0.000, 0.000, 16:52:31.461
176, 30884.66, 12698.16, 187500.00, 187500.00, -187500.02, -187500.02, -187500.02, -187500.02, 0.000, 0.000, 0.000, 16:52:31.461
177, 31131.33, 12902.86, 187500.00, 187500.00, -187500.02, -187500.02, -187500.02, -187500.02, 0.000, 0.000, 0.000, 16:52:31.461
178, 30948.63, 12636.07, 187500.00, 187500.00, -187500.02, -187500.02, -187500.02, -187500.02, 0.000, 0.000, 0.000, 16:52:31.461
179, 30764.67, 12385.53, 187500.00, 187500.00, -187500.02, -187500.02, -187500.02, -187500.02, 0.008, -0.016, 1.022, 16:52:31.462
180, 30677.01, 12314.51, 187500.00, 187500.00, -187500.02, -187500.02, -187500.02, -187500.02, 0.000, 0.000, 0.000, 16:52:31.462
181, 30883.00, 12705.92, 187500.00, 187500.00, -187500.02, -187500.02, -187500.02, -187500.02, 0.000, 0.000, 0.000, 16:52:31.462
182, 31142.86, 12919.49, 187500.00, 187500.00, -187500.02, -187500.02, -187500.02, -187500.02, 0.000, 0.000, 0.000, 16:52:31.462
183, 30974.78, 12667.27, 187500.00, 187500.00, -187500.02, -187500.02, -187500.02, -187500.02, 0.000, 0.000, 0.000, 16:52:31.463
184, 30776.43, 12396.92, 187500.00, 187500.00, -187500.02, -187500.02, -187500.02, -187500.02, 0.000, 0.000, 0.000, 16:52:31.463
185, 30664.07, 12299.40, 187500.00, 187500.00, -187500.02, -187500.02, -187500.02, -187500.02, 0.000, 0.000, 0.000, 16:52:31.463
186, 30876.21, 12699.21, 187500.00, 187500.00, -187500.02, -187500.02, -187500.02, -187500.02, 0.000, 0.000, 0.000, 16:52:31.463
187, 31121.56, 12902.79, 187500.00, 187500.00, -187500.02, -187500.02, -187500.02, -187500.02, 0.000, 0.000, 0.000, 16:52:31.463
188, 30955.33, 12655.22, 187500.00, 187500.00, -187500.02, -187500.02, -187500.02, -187500.02, 0.000, 0.000, 0.000, 16:52:31.464
189, 30782.91, 12411.28, 187500.00, 187500.00, -187500.02, -187500.02, -187500.02, -187500.02, 0.008, -0.016, 1.020, 16:52:31.464
190, 30679.42, 12319.41, 187500.00, 187500.00, -187500.02, -187500.02, -187500.02, -187500.02, 0.000, 0.000, 0.000, 16:52:31.464
191, 30891.67, 12717.20, 187500.00, 187500.00, -187500.02, -187500.02, -187500.02, -187500.02, 0.000, 0.000, 0.000, 16:52:31.464
192, 31150.40, 12933.12, 187500.00, 187500.00, -187500.02, -187500.02, -187500.02, -187500.02, 0.000, 0.000, 0.000, 16:52:31.465
193, 30967.11, 12667.58, 187500.00, 187500.00, -187500.02, -187500.02, -187500.02, -187500.02, 0.000, 0.000, 0.000, 16:52:31.465
194, 30782.24, 12413.20, 187500.00, 187500.00, -187500.02, -187500.02, -187500.02, -187500.02, 0.000, 0.000, 0.000, 16:52:31.465
195, 30682.48, 12324.59, 187500.00, 187500.00, -187500.02, -187500.02, -187500.02, -187500.02, 0.000, 0.000, 0.000, 16:52:31.465
196, 30892.63, 12722.23, 187500.00, 187500.00, -187500.02, -187500.02, -187500.02, -187500.02, 0.000, 0.000, 0.000, 16:52:31.466
197, 31139.62, 12925.19, 187500.00, 187500.00, -187500.02, -187500.02, -187500.02, -187500.02, 0.000, 0.000, 0.000, 16:52:31.466
198, 30963.96, 12662.13, 187500.00, 187500.00, -187500.02, -187500.02, -187500.02, -187500.02, 0.000, 0.000, 0.000, 16:52:31.466
199, 30787.63, 12409.31, 187500.00, 187500.00, -187500.02, -187500.02, -187500.02, -187500.02, 0.006, -0.014, 1.024, 16:52:31.466
200, 30680.36, 12321.42, 187500.00, 187500.00, -187500.02, -187500.02, -187500.02, -187500.02, 0.000, 0.000, 0.000, 16:52:31.467
201, 30884.81, 12713.20, 187500.00, 187500.00, -187500.02, -187500.02, -187500.02, -187500.02, 0.000, 0.000, 0.000, 16:52:31.467
202, 31139.67, 12914.08, 187500.00, 187500.00, -187500.02, -187500.02, -187500.02, -187500.02, 0.000, 0.000, 0.000, 16:52:31.467
203, 30955.80, 12653.43, 187500.00, 187500.00, -187500.02, -187500.02, -187500.02, -187500.02, 0.000, 0.000, 0.000, 16:52:31.467
204, 30771.60, 12398.71, 187500.00, 187500.00, -187500.02, -187500.02, -187500.02, -187500.02, 0.000, 0.000, 0.000, 16:52:31.467
205, 30664.18, 12299.36, 187500.00, 187500.00, -187500.02, -187500.02, -187500.02, -187500.02, 0.000, 0.000, 0.000, 16:52:31.468
206, 30877.01, 12701.07, 187500.00, 187500.00, -187500.02, -187500.02, -187500.02, -187500.02, 0.000, 0.000, 0.000, 16:52:31.468
207, 31132.47, 12919.82, 187500.00, 187500.00, -187500.02, -187500.02, -187500.02, -187500.02, 0.000, 0.000, 0.000, 16:52:31.468
208, 30946.53, 12647.24, 187500.00, 187500.00, -187500.02, -187500.02, -187500.02, -187500.02, 0.000, 0.000, 0.000, 16:52:31.468
209, 30765.48, 12395.05, 187500.00, 187500.00, -187500.02, -187500.02, -187500.02, -187500.02, 0.010, -0.016, 1.026, 16:52:31.920
210, 30672.63, 12315.88, 187500.00, 187500.00, -187500.02, -187500.02, -187500.02, -187500.02, 0.000, 0.000, 0.000, 16:52:31.920
211, 30879.18, 12708.87, 187500.00, 187500.00, -187500.02, -187500.02, -187500.02, -187500.02, 0.000, 0.000, 0.000, 16:52:31.920
212, 31129.97, 12918.88, 187500.00, 187500.00, -187500.02, -187500.02, -187500.02, -187500.02, 0.000, 0.000, 0.000, 16:52:31.921
213, 30949.03, 12655.94, 187500.00, 187500.00, -187500.02, -187500.02, -187500.02, -187500.02, 0.000, 0.000, 0.000, 16:52:31.921
214, 30764.00, 12396.14, 187500.00, 187500.00, -187500.02, -187500.02, -187500.02, -187500.02, 0.000, 0.000, 0.000, 16:52:31.921
215, 30676.18, 12317.42, 187500.00, 187500.00, -187500.02, -187500.02, -187500.02, -187500.02, 0.000, 0.000, 0.000, 16:52:31.921
216, 30891.41, 12717.09, 187500.00, 187500.00, -187500.02, -187500.02, -187500.02, -187500.02, 0.000, 0.000, 0.000, 16:52:31.922
217, 31141.52, 12926.48, 187500.00, 187500.00, -187500.02, -187500.02, -187500.02, -187500.02, 0.000, 0.000, 0.000, 16:52:31.922
218, 30965.26, 12663.00, 187500.00, 187500.00, -187500.02, -187500.02, -187500.02, -187500.02, 0.000, 0.000, 0.000, 16:52:31.922
219, 30776.59, 12396.30, 187500.00, 187500.00, -187500.02, -187500.02, -187500.02, -187500.02, 0.014, -0.020, 1.022, 16:52:31.922
220, 30687.63, 12323.46, 187500.00, 187500.00, -187500.02, -187500.02, -187500.02, -187500.02, 0.000, 0.000, 0.000, 16:52:31.922
221, 30902.52, 12718.70, 187500.00, 187500.00, -187500.02, -187500.02, -187500.02, -187500.02, 0.000, 0.000, 0.000, 16:52:31.923
222, 31142.82, 12916.25, 187500.00, 187500.00, -187500.02, -187500.02, -187500.02, -187500.02, 0.000, 0.000, 0.000, 16:52:31.923
223, 30956.56, 12645.79, 187500.00, 187500.00, -187500.02, -187500.02, -187500.02, -187500.02, 0.000, 0.000, 0.000, 16:52:31.923
224, 30765.92, 12390.15, 187500.00, 187500.00, -187500.02, -187500.02, -187500.02, -187500.02, 0.000, 0.000, 0.000, 16:52:31.923
225, 30658.93, 12305.86, 187500.00, 187500.00, -187500.02, -187500.02, -187500.02, -187500.02, 0.000, 0.000, 0.000, 16:52:31.923
226, 30865.70, 12703.21, 187500.00, 187500.00, -187500.02, -187500.02, -187500.02, -187500.02, 0.000, 0.000, 0.000, 16:52:31.924
227, 31126.57, 12916.40, 187500.00, 187500.00, -187500.02, -187500.02, -187500.02, -187500.02, 0.000, 0.000, 0.000, 16:52:31.924
228, 30954.46, 12649.92, 187500.00, 187500.00, -187500.02, -187500.02, -187500.02, -187500.02, 0.000, 0.000, 0.000, 16:52:31.924
229, 30768.27, 12392.54, 187500.00, 187500.00, -187500.02, -187500.02, -187500.02, -187500.02, 0.012, -0.018, 1.030, 16:52:31.924
230, 30661.34, 12299.63, 187500.00, 187500.00, -187500.02, -187500.02, -187500.02, -187500.02, 0.000, 0.000, 0.000, 16:52:31.925
231, 30873.23, 12692.19, 187500.00, 187500.00, -187500.02, -187500.02, -187500.02, -187500.02, 0.000, 0.000, 0.000, 16:52:31.925
232, 31151.22, 12923.73, 187500.00, 187500.00, -187500.02, -187500.02, -187500.02, -187500.02, 0.000, 0.000, 0.000, 16:52:31.925
233, 30983.52, 12668.37, 187500.00, 187500.00, -187500.02, -187500.02, -187500.02, -187500.02, 0.000, 0.000, 0.000, 16:52:31.925
234, 30784.79, 12410.90, 187500.00, 187500.00, -187500.02, -187500.02, -187500.02, -187500.02, 0.000, 0.000, 0.000, 16:52:31.925
235, 30677.01, 12324.89, 187500.00, 187500.00, -187500.02, -187500.02, -187500.02, -187500.02, 0.000, 0.000, 0.000, 16:52:31.926
236, 30903.25, 12723.53, 187500.00, 187500.00, -187500.02, -187500.02, -187500.02, -187500.02, 0.000, 0.000, 0.000, 16:52:31.926
237, 31146.10, 12917.54, 187500.00, 187500.00, -187500.02, -187500.02, -187500.02, -187500.02, 0.000, 0.000, 0.000, 16:52:31.926
238, 30959.94, 12654.82, 187500.00, 187500.00, -187500.02, -187500.02, -187500.02, -187500.02, 0.000, 0.000, 0.000, 16:52:31.926
239, 30776.27, 12399.43, 187500.00, 187500.00, -187500.02, -187500.02, -187500.02, -187500.02, 0.012, -0.012, 1.030, 16:52:31.926
240, 30683.80, 12319.03, 187500.00, 187500.00, -187500.02, -187500.02, -187500.02, -187500.02, 0.000, 0.000, 0.000, 16:52:31.927
241, 30884.46, 12709.34, 187500.00, 187500.00, -187500.02, -187500.02, -187500.02, -187500.02, 0.000, 0.000, 0.000, 16:52:31.927
242, 31131.64, 12919.24, 187500.00, 187500.00, -187500.02, -187500.02, -187500.02, -187500.02, 0.000, 0.000, 0.000, 16:52:31.927
243, 30963.07, 12656.92, 187500.00, 187500.00, -187500.02, -187500.02, -187500.02, -187500.02, 0.000, 0.000, 0.000, 16:52:31.927
244, 30769.19, 12391.23, 187500.00, 187500.00, -187500.02, -187500.02, -187500.02, -187500.02, 0.000, 0.000, 0.000, 16:52:31.927
245, 30671.69, 12302.87, 187500.00, 187500.00, -187500.02, -187500.02, -187500.02, -187500.02, 0.000, 0.000, 0.000, 16:52:31.928
246, 30868.23, 12693.09, 187500.00, 187500.00, -187500.02, -187500.02, -187500.02, -187500.02, 0.000, 0.000, 0.000, 16:52:31.928
247, 31113.69, 12901.07, 187500.00, 187500.00, -187500.02, -187500.02, -187500.02, -187500.02, 0.000, 0.000, 0.000, 16:52:31.928
248, 30933.29, 12637.59, 187500.00, 187500.00, -187500.02, -187500.02, -187500.02, -187500.02, 0.000, 0.000, 0.000, 16:52:31.928
249, 30750.54, 12382.02, 187500.00, 187500.00, -187500.02, -187500.02, -187500.02, -187500.02, 0.006, -0.014, 1.028, 16:52:31.928
250, 30661.16, 12294.98, 187500.00, 187500.00, -187500.02, -187500.02, -187500.02, -187500.02, 0.000, 0.000, 0.000, 16:52:31.929
251, 30871.18, 12690.74, 187500.00, 187500.00, -187500.02, -187500.02, -187500.02, -187500.02, 0.000, 0.000, 0.000, 16:52:31.929
252, 31130.59, 12913.07, 187500.00, 187500.00, -187500.02, -187500.02, -187500.02, -187500.02, 0.000, 0.000, 0.000, 16:52:31.929
253, 30953.99, 12652.16, 187500.00, 187500.00, -187500.02, -187500.02, -187500.02, -187500.02, 0.000, 0.000, 0.000, 16:52:31.929
254, 30768.05, 12395.41, 187500.00, 187500.00, -187500.02, -187500.02, -187500.02, -187500.02, 0.000, 0.000, 0.000, 16:52:31.929
255, 30669.72, 12308.66, 187500.00, 187500.00, -187500.02, -187500.02, -187500.02, -187500.02, 0.000, 0.000, 0.000, 16:52:31.929
0, 30872.81, 12698.20, 187500.00, 187500.00, -187500.02, -187500.02, -187500.02, -187500.02, 0.000, 0.000, 0.000, 16:52:31.930
1, 31120.69, 12908.11, 187500.00, 187500.00, -187500.02, -187500.02, -187500.02, -187500.02, 0.000, 0.000, 0.000, 16:52:31.930
2, 30941.83, 12642.50, 187500.00, 187500.00, -187500.02, -187500.02, -187500.02, -187500.02, 0.000, 0.000, 0.000, 16:52:31.930
3, 30757.83, 12386.62, 187500.00, 187500.00, -187500.02, -187500.02, -187500.02, -187500.02, 0.010, -0.012, 1.022, 16:52:31.930
4, 30661.41, 12302.60, 187500.00, 187500.00, -187500.02, -187500.02, -187500.02, -187500.02, 0.000, 0.000, 0.000, 16:52:31.930
5, 30866.13, 12693.94, 187500.00, 187500.00, -187500.02, -187500.02, -187500.02, -187500.02, 0.000, 0.000, 0.000, 16:52:31.930
6, 31118.39, 12900.17, 187500.00, 187500.00, -187500.02, -187500.02, -187500.02, -187500.02, 0.000, 0.000, 0.000, 16:52:31.930
7, 30945.38, 12639.04, 187500.00, 187500.00, -187500.02, -187500.02, -187500.02, -187500.02, 0.000, 0.000, 0.000, 16:52:31.931
8, 30769.41, 12386.46, 187500.00, 187500.00, -187500.02, -187500.02, -187500.02, -187500.02, 0.000, 0.000, 0.000, 16:52:31.931
9, 30655.82, 12294.26, 187500.00, 187500.00, -187500.02, -187500.02, -187500.02, -187500.02, 0.000, 0.000, 0.000, 16:52:31.931
10, 30862.64, 12680.99, 187500.00, 187500.00, -187500.02, -187500.02, -187500.02, -187500.02, 0.000, 0.000, 0.000, 16:52:31.931
11, 31127.28, 12902.61, 187500.00, 187500.00, -187500.02, -187500.02, -187500.02, -187500.02, 0.000, 0.000, 0.000, 16:52:31.931
12, 30929.54, 12627.33, 187500.00, 187500.00, -187500.02, -187500.02, -187500.02, -187500.02, 0.000, 0.000, 0.000, 16:52:31.931
13, 30736.60, 12362.66, 187500.00, 187500.00, -187500.02, -187500.02, -187500.02, -187500.02, 0.008, -0.016, 1.032, 16:52:31.931
14, 30645.20, 12275.38, 187500.00, 187500.00, -187500.02, -187500.02, -187500.02, -187500.02, 0.000, 0.000, 0.000, 16:52:31.931
15, 30856.38, 12663.67, 187500.00, 187500.00, -187500.02, -187500.02, -187500.02, -187500.02, 0.000, 0.000, 0.000, 16:52:31.932
16, 31108.96, 12876.37, 187500.00, 187500.00, -187500.02, -187500.02, -187500.02, -187500.02, 0.000, 0.000, 0.000, 16:52:31.932
17, 30922.50, 12608.08, 187500.00, 187500.00, -187500.02, -187500.02, -187500.02, -187500.02, 0.000, 0.000, 0.000, 16:52:31.932
18, 30737.29, 12355.13, 187500.00, 187500.00, -187500.02, -187500.02, -187500.02, -187500.02, 0.000, 0.000, 0.000, 16:52:31.932
19, 30649.76, 12279.15, 187500.00, 187500.00, -187500.02, -187500.02, -187500.02, -187500.02, 0.000, 0.000, 0.000, 16:52:31.932
20, 30853.39, 12664.18, 187500.00, 187500.00, -187500.02, -187500.02, -187500.02, -187500.02, 0.000, 0.000, 0.000, 16:52:31.932
21, 31102.43, 12874.87, 187500.00, 187500.00, -187500.02, -187500.02, -187500.02, -187500.02, 0.000, 0.000, 0.000, 16:52:31.932
22, 30929.94, 12621.45, 187500.00, 187500.00, -187500.02, -187500.02, -187500.02, -187500.02, 0.000, 0.000, 0.000, 16:52:31.932
23, 30738.03, 12354.57, 187500.00, 187500.00, -187500.02, -187500.02, -187500.02, -187500.02, 0.010, -0.014, 1.028, 16:52:31.933
24, 30655.84, 12273.66, 187500.00, 187500.00, -187500.02, -187500.02, -187500.02, -187500.02, 0.000, 0.000, 0.000, 16:52:31.933
25, 30850.35, 12646.19, 187500.00, 187500.00, -187500.02, -187500.02, -187500.02, -187500.02, 0.000, 0.000, 0.000, 16:52:31.933
26, 31101.40, 12860.81, 187500.00, 187500.00, -187500.02, -187500.02, -187500.02, -187500.02, 0.000, 0.000, 0.000, 16:52:31.933
27, 30928.64, 12602.52, 187500.00, 187500.00, -187500.02, -187500.02, -187500.02, -187500.02, 0.000, 0.000, 0.000, 16:52:31.933
28, 30744.85, 12347.06, 187500.00, 187500.00, -187500.02, -187500.02, -187500.02, -187500.02, 0.000, 0.000, 0.000, 16:52:31.933
29, 30642.18, 12259.55, 187500.00, 187500.00, -187500.02, -187500.02, -187500.02, -187500.02, 0.000, 0.000, 0.000, 16:52:31.933
30, 30840.67, 12642.50, 187500.00, 187500.00, -187500.02, -187500.02, -187500.02, -187500.02, 0.000, 0.000, 0.000, 16:52:31.934
31, 31096.60, 12850.93, 187500.00, 187500.00, -187500.02, -187500.02, -187500.02, -187500.02, 0.000, 0.000, 0.000, 16:52:31.934
32, 30924.60, 12599.43, 187500.00, 187500.00, -187500.02, -187500.02, -187500.02, -187500.02, 0.012, -0.010, 1.030, 16:52:31.934
33, 30740.98, 12343.59, 187500.00, 187500.00, -187500.02, -187500.02, -187500.02, -187500.02, 0.000, 0.000, 0.000, 16:52:31.934
34, 30645.54, 12258.10, 187500.00, 187500.00, -187500.02, -187500.02, -187500.02, -187500.02, 0.000, 0.000, 0.000, 16:52:31.934
35, 30861.57, 12657.64, 187500.00, 187500.00, -187500.02, -187500.02, -187500.02, -187500.02, 0.000, 0.000, 0.000, 16:52:31.934
36, 31106.43, 12866.94, 187500.00, 187500.00, -187500.02, -187500.02, -187500.02, -187500.02, 0.000, 0.000, 0.000, 16:52:31.934
37, 30943.49, 12615.30, 187500.00, 187500.00, -187500.02, -187500.02, -187500.02, -187500.02, 0.000, 0.000, 0.000, 16:52:31.934
38, 30761.10, 12353.05, 187500.00, 187500.00, -187500.02, -187500.02, -187500.02, -187500.02, 0.000, 0.000, 0.000, 16:52:31.935
39, 30652.91, 12250.57, 187500.00, 187500.00, -187500.02, -187500.02, -187500.02, -187500.02, 0.000, 0.000, 0.000, 16:52:31.935
40, 30853.54, 12645.19, 187500.00, 187500.00, -187500.02, -187500.02, -187500.02, -187500.02, 0.000, 0.000, 0.000, 16:52:31.935
41, 31121.18, 12866.71, 187500.00, 187500.00, -187500.02, -187500.02, -187500.02, -187500.02, 0.000, 0.000, 0.000, 16:52:31.935
42, 30948.87, 12602.70, 187500.00, 187500.00, -187500.02, -187500.02, -187500.02, -187500.02, 0.012, -0.014, 1.036, 16:52:31.935
43, 30754.28, 12348.24, 187500.00, 187500.00, -187500.02, -187500.02, -187500.02, -187500.02, 0.000, 0.000, 0.000, 16:52:31.936
44, 30659.37, 12263.73, 187500.00, 187500.00, -187500.02, -187500.02, -187500.02, -187500.02, 0.000, 0.000, 0.000, 16:52:31.936
45, 30856.98, 12645.23, 187500.00, 187500.00, -187500.02, -187500.02, -187500.02, -187500.02, 0.000, 0.000, 0.000, 16:52:31.936
46, 31118.61, 12859.72, 187500.00, 187500.00, -187500.02, -187500.02, -187500.02, -187500.02, 0.000, 0.000, 0.000, 16:52:31.936
47, 30942.48, 12598.87, 187500.00, 187500.00, -187500.02, -187500.02, -187500.02, -187500.02, 0.000, 0.000, 0.000, 16:52:31.936
48, 30738.50, 12328.04, 187500.00, 187500.00, -187500.02, -187500.02, -187500.02, -187500.02, 0.000, 0.000, 0.000, 16:52:31.937
49, 30650.46, 12246.72, 187500.00, 187500.00, -187500.02, -187500.02, -187500.02, -187500.02, 0.000, 0.000, 0.000, 16:52:31.937
50, 30868.76, 12653.81, 187500.00, 187500.00, -187500.02, -187500.02, -187500.02, -187500.02, 0.000, 0.000, 0.000, 16:52:31.937
51, 31110.81, 12857.86, 187500.00, 187500.00, -187500.02, -187500.02, -187500.02, -187500.02, 0.000, 0.000, 0.000, 16:52:31.937
52, 30936.62, 12600.13, 187500.00, 187500.00, -187500.02, -187500.02, -187500.02, -187500.02, 0.010, -0.018, 1.034, 16:52:31.937
53, 30751.44, 12342.43, 187500.00, 187500.00, -187500.02, -187500.02, -187500.02, -187500.02, 0.000, 0.000, 0.000, 16:52:31.938
54, 30652.62, 12256.13, 187500.00, 187500.00, -187500.02, -187500.02, -187500.02, -187500.02, 0.000, 0.000, 0.000, 16:52:31.938
55, 30857.68, 12644.07, 187500.00, 187500.00, -187500.02, -187500.02, -187500.02, -187500.02, 0.000, 0.000, 0.000, 16:52:31.938
56, 31115.91, 12862.45, 187500.00, 187500.00, -187500.02, -187500.02, -187500.02, -187500.02, 0.000, 0.000, 0.000, 16:52:31.938
57, 30953.05, 12611.64, 187500.00, 187500.00, -187500.02, -187500.02, -187500.02, -187500.02, 0.000, 0.000, 0.000, 16:52:31.939
58, 30765.90, 12346.30, 187500.00, 187500.00, -187500.02, -187500.02, -187500.02, -187500.02, 0.000, 0.000, 0.000, 16:52:31.939
59, 30666.17, 12257.43, 187500.00, 187500.00, -187500.02, -187500.02, -187500.02, -187500.02, 0.000, 0.000, 0.000, 16:52:31.939
60, 30866.60, 12648.70, 187500.00, 187500.00, -187500.02, -187500.02, -187500.02, -187500.02, 0.000, 0.000, 0.000, 16:52:31.939
61, 31121.18, 12867.07, 187500.00, 187500.00, -187500.02, -187500.02, -187500.02, -187500.02, 0.000, 0.000, 0.000, 16:52:31.939
62, 30954.21, 12611.19, 187500.00, 187500.00, -187500.02, -187500.02, -187500.02, -187500.02, 0.016, -0.020, 1.030, 16:52:31.940
63, 30764.18, 12344.76, 187500.00, 187500.00, -187500.02, -187500.02, -187500.02, -187500.02, 0.000, 0.000, 0.000, 16:52:31.940
64, 30660.31, 12253.32, 187500.00, 187500.00, -187500.02, -187500.02, -187500.02, -187500.02, 0.000, 0.000, 0.000, 16:52:31.940
65, 30866.60, 12643.44, 187500.00, 187500.00, -187500.02, -187500.02, -187500.02, -187500.02, 0.000, 0.000, 0.000, 16:52:31.940
66, 31110.01, 12854.85, 187500.00, 187500.00, -187500.02, -187500.02, -187500.02, -187500.02, 0.000, 0.000, 0.000, 16:52:31.940
67, 30937.34, 12599.57, 187500.00, 187500.00, -187500.02, -187500.02, -187500.02, -187500.02, 0.000, 0.000, 0.000, 16:52:31.941
68, 30740.71, 12333.58, 187500.00, 187500.00, -187500.02, -187500.02, -187500.02, -187500.02, 0.000, 0.000, 0.000, 16:52:31.941
69, 30641.09, 12243.59, 187500.00, 187500.00, -187500.02, -187500.02, -187500.02, -187500.02, 0.000, 0.000, 0.000, 16:52:31.941
70, 30847.15, 12641.83, 187500.00, 187500.00, -187500.02, -187500.02, -187500.02, -187500.02, 0.000, 0.000, 0.000, 16:52:31.941
71, 31101.33, 12855.67, 187500.00, 187500.00, -187500.02, -187500.02, -187500.02, -187500.02, 0.000, 0.000, 0.000, 16:52:31.941
72, 30927.04, 12591.83, 187500.00, 187500.00, -187500.02, -187500.02, -187500.02, -187500.02, 0.012, -0.020, 1.028, 16:52:31.942
73, 30741.87, 12333.54, 187500.00, 187500.00, -187500.02, -187500.02, -187500.02, -187500.02, 0.000, 0.000, 0.000, 16:52:32.400
74, 30642.92, 12242.45, 187500.00, 187500.00, -187500.02, -187500.02, -187500.02, -187500.02, 0.000, 0.000, 0.000, 16:52:32.401
75, 30838.90, 12629.56, 187500.00, 187500.00, -187500.02, -187500.02, -187500.02, -187500.02, 0.000, 0.000, 0.000, 16:52:32.401
76, 31109.09, 12860.50, 187500.00, 187500.00, -187500.02, -187500.02, -187500.02, -187500.02, 0.000, 0.000, 0.000, 16:52:32.401
77, 30938.30, 12608.66, 187500.00, 187500.00, -187500.02, -187500.02, -187500.02, -187500.02, 0.000, 0.000, 0.000, 16:52:32.401
78, 30757.25, 12352.98, 187500.00, 187500.00, -187500.02, -187500.02, -187500.02, -187500.02, 0.000, 0.000, 0.000, 16:52:32.402
79, 30661.56, 12254.08, 187500.00, 187500.00, -187500.02, -187500.02, -187500.02, -187500.02, 0.000, 0.000, 0.000, 16:52:32.402
80, 30851.69, 12640.96, 187500.00, 187500.00, -187500.02, -187500.02, -187500.02, -187500.02, 0.000, 0.000, 0.000, 16:52:32.402
81, 31092.46, 12848.52, 187500.00, 187500.00, -187500.02, -187500.02, -187500.02, -187500.02, 0.000, 0.000, 0.000, 16:52:32.402
82, 30925.67, 12595.83, 187500.00, 187500.00, -187500.02, -187500.02, -187500.02, -187500.02, 0.014, -0.018, 1.034, 16:52:32.402
83, 30724.93, 12324.95, 187500.00, 187500.00, -187500.02, -187500.02, -187500.02, -187500.02, 0.000, 0.000, 0.000, 16:52:32.403
84, 30635.37, 12234.70, 187500.00, 187500.00, -187500.02, -187500.02, -187500.02, -187500.02, 0.000, 0.000, 0.000, 16:52:32.403
85, 30835.41, 12625.14, 187500.00, 187500.00, -187500.02, -187500.02, -187500.02, -187500.02, 0.000, 0.000, 0.000, 16:52:32.403
86, 31090.54, 12842.66, 187500.00, 187500.00, -187500.02, -187500.02, -187500.02, -187500.02, 0.000, 0.000, 0.000, 16:52:32.404
87, 30926.41, 12592.26, 187500.00, 187500.00, -187500.02, -187500.02, -187500.02, -187500.02, 0.000, 0.000, 0.000, 16:52:32.404
88, 30739.53, 12332.08, 187500.00, 187500.00, -187500.02, -187500.02, -187500.02, -187500.02, 0.000, 0.000, 0.000, 16:52:32.404
89, 30647.19, 12251.46, 187500.00, 187500.00, -187500.02, -187500.02, -187500.02, -187500.02, 0.000, 0.000, 0.000, 16:52:32.404
90, 30832.02, 12624.85, 187500.00, 187500.00, -187500.02, -187500.02, -187500.02, -187500.02, 0.000, 0.000, 0.000, 16:52:32.405
91, 31084.88, 12839.27, 187500.00, 187500.00, -187500.02, -187500.02, -187500.02, -187500.02, 0.000, 0.000, 0.000, 16:52:32.405
92, 30928.09, 12595.19, 187500.00, 187500.00, -187500.02, -187500.02, -187500.02, -187500.02, 0.012, -0.014, 1.028, 16:52:32.405
93, 30743.59, 12332.78, 187500.00, 187500.00, -187500.02, -187500.02, -187500.02, -187500.02, 0.000, 0.000, 0.000, 16:52:32.405
94, 30631.41, 12229.47, 187500.00, 187500.00, -187500.02, -187500.02, -187500.02, -187500.02, 0.000, 0.000, 0.000, 16:52:32.405
95, 30837.67, 12619.53, 187500.00, 187500.00, -187500.02, -187500.02, -187500.02, -187500.02, 0.000, 0.000, 0.000, 16:52:32.406
96, 31094.05, 12841.32, 187500.00, 187500.00, -187500.02, -187500.02, -187500.02, -187500.02, 0.000, 0.000, 0.000, 16:52:32.406
97, 30929.74, 12595.72, 187500.00, 187500.00, -187500.02, -187500.02, -187500.02, -187500.02, 0.000, 0.000, 0.000, 16:52:32.406
98, 30748.71, 12340.35, 187500.00, 187500.00, -187500.02, -187500.02, -187500.02, -187500.02, 0.000, 0.000, 0.000, 16:52:32.406
99, 30628.51, 12242.36, 187500.00, 187500.00, -187500.02, -187500.02, -187500.02, -187500.02, 0.000, 0.000, 0.000, 16:52:32.407
100, 30826.14, 12627.04, 187500.00, 187500.00, -187500.02, -187500.02, -187500.02, -187500.02, 0.000, 0.000, 0.000, 16:52:32.407
101, 31088.24, 12843.09, 187500.00, 187500.00, -187500.02, -187500.02, -187500.02, -187500.02, 0.000, 0.000, 0.000, 16:52:32.407
102, 30916.84, 12581.55, 187500.00, 187500.00, -187500.02, -187500.02, -187500.02, -187500.02, 0.008, -0.020, 1.026, 16:52:32.407
103, 30737.47, 12333.13, 187500.00, 187500.00, -187500.02, -187500.02, -187500.02, -187500.02, 0.000, 0.000, 0.000, 16:52:32.407
104, 30639.61, 12240.66, 187500.00, 187500.00, -187500.02, -187500.02, -187500.02, -187500.02, 0.000, 0.000, 0.000, 16:52:32.408
105, 30829.20, 12620.64, 187500.00, 187500.00, -187500.02, -187500.02, -187500.02, -187500.02, 0.000, 0.000, 0.000, 16:52:32.408
106, 31079.85, 12839.45, 187500.00, 187500.00, -187500.02, -187500.02, -187500.02, -187500.02, 0.000, 0.000, 0.000, 16:52:32.408
107, 30909.04, 12574.00, 187500.00, 187500.00, -187500.02, -187500.02, -187500.02, -187500.02, 0.000, 0.000, 0.000, 16:52:32.408
108, 30707.09, 12304.77, 187500.00, 187500.00, -187500.02, -187500.02, -187500.02, -187500.02, 0.000, 0.000, 0.000, 16:52:32.409
109, 30599.67, 12210.06, 187500.00, 187500.00, -187500.02, -187500.02, -187500.02, -187500.02, 0.000, 0.000, 0.000, 16:52:32.409
110, 30816.24, 12605.11, 187500.00, 187500.00, -187500.02, -187500.02, -187500.02, -187500.02, 0.000, 0.000, 0.000, 16:52:32.409
111, 31060.72, 12819.08, 187500.00, 187500.00, -187500.02, -187500.02, -187500.02, -187500.02, 0.000, 0.000, 0.000, 16:52:32.409
112, 30897.71, 12569.59, 187500.00, 187500.00, -187500.02, -187500.02, -187500.02, -187500.02, 0.014, -0.020, 1.030, 16:52:32.410
113, 30714.76, 12308.90, 187500.00, 187500.00, -187500.02, -187500.02, -187500.02, -187500.02, 0.000, 0.000, 0.000, 16:52:32.410
114, 30617.44, 12219.47, 187500.00, 187500.00, -187500.02, -187500.02, -187500.02, -187500.02, 0.000, 0.000, 0.000, 16:52:32.410
115, 30817.98, 12607.52, 187500.00, 187500.00, -187500.02, -187500.02, -187500.02, -187500.02, 0.000, 0.000, 0.000, 16:52:32.410
116, 31072.92, 12816.45, 187500.00, 187500.00, -187500.02, -187500.02, -187500.02, -187500.02, 0.000, 0.000, 0.000, 16:52:32.410
117, 30899.99, 12563.04, 187500.00, 187500.00, -187500.02, -187500.02, -187500.02, -187500.02, 0.000, 0.000, 0.000, 16:52:32.411
118, 30721.33, 12311.32, 187500.00, 187500.00, -187500.02, -187500.02, -187500.02, -187500.02, 0.000, 0.000, 0.000, 16:52:32.411
119, 30621.46, 12215.09, 187500.00, 187500.00, -187500.02, -187500.02, -187500.02, -187500.02, 0.000, 0.000, 0.000, 16:52:32.411
120, 30827.99, 12606.58, 187500.00, 187500.00, -187500.02, -187500.02, -187500.02, -187500.02, 0.000, 0.000, 0.000, 16:52:32.411
121, 31083.94, 12828.25, 187500.00, 187500.00, -187500.02, -187500.02, -187500.02, -187500.02, 0.000, 0.000, 0.000, 16:52:32.412
122, 30910.72, 12572.16, 187500.00, 187500.00, -187500.02, -187500.02, -187500.02, -187500.02, 0.016, -0.016, 1.026, 16:52:32.412
123, 30718.65, 12309.62, 187500.00, 187500.00, -187500.02, -187500.02, -187500.02, -187500.02, 0.000, 0.000, 0.000, 16:52:32.412
124, 30616.50, 12214.29, 187500.00, 187500.00, -187500.02, -187500.02, -187500.02, -187500.02, 0.000, 0.000, 0.000, 16:52:32.412
125, 30821.18, 12604.33, 187500.00, 187500.00, -187500.02, -187500.02, -187500.02, -187500.02, 0.000, 0.000, 0.000, 16:52:32.412
126, 31077.66, 12820.27, 187500.00, 187500.00, -187500.02, -187500.02, -187500.02, -187500.02, 0.000, 0.000, 0.000, 16:52:32.413
127, 30902.94, 12559.71, 187500.00, 187500.00, -187500.02, -187500.02, -187500.02, -187500.02, 0.000, 0.000, 0.000, 16:52:32.413
128, 30717.08, 12301.57, 187500.00, 187500.00, -187500.02, -187500.02, -187500.02, -187500.02, 0.000, 0.000, 0.000, 16:52:32.413
129, 30609.66, 12208.37, 187500.00, 187500.00, -187500.02, -187500.02, -187500.02, -187500.02, 0.000, 0.000, 0.000, 16:52:32.413
130, 30806.87, 12594.29, 187500.00, 187500.00, -187500.02, -187500.02, -187500.02, -187500.02, 0.000, 0.000, 0.000, 16:52:32.413
131, 31066.00, 12816.53, 187500.00, 187500.00, -187500.02, -187500.02, -187500.02, -187500.02, 0.000, 0.000, 0.000, 16:52:32.413
132, 30901.26, 12552.81, 187500.00, 187500.00, -187500.02, -187500.02, -187500.02, -187500.02, 0.008, -0.018, 1.026, 16:52:32.413
133, 30712.37, 12297.79, 187500.00, 187500.00, -187500.02, -187500.02, -187500.02, -187500.02, 0.000, 0.000, 0.000, 16:52:32.414
134, 30621.31, 12217.11, 187500.00, 187500.00, -187500.02, -187500.02, -187500.02, -187500.02, 0.000, 0.000, 0.000, 16:52:32.414
135, 30828.71, 12609.87, 187500.00, 187500.00, -187500.02, -187500.02, -187500.02, -187500.02, 0.000, 0.000, 0.000, 16:52:32.414
136, 31089.62, 12829.81, 187500.00, 187500.00, -187500.02, -187500.02, -187500.02, -187500.02, 0.000, 0.000, 0.000, 16:52:32.414
137, 30940.16, 12587.70, 187500.00, 187500.00, -187500.02, -187500.02, -187500.02, -187500.02, 0.000, 0.000, 0.000, 16:52:32.414
138, 30749.34, 12325.96, 187500.00, 187500.00, -187500.02, -187500.02, -187500.02, -187500.02, 0.000, 0.000, 0.000, 16:52:32.415
139, 30645.31, 12229.62, 187500.00, 187500.00, -187500.02, -187500.02, -187500.02, -187500.02, 0.000, 0.000, 0.000, 16:52:32.415
140, 30838.01, 12614.41, 187500.00, 187500.00, -187500.02, -187500.02, -187500.02, -187500.02, 0.000, 0.000, 0.000, 16:52:32.415
141, 31088.35, 12838.60, 187500.00, 187500.00, -187500.02, -187500.02, -187500.02, -187500.02, 0.000, 0.000, 0.000, 16:52:32.415
142, 30918.97, 12579.29, 187500.00, 187500.00, -187500.02, -187500.02, -187500.02, -187500.02, 0.008, -0.020, 1.028, 16:52:32.416
143, 30729.29, 12314.60, 187500.00, 187500.00, -187500.02, -187500.02, -187500.02, -187500.02, 0.000, 0.000, 0.000, 16:52:32.416
144, 30623.41, 12217.53, 187500.00, 187500.00, -187500.02, -187500.02, -187500.02, -187500.02, 0.000, 0.000, 0.000, 16:52:32.416
145, 30828.82, 12604.53, 187500.00, 187500.00, -187500.02, -187500.02, -187500.02, -187500.02, 0.000, 0.000, 0.000, 16:52:32.416
146, 31089.64, 12829.19, 187500.00, 187500.00, -187500.02, -187500.02, -187500.02, -187500.02, 0.000, 0.000, 0.000, 16:52:32.416
147, 30903.61, 12563.27, 187500.00, 187500.00, -187500.02, -187500.02, -187500.02, -187500.02, 0.000, 0.000, 0.000, 16:52:32.417
148, 30713.46, 12301.59, 187500.00, 187500.00, -187500.02, -187500.02, -187500.02, -187500.02, 0.000, 0.000, 0.000, 16:52:32.417
149, 30615.96, 12207.29, 187500.00, 187500.00, -187500.02, -187500.02, -187500.02, -187500.02, 0.000, 0.000, 0.000, 16:52:32.417
150, 30801.89, 12589.66, 187500.00, 187500.00, -187500.02, -187500.02, -187500.02, -187500.02, 0.000, 0.000, 0.000, 16:52:32.417
151, 31058.98, 12810.66, 187500.00, 187500.00, -187500.02, -187500.02, -187500.02, -187500.02, 0.000, 0.000, 0.000, 16:52:32.418
152, 30903.30, 12564.05, 187500.00, 187500.00, -187500.02, -187500.02, -187500.02, -187500.02, 0.010, -0.018, 1.032, 16:52:32.418
153, 30720.44, 12303.88, 187500.00, 187500.00, -187500.02, -187500.02, -187500.02, -187500.02, 0.000, 0.000, 0.000, 16:52:32.418
154, 30616.32, 12210.02, 187500.00, 187500.00, -187500.02, -187500.02, -187500.02, -187500.02, 0.000, 0.000, 0.000, 16:52:32.418
155, 30806.67, 12591.43, 187500.00, 187500.00, -187500.02, -187500.02, -187500.02, -187500.02, 0.000, 0.000, 0.000, 16:52:32.418
156, 31065.26, 12811.71, 187500.00, 187500.00, -187500.02, -187500.02, -187500.02, -187500.02, 0.000, 0.000, 0.000, 16:52:32.419
157, 30899.27, 12559.36, 187500.00, 187500.00, -187500.02, -187500.02, -187500.02, -187500.02, 0.000, 0.000, 0.000, 16:52:32.419
158, 30712.95, 12301.19, 187500.00, 187500.00, -187500.02, -187500.02, -187500.02, -187500.02, 0.000, 0.000, 0.000, 16:52:32.419
159, 30616.10, 12209.89, 187500.00, 187500.00, -187500.02, -187500.02, -187500.02, -187500.02, 0.000, 0.000, 0.000, 16:52:32.419
160, 30817.00, 12600.44, 187500.00, 187500.00, -187500.02, -187500.02, -187500.02, -187500.02, 0.000, 0.000, 0.000, 16:52:32.419
161, 31071.92, 12822.66, 187500.00, 187500.00, -187500.02, -187500.02, -187500.02, -187500.02, 0.006, -0.016, 1.034, 16:52:32.420
162, 30901.98, 12570.60, 187500.00, 187500.00, -187500.02, -187500.02, -187500.02, -187500.02, 0.000, 0.000, 0.000, 16:52:32.420
