%OpenBCI Raw EEG Data
%
%Sample Rate = 250.0 Hz
%First Column = SampleIndex
%Last Column = Timestamp 
%Other Columns = EEG data in microvolts followed by Accel Data (in G) interleaved with Aux Data
0, 23172.01, 13065.91, -187500.02, 187500.00, -187500.02, -187500.02, -187500.02, -187500.02, 0.006, -0.008, 1.022, 17:02:24.378
1, 22545.38, 12431.73, -187500.02, 187500.00, -187500.02, -187500.02, -187500.02, -187500.02, 0.000, 0.000, 0.000, 17:02:24.858
2, 22935.10, 12799.93, -187500.02, 187500.00, -187500.02, -187500.02, -187500.02, -187500.02, 0.000, 0.000, 0.000, 17:02:24.858
3, 23613.23, 13487.98, -187500.02, 187500.00, -187500.02, -187500.02, -187500.02, -187500.02, 0.000, 0.000, 0.000, 17:02:24.859
4, 23529.32, 13412.41, -187500.02, 187500.00, -187500.02, -187500.02, -187500.02, -187500.02, 0.000, 0.000, 0.000, 17:02:24.859
5, 23160.36, 13046.65, -187500.02, 187500.00, -187500.02, -187500.02, -187500.02, -187500.02, 0.000, 0.000, 0.000, 17:02:24.859
6, 22545.38, 12428.82, -187500.02, 187500.00, -187500.02, -187500.02, -187500.02, -187500.02, 0.000, 0.000, 0.000, 17:02:24.859
7, 22918.99, 12787.12, -187500.02, 187500.00, -187500.02, -187500.02, -187500.02, -187500.02, 0.000, -0.008, 1.020, 17:02:24.859
8, 23591.28, 13467.64, -187500.02, 187500.00, -187500.02, -187500.02, -187500.02, -187500.02, 0.000, 0.000, 0.000, 17:02:24.860
9, 23535.56, 13423.92, -187500.02, 187500.00, -187500.02, -187500.02, -187500.02, -187500.02, 0.000, 0.000, 0.000, 17:02:24.860
10, 23180.39, 13080.98, -187500.02, 187500.00, -187500.02, -187500.02, -187500.02, -187500.02, 0.000, 0.000, 0.000, 17:02:24.860
11, 22543.25, 12435.28, -187500.02, 187500.00, -187500.02, -187500.02, -187500.02, -187500.02, 0.000, 0.000, 0.000, 17:02:24.860
12, 22918.23, 12784.01, -187500.02, 187500.00, -187500.02, -187500.02, -187500.02, -187500.02, 0.000, 0.000, 0.000, 17:02:24.860
13, 23618.51, 13489.63, -187500.02, 187500.00, -187500.02, -187500.02, -187500.02, -187500.02, 0.000, 0.000, 0.000, 17:02:24.860
14, 23554.58, 13437.09, -187500.02, 187500.00, -187500.02, -187500.02, -187500.02, -187500.02, 0.000, 0.000, 0.000, 17:02:24.861
15, 23185.87, 13077.80, -187500.02, 187500.00, -187500.02, -187500.02, -187500.02, -187500.02, 0.000, 0.000, 0.000, 17:02:24.861
16, 22553.29, 12447.82, -187500.02, 187500.00, -187500.02, -187500.02, -187500.02, -187500.02, 0.006, -0.006, 1.026, 17:02:24.861
17, 22901.64, 12776.88, -187500.02, 187500.00, -187500.02, -187500.02, -187500.02, -187500.02, 0.000, 0.000, 0.000, 17:02:24.861
18, 23610.26, 13490.33, -187500.02, 187500.00, -187500.02, -187500.02, -187500.02, -187500.02, 0.000, 0.000, 0.000, 17:02:24.861
19, 23561.76, 13455.21, -187500.02, 187500.00, -187500.02, -187500.02, -187500.02, -187500.02, 0.000, 0.000, 0.000, 17:02:24.861
20, 23206.79, 13102.66, -187500.02, 187500.00, -187500.02, -187500.02, -187500.02, -187500.02, 0.000, 0.000, 0.000, 17:02:24.862
21, 22566.34, 12452.02, -187500.02, 187500.00, -187500.02, -187500.02, -187500.02, -187500.02, 0.000, 0.000, 0.000, 17:02:24.862
22, 22908.73, 12771.47, -187500.02, 187500.00, -187500.02, -187500.02, -187500.02, -187500.02, 0.000, 0.000, 0.000, 17:02:24.862
23, 23612.90, 13480.14, -187500.02, 187500.00, -187500.02, -187500.02, -187500.02, -187500.02, 0.000, 0.000, 0.000, 17:02:24.862
24, 23558.07, 13435.50, -187500.02, 187500.00, -187500.02, -187500.02, -187500.02, -187500.02, 0.000, 0.000, 0.000, 17:02:24.862
25, 23203.72, 13086.70, -187500.02, 187500.00, -187500.02, -187500.02, -187500.02, -187500.02, 0.000, 0.000, 0.000, 17:02:24.863
26, 22559.99, 12448.47, -187500.02, 187500.00, -187500.02, -187500.02, -187500.02, -187500.02, 0.006, -0.008, 1.028, 17:02:24.863
27, 22886.02, 12766.24, -187500.02, 187500.00, -187500.02, -187500.02, -187500.02, -187500.02, 0.000, 0.000, 0.000, 17:02:24.863
28, 23593.25, 13479.67, -187500.02, 187500.00, -187500.02, -187500.02, -187500.02, -187500.02, 0.000, 0.000, 0.000, 17:02:24.863
29, 23561.40, 13453.34, -187500.02, 187500.00, -187500.02, -187500.02, -187500.02, -187500.02, 0.000, 0.000, 0.000, 17:02:24.863
30, 23208.58, 13107.42, -187500.02, 187500.00, -187500.02, -187500.02, -187500.02, -187500.02, 0.000, 0.000, 0.000, 17:02:24.864
31, 22565.52, 12455.02, -187500.02, 187500.00, -187500.02, -187500.02, -187500.02, -187500.02, 0.000, 0.000, 0.000, 17:02:24.864
32, 22886.38, 12755.72, -187500.02, 187500.00, -187500.02, -187500.02, -187500.02, -187500.02, 0.000, 0.000, 0.000, 17:02:24.864
33, 23606.86, 13489.55, -187500.02, 187500.00, -187500.02, -187500.02, -187500.02, -187500.02, 0.000, 0.000, 0.000, 17:02:24.864
34, 23564.75, 13452.82, -187500.02, 187500.00, -187500.02, -187500.02, -187500.02, -187500.02, 0.000, 0.000, 0.000, 17:02:24.864
35, 23201.13, 13093.94, -187500.02, 187500.00, -187500.02, -187500.02, -187500.02, -187500.02, 0.000, 0.000, 0.000, 17:02:24.864
36, 22567.28, 12460.29, -187500.02, 187500.00, -187500.02, -187500.02, -187500.02, -187500.02, 0.008, -0.012, 1.026, 17:02:24.865
37, 22903.27, 12774.25, -187500.02, 187500.00, -187500.02, -187500.02, -187500.02, -187500.02, 0.000, 0.000, 0.000, 17:02:24.865
38, 23609.34, 13486.57, -187500.02, 187500.00, -187500.02, -187500.02, -187500.02, -187500.02, 0.000, 0.000, 0.000, 17:02:24.865
39, 23558.13, 13444.89, -187500.02, 187500.00, -187500.02, -187500.02, -187500.02, -187500.02, 0.000, 0.000, 0.000, 17:02:24.865
40, 23220.31, 13114.01, -187500.02, 187500.00, -187500.02, -187500.02, -187500.02, -187500.02, 0.000, 0.000, 0.000, 17:02:24.865
41, 22571.42, 12469.97, -187500.02, 187500.00, -187500.02, -187500.02, -187500.02, -187500.02, 0.000, 0.000, 0.000, 17:02:24.865
42, 22890.58, 12766.89, -187500.02, 187500.00, -187500.02, -187500.02, -187500.02, -187500.02, 0.000, 0.000, 0.000, 17:02:24.866
43, 23599.78, 13477.14, -187500.02, 187500.00, -187500.02, -187500.02, -187500.02, -187500.02, 0.000, 0.000, 0.000, 17:02:24.866
44, 23566.92, 13454.72, -187500.02, 187500.00, -187500.02, -187500.02, -187500.02, -187500.02, 0.000, 0.000, 0.000, 17:02:24.866
45, 23222.61, 13113.97, -187500.02, 187500.00, -187500.02, -187500.02, -187500.02, -187500.02, 0.000, 0.000, 0.000, 17:02:24.866
46, 22585.30, 12476.34, -187500.02, 187500.00, -187500.02, -187500.02, -187500.02, -187500.02, 0.006, -0.014, 1.028, 17:02:24.866
47, 22885.79, 12769.01, -187500.02, 187500.00, -187500.02, -187500.02, -187500.02, -187500.02, 0.000, 0.000, 0.000, 17:02:24.866
48, 23591.42, 13476.85, -187500.02, 187500.00, -187500.02, -187500.02, -187500.02, -187500.02, 0.000, 0.000, 0.000, 17:02:24.867
49, 23557.46, 13448.11, -187500.02, 187500.00, -187500.02, -187500.02, -187500.02, -187500.02, 0.000, 0.000, 0.000, 17:02:24.867
50, 23220.69, 13115.89, -187500.02, 187500.00, -187500.02, -187500.02, -187500.02, -187500.02, 0.000, 0.000, 0.000, 17:02:24.867
51, 22589.41, 12482.13, -187500.02, 187500.00, -187500.02, -187500.02, -187500.02, -187500.02, 0.000, 0.000, 0.000, 17:02:24.867
52, 22885.68, 12768.52, -187500.02, 187500.00, -187500.02, -187500.02, -187500.02, -187500.02, 0.000, 0.000, 0.000, 17:02:24.867
53, 23595.19, 13482.26, -187500.02, 187500.00, -187500.02, -187500.02, -187500.02, -187500.02, 0.000, 0.000, 0.000, 17:02:24.867
54, 23544.54, 13442.29, -187500.02, 187500.00, -187500.02, -187500.02, -187500.02, -187500.02, 0.000, 0.000, 0.000, 17:02:24.868
55, 23205.98, 13115.91, -187500.02, 187500.00, -187500.02, -187500.02, -187500.02, -187500.02, 0.000, 0.000, 0.000, 17:02:24.868
56, 22589.63, 12491.94, -187500.02, 187500.00, -187500.02, -187500.02, -187500.02, -187500.02, 0.010, -0.010, 1.024, 17:02:24.868
57, 22869.79, 12751.56, -187500.02, 187500.00, -187500.02, -187500.02, -187500.02, -187500.02, 0.000, 0.000, 0.000, 17:02:24.868
58, 23594.12, 13478.39, -187500.02, 187500.00, -187500.02, -187500.02, -187500.02, -187500.02, 0.000, 0.000, 0.000, 17:02:24.868
59, 23585.02, 13478.39, -187500.02, 187500.00, -187500.02, -187500.02, -187500.02, -187500.02, 0.000, 0.000, 0.000, 17:02:24.868
60, 23249.23, 13150.51, -187500.02, 187500.00, -187500.02, -187500.02, -187500.02, -187500.02, 0.000, 0.000, 0.000, 17:02:24.868
61, 22610.22, 12515.70, -187500.02, 187500.00, -187500.02, -187500.02, -187500.02, -187500.02, 0.000, 0.000, 0.000, 17:02:24.869
62, 22890.73, 12774.71, -187500.02, 187500.00, -187500.02, -187500.02, -187500.02, -187500.02, 0.000, 0.000, 0.000, 17:02:24.869
63, 23609.79, 13494.17, -187500.02, 187500.00, -187500.02, -187500.02, -187500.02, -187500.02, 0.000, 0.000, 0.000, 17:02:24.869
64, 23576.57, 13467.39, -187500.02, 187500.00, -187500.02, -187500.02, -187500.02, -187500.02, 0.000, 0.000, 0.000, 17:02:24.870
65, 23246.55, 13148.14, -187500.02, 187500.00, -187500.02, -187500.02, -187500.02, -187500.02, 0.000, 0.000, 0.000, 17:02:24.870
66, 22606.73, 12508.17, -187500.02, 187500.00, -187500.02, -187500.02, -187500.02, -187500.02, 0.010, -0.010, 1.026, 17:02:24.870
67, 22872.94, 12749.93, -187500.02, 187500.00, -187500.02, -187500.02, -187500.02, -187500.02, 0.000, 0.000, 0.000, 17:02:24.870
68, 23597.16, 13479.78, -187500.02, 187500.00, -187500.02, -187500.02, -187500.02, -187500.02, 0.000, 0.000, 0.000, 17:02:24.871
69, 23585.92, 13474.06, -187500.02, 187500.00, -187500.02, -187500.02, -187500.02, -187500.02, 0.000, 0.000, 0.000, 17:02:24.871
70, 23247.20, 13139.38, -187500.02, 187500.00, -187500.02, -187500.02, -187500.02, -187500.02, 0.000, 0.000, 0.000, 17:02:24.871
71, 22597.84, 12493.48, -187500.02, 187500.00, -187500.02, -187500.02, -187500.02, -187500.02, 0.000, 0.000, 0.000, 17:02:24.871
72, 22860.16, 12743.20, -187500.02, 187500.00, -187500.02, -187500.02, -187500.02, -187500.02, 0.000, 0.000, 0.000, 17:02:24.871
73, 23602.05, 13491.54, -187500.02, 187500.00, -187500.02, -187500.02, -187500.02, -187500.02, 0.000, 0.000, 0.000, 17:02:24.871
74, 23569.82, 13464.36, -187500.02, 187500.00, -187500.02, -187500.02, -187500.02, -187500.02, 0.000, 0.000, 0.000, 17:02:24.871
75, 23221.07, 13115.02, -187500.02, 187500.00, -187500.02, -187500.02, -187500.02, -187500.02, 0.000, 0.000, 0.000, 17:02:24.872
76, 22609.59, 12501.53, -187500.02, 187500.00, -187500.02, -187500.02, -187500.02, -187500.02, 0.010, -0.014, 1.026, 17:02:24.872
77, 22856.65, 12730.19, -187500.02, 187500.00, -187500.02, -187500.02, -187500.02, -187500.02, 0.000, 0.000, 0.000, 17:02:24.872
78, 23604.25, 13487.29, -187500.02, 187500.00, -187500.02, -187500.02, -187500.02, -187500.02, 0.000, 0.000, 0.000, 17:02:24.872
79, 23584.64, 13472.27, -187500.02, 187500.00, -187500.02, -187500.02, -187500.02, -187500.02, 0.000, 0.000, 0.000, 17:02:24.872
80, 23241.37, 13137.46, -187500.02, 187500.00, -187500.02, -187500.02, -187500.02, -187500.02, 0.000, 0.000, 0.000, 17:02:24.872
81, 22596.36, 12493.93, -187500.02, 187500.00, -187500.02, -187500.02, -187500.02, -187500.02, 0.000, 0.000, 0.000, 17:02:24.872
82, 22863.89, 12747.29, -187500.02, 187500.00, -187500.02, -187500.02, -187500.02, -187500.02, 0.000, 0.000, 0.000, 17:02:24.873
83, 23603.53, 13491.54, -187500.02, 187500.00, -187500.02, -187500.02, -187500.02, -187500.02, 0.000, 0.000, 0.000, 17:02:24.873
84, 23584.20, 13479.53, -187500.02, 187500.00, -187500.02, -187500.02, -187500.02, -187500.02, 0.000, 0.000, 0.000, 17:02:24.873
85, 23259.54, 13162.61, -187500.02, 187500.00, -187500.02, -187500.02, -187500.02, -187500.02, 0.000, 0.000, 0.000, 17:02:24.873
86, 22610.33, 12519.75, -187500.02, 187500.00, -187500.02, -187500.02, -187500.02, -187500.02, 0.008, -0.016, 1.022, 17:02:24.873
87, 22839.64, 12723.75, -187500.02, 187500.00, -187500.02, -187500.02, -187500.02, -187500.02, 0.000, 0.000, 0.000, 17:02:24.873
88, 23580.15, 13463.08, -187500.02, 187500.00, -187500.02, -187500.02, -187500.02, -187500.02, 0.000, 0.000, 0.000, 17:02:24.873
89, 23580.53, 13471.02, -187500.02, 187500.00, -187500.02, -187500.02, -187500.02, -187500.02, 0.000, 0.000, 0.000, 17:02:24.873
90, 23252.18, 13144.97, -187500.02, 187500.00, -187500.02, -187500.02, -187500.02, -187500.02, 0.000, 0.000, 0.000, 17:02:24.874
91, 22605.66, 12498.51, -187500.02, 187500.00, -187500.02, -187500.02, -187500.02, -187500.02, 0.000, 0.000, 0.000, 17:02:24.874
92, 22845.40, 12728.13, -187500.02, 187500.00, -187500.02, -187500.02, -187500.02, -187500.02, 0.000, 0.000, 0.000, 17:02:24.874
93, 23585.38, 13472.78, -187500.02, 187500.00, -187500.02, -187500.02, -187500.02, -187500.02, 0.000, 0.000, 0.000, 17:02:24.874
94, 23581.87, 13474.32, -187500.02, 187500.00, -187500.02, -187500.02, -187500.02, -187500.02, 0.000, 0.000, 0.000, 17:02:24.874
95, 23238.15, 13133.64, -187500.02, 187500.00, -187500.02, -187500.02, -187500.02, -187500.02, 0.000, 0.000, 0.000, 17:02:24.874
96, 22596.45, 12490.71, -187500.02, 187500.00, -187500.02, -187500.02, -187500.02, -187500.02, 0.006, -0.014, 1.024, 17:02:24.874
97, 22854.28, 12729.72, -187500.02, 187500.00, -187500.02, -187500.02, -187500.02, -187500.02, 0.000, 0.000, 0.000, 17:02:24.874
98, 23589.47, 13477.34, -187500.02, 187500.00, -187500.02, -187500.02, -187500.02, -187500.02, 0.000, 0.000, 0.000, 17:02:24.875
99, 23589.54, 13490.19, -187500.02, 187500.00, -187500.02, -187500.02, -187500.02, -187500.02, 0.000, 0.000, 0.000, 17:02:24.875
100, 23269.46, 13173.69, -187500.02, 187500.00, -187500.02, -187500.02, -187500.02, -187500.02, 0.000, 0.000, 0.000, 17:02:24.875
101, 22620.12, 12523.59, -187500.02, 187500.00, -187500.02, -187500.02, -187500.02, -187500.02, 0.000, 0.000, 0.000, 17:02:24.875
102, 22808.81, 12691.75, -187500.02, 187500.00, -187500.02, -187500.02, -187500.02, -187500.02, 0.000, 0.000, 0.000, 17:02:24.875
103, 23565.78, 13456.42, -187500.02, 187500.00, -187500.02, -187500.02, -187500.02, -187500.02, 0.000, 0.000, 0.000, 17:02:24.875
104, 23594.90, 13494.78, -187500.02, 187500.00, -187500.02, -187500.02, -187500.02, -187500.02, 0.000, 0.000, 0.000, 17:02:24.875
105, 23273.91, 13177.69, -187500.02, 187500.00, -187500.02, -187500.02, -187500.02, -187500.02, 0.000, 0.000, 0.000, 17:02:24.875
106, 22625.96, 12529.14, -187500.02, 187500.00, -187500.02, -187500.02, -187500.02, -187500.02, 0.008, -0.014, 1.026, 17:02:24.876
107, 22824.46, 12704.11, -187500.02, 187500.00, -187500.02, -187500.02, -187500.02, -187500.02, 0.000, 0.000, 0.000, 17:02:24.876
108, 23563.90, 13450.92, -187500.02, 187500.00, -187500.02, -187500.02, -187500.02, -187500.02, 0.000, 0.000, 0.000, 17:02:24.876
109, 23585.16, 13482.59, -187500.02, 187500.00, -187500.02, -187500.02, -187500.02, -187500.02, 0.000, 0.000, 0.000, 17:02:24.876
110, 23262.13, 13168.06, -187500.02, 187500.00, -187500.02, -187500.02, -187500.02, -187500.02, 0.000, 0.000, 0.000, 17:02:24.876
111, 22621.04, 12528.00, -187500.02, 187500.00, -187500.02, -187500.02, -187500.02, -187500.02, 0.000, 0.000, 0.000, 17:02:24.876
112, 22839.73, 12730.86, -187500.02, 187500.00, -187500.02, -187500.02, -187500.02, -187500.02, 0.000, 0.000, 0.000, 17:02:24.876
113, 23562.43, 13461.76, -187500.02, 187500.00, -187500.02, -187500.02, -187500.02, -187500.02, 0.000, 0.000, 0.000, 17:02:24.876
114, 23587.48, 13489.05, -187500.02, 187500.00, -187500.02, -187500.02, -187500.02, -187500.02, 0.000, 0.000, 0.000, 17:02:24.877
115, 23272.39, 13177.20, -187500.02, 187500.00, -187500.02, -187500.02, -187500.02, -187500.02, 0.000, 0.000, 0.000, 17:02:24.877
116, 22633.22, 12548.45, -187500.02, 187500.00, -187500.02, -187500.02, -187500.02, -187500.02, 0.006, -0.016, 1.032, 17:02:24.877
117, 22807.36, 12705.78, -187500.02, 187500.00, -187500.02, -187500.02, -187500.02, -187500.02, 0.000, 0.000, 0.000, 17:02:24.877
118, 23561.13, 13466.32, -187500.02, 187500.00, -187500.02, -187500.02, -187500.02, -187500.02, 0.000, 0.000, 0.000, 17:02:24.877
119, 23582.30, 13494.93, -187500.02, 187500.00, -187500.02, -187500.02, -187500.02, -187500.02, 0.000, 0.000, 0.000, 17:02:24.877
120, 23257.23, 13164.37, -187500.02, 187500.00, -187500.02, -187500.02, -187500.02, -187500.02, 0.000, 0.000, 0.000, 17:02:24.877
121, 22604.86, 12508.91, -187500.02, 187500.00, -187500.02, -187500.02, -187500.02, -187500.02, 0.000, 0.000, 0.000, 17:02:25.339
122, 22807.59, 12693.67, -187500.02, 187500.00, -187500.02, -187500.02, -187500.02, -187500.02, 0.000, 0.000, 0.000, 17:02:25.339
123, 23576.20, 13468.92, -187500.02, 187500.00, -187500.02, -187500.02, -187500.02, -187500.02, 0.000, 0.000, 0.000, 17:02:25.339
124, 23604.98, 13507.65, -187500.02, 187500.00, -187500.02, -187500.02, -187500.02, -187500.02, 0.000, 0.000, 0.000, 17:02:25.340
125, 23276.75, 13177.52, -187500.02, 187500.00, -187500.02, -187500.02, -187500.02, -187500.02, 0.000, 0.000, 0.000, 17:02:25.340
126, 22625.06, 12522.01, -187500.02, 187500.00, -187500.02, -187500.02, -187500.02, -187500.02, 0.002, -0.018, 1.030, 17:02:25.340
127, 22792.25, 12674.58, -187500.02, 187500.00, -187500.02, -187500.02, -187500.02, -187500.02, 0.000, 0.000, 0.000, 17:02:25.340
128, 23564.97, 13453.54, -187500.02, 187500.00, -187500.02, -187500.02, -187500.02, -187500.02, 0.000, 0.000, 0.000, 17:02:25.340
129, 23589.65, 13487.22, -187500.02, 187500.00, -187500.02, -187500.02, -187500.02, -187500.02, 0.000, 0.000, 0.000, 17:02:25.340
130, 23271.85, 13170.41, -187500.02, 187500.00, -187500.02, -187500.02, -187500.02, -187500.02, 0.000, 0.000, 0.000, 17:02:25.340
131, 22633.17, 12536.09, -187500.02, 187500.00, -187500.02, -187500.02, -187500.02, -187500.02, 0.000, 0.000, 0.000, 17:02:25.341
132, 22796.68, 12686.69, -187500.02, 187500.00, -187500.02, -187500.02, -187500.02, -187500.02, 0.000, 0.000, 0.000, 17:02:25.341
133, 23562.34, 13458.70, -187500.02, 187500.00, -187500.02, -187500.02, -187500.02, -187500.02, 0.000, 0.000, 0.000, 17:02:25.341
134, 23583.75, 13486.53, -187500.02, 187500.00, -187500.02, -187500.02, -187500.02, -187500.02, 0.000, 0.000, 0.000, 17:02:25.341
135, 23272.17, 13179.24, -187500.02, 187500.00, -187500.02, -187500.02, -187500.02, -187500.02, 0.008, -0.008, 1.030, 17:02:25.341
136, 22633.06, 12537.29, -187500.02, 187500.00, -187500.02, -187500.02, -187500.02, -187500.02, 0.000, 0.000, 0.000, 17:02:25.341
137, 22799.96, 12685.20, -187500.02, 187500.00, -187500.02, -187500.02, -187500.02, -187500.02, 0.000, 0.000, 0.000, 17:02:25.342
138, 23561.11, 13453.16, -187500.02, 187500.00, -187500.02, -187500.02, -187500.02, -187500.02, 0.000, 0.000, 0.000, 17:02:25.342
139, 23584.69, 13488.23, -187500.02, 187500.00, -187500.02, -187500.02, -187500.02, -187500.02, 0.000, 0.000, 0.000, 17:02:25.342
140, 23276.30, 13191.62, -187500.02, 187500.00, -187500.02, -187500.02, -187500.02, -187500.02, 0.000, 0.000, 0.000, 17:02:25.342
141, 22641.02, 12557.86, -187500.02, 187500.00, -187500.02, -187500.02, -187500.02, -187500.02, 0.000, 0.000, 0.000, 17:02:25.342
142, 22782.60, 12672.66, -187500.02, 187500.00, -187500.02, -187500.02, -187500.02, -187500.02, 0.000, 0.000, 0.000, 17:02:25.342
143, 23536.25, 13427.39, -187500.02, 187500.00, -187500.02, -187500.02, -187500.02, -187500.02, 0.000, 0.000, 0.000, 17:02:25.343
144, 23583.37, 13480.63, -187500.02, 187500.00, -187500.02, -187500.02, -187500.02, -187500.02, 0.000, 0.000, 0.000, 17:02:25.343
145, 23298.59, 13192.74, -187500.02, 187500.00, -187500.02, -187500.02, -187500.02, -187500.02, 0.010, -0.012, 1.022, 17:02:25.343
146, 22647.08, 12541.41, -187500.02, 187500.00, -187500.02, -187500.02, -187500.02, -187500.02, 0.000, 0.000, 0.000, 17:02:25.343
147, 22767.89, 12644.96, -187500.02, 187500.00, -187500.02, -187500.02, -187500.02, -187500.02, 0.000, 0.000, 0.000, 17:02:25.343
148, 23539.58, 13421.64, -187500.02, 187500.00, -187500.02, -187500.02, -187500.02, -187500.02, 0.000, 0.000, 0.000, 17:02:25.343
149, 23574.29, 13469.92, -187500.02, 187500.00, -187500.02, -187500.02, -187500.02, -187500.02, 0.000, 0.000, 0.000, 17:02:25.344
150, 23279.74, 13175.95, -187500.02, 187500.00, -187500.02, -187500.02, -187500.02, -187500.02, 0.000, 0.000, 0.000, 17:02:25.344
151, 22632.64, 12535.89, -187500.02, 187500.00, -187500.02, -187500.02, -187500.02, -187500.02, 0.000, 0.000, 0.000, 17:02:25.344
152, 22773.32, 12661.10, -187500.02, 187500.00, -187500.02, -187500.02, -187500.02, -187500.02, 0.000, 0.000, 0.000, 17:02:25.344
153, 23553.22, 13440.80, -187500.02, 187500.00, -187500.02, -187500.02, -187500.02, -187500.02, 0.000, 0.000, 0.000, 17:02:25.344
154, 23590.28, 13494.84, -187500.02, 187500.00, -187500.02, -187500.02, -187500.02, -187500.02, 0.000, 0.000, 0.000, 17:02:25.344
155, 23286.54, 13192.63, -187500.02, 187500.00, -187500.02, -187500.02, -187500.02, -187500.02, 0.012, -0.016, 1.018, 17:02:25.344
156, 22639.25, 12543.24, -187500.02, 187500.00, -187500.02, -187500.02, -187500.02, -187500.02, 0.000, 0.000, 0.000, 17:02:25.345
157, 22754.79, 12645.63, -187500.02, 187500.00, -187500.02, -187500.02, -187500.02, -187500.02, 0.000, 0.000, 0.000, 17:02:25.346
158, 23520.14, 13414.15, -187500.02, 187500.00, -187500.02, -187500.02, -187500.02, -187500.02, 0.000, 0.000, 0.000, 17:02:25.346
159, 23586.37, 13486.46, -187500.02, 187500.00, -187500.02, -187500.02, -187500.02, -187500.02, 0.000, 0.000, 0.000, 17:02:25.346
160, 23307.55, 13208.41, -187500.02, 187500.00, -187500.02, -187500.02, -187500.02, -187500.02, 0.000, 0.000, 0.000, 17:02:25.346
161, 22657.81, 12557.88, -187500.02, 187500.00, -187500.02, -187500.02, -187500.02, -187500.02, 0.000, 0.000, 0.000, 17:02:25.346
162, 22752.44, 12636.78, -187500.02, 187500.00, -187500.02, -187500.02, -187500.02, -187500.02, 0.000, 0.000, 0.000, 17:02:25.347
163, 23540.43, 13432.12, -187500.02, 187500.00, -187500.02, -187500.02, -187500.02, -187500.02, 0.000, 0.000, 0.000, 17:02:25.347
164, 23593.81, 13492.92, -187500.02, 187500.00, -187500.02, -187500.02, -187500.02, -187500.02, 0.000, 0.000, 0.000, 17:02:25.347
165, 23279.34, 13183.15, -187500.02, 187500.00, -187500.02, -187500.02, -187500.02, -187500.02, 0.008, -0.012, 1.022, 17:02:25.347
166, 22646.00, 12553.45, -187500.02, 187500.00, -187500.02, -187500.02, -187500.02, -187500.02, 0.000, 0.000, 0.000, 17:02:25.347
167, 22742.01, 12633.41, -187500.02, 187500.00, -187500.02, -187500.02, -187500.02, -187500.02, 0.000, 0.000, 0.000, 17:02:25.347
168, 23515.13, 13404.01, -187500.02, 187500.00, -187500.02, -187500.02, -187500.02, -187500.02, 0.000, 0.000, 0.000, 17:02:25.348
169, 23598.21, 13490.42, -187500.02, 187500.00, -187500.02, -187500.02, -187500.02, -187500.02, 0.000, 0.000, 0.000, 17:02:25.348
170, 23300.20, 13197.61, -187500.02, 187500.00, -187500.02, -187500.02, -187500.02, -187500.02, 0.000, 0.000, 0.000, 17:02:25.348
171, 22651.46, 12553.88, -187500.02, 187500.00, -187500.02, -187500.02, -187500.02, -187500.02, 0.000, 0.000, 0.000, 17:02:25.348
172, 22750.21, 12637.27, -187500.02, 187500.00, -187500.02, -187500.02, -187500.02, -187500.02, 0.000, 0.000, 0.000, 17:02:25.348
173, 23524.05, 13407.89, -187500.02, 187500.00, -187500.02, -187500.02, -187500.02, -187500.02, 0.000, 0.000, 0.000, 17:02:25.348
174, 23591.15, 13478.86, -187500.02, 187500.00, -187500.02, -187500.02, -187500.02, -187500.02, 0.000, 0.000, 0.000, 17:02:25.348
175, 23307.35, 13202.86, -187500.02, 187500.00, -187500.02, -187500.02, -187500.02, -187500.02, 0.006, -0.012, 1.028, 17:02:25.348
176, 22662.88, 12564.79, -187500.02, 187500.00, -187500.02, -187500.02, -187500.02, -187500.02, 0.000, 0.000, 0.000, 17:02:25.349
177, 22733.98, 12619.53, -187500.02, 187500.00, -187500.02, -187500.02, -187500.02, -187500.02, 0.000, 0.000, 0.000, 17:02:25.349
178, 23517.81, 13410.17, -187500.02, 187500.00, -187500.02, -187500.02, -187500.02, -187500.02, 0.000, 0.000, 0.000, 17:02:25.349
179, 23599.66, 13510.42, -187500.02, 187500.00, -187500.02, -187500.02, -187500.02, -187500.02, 0.000, 0.000, 0.000, 17:02:25.349
180, 23313.56, 13220.34, -187500.02, 187500.00, -187500.02, -187500.02, -187500.02, -187500.02, 0.000, 0.000, 0.000, 17:02:25.349
181, 22653.45, 12550.24, -187500.02, 187500.00, -187500.02, -187500.02, -187500.02, -187500.02, 0.000, 0.000, 0.000, 17:02:25.349
182, 22732.26, 12608.69, -187500.02, 187500.00, -187500.02, -187500.02, -187500.02, -187500.02, 0.000, 0.000, 0.000, 17:02:25.349
183, 23529.50, 13412.01, -187500.02, 187500.00, -187500.02, -187500.02, -187500.02, -187500.02, 0.000, 0.000, 0.000, 17:02:25.349
184, 23607.71, 13503.18, -187500.02, 187500.00, -187500.02, -187500.02, -187500.02, -187500.02, 0.000, 0.000, 0.000, 17:02:25.350
185, 23317.29, 13214.44, -187500.02, 187500.00, -187500.02, -187500.02, -187500.02, -187500.02, 0.006, -0.008, 1.028, 17:02:25.350
186, 22680.00, 12578.96, -187500.02, 187500.00, -187500.02, -187500.02, -187500.02, -187500.02, 0.000, 0.000, 0.000, 17:02:25.350
187, 22728.64, 12614.18, -187500.02, 187500.00, -187500.02, -187500.02, -187500.02, -187500.02, 0.000, 0.000, 0.000, 17:02:25.350
188, 23511.11, 13397.77, -187500.02, 187500.00, -187500.02, -187500.02, -187500.02, -187500.02, 0.000, 0.000, 0.000, 17:02:25.350
189, 23597.61, 13487.89, -187500.02, 187500.00, -187500.02, -187500.02, -187500.02, -187500.02, 0.000, 0.000, 0.000, 17:02:25.350
190, 23310.92, 13203.22, -187500.02, 187500.00, -187500.02, -187500.02, -187500.02, -187500.02, 0.000, 0.000, 0.000, 17:02:25.350
191, 22672.00, 12576.30, -187500.02, 187500.00, -187500.02, -187500.02, -187500.02, -187500.02, 0.000, 0.000, 0.000, 17:02:25.351
192, 22734.29, 12631.19, -187500.02, 187500.00, -187500.02, -187500.02, -187500.02, -187500.02, 0.000, 0.000, 0.000, 17:02:25.351
193, 23511.04, 13407.65, -187500.02, 187500.00, -187500.02, -187500.02, -187500.02, -187500.02, 0.000, 0.000, 0.000, 17:02:25.351
194, 23601.23, 13501.17, -187500.02, 187500.00, -187500.02, -187500.02, -187500.02, -187500.02, 0.000, 0.000, 0.000, 17:02:25.351
195, 23302.41, 13197.27, -187500.02, 187500.00, -187500.02, -187500.02, -187500.02, -187500.02, 0.008, -0.012, 1.030, 17:02:25.351
196, 22662.99, 12558.84, -187500.02, 187500.00, -187500.02, -187500.02, -187500.02, -187500.02, 0.000, 0.000, 0.000, 17:02:25.351
197, 22738.96, 12620.51, -187500.02, 187500.00, -187500.02, -187500.02, -187500.02, -187500.02, 0.000, 0.000, 0.000, 17:02:25.351
198, 23515.13, 13401.14, -187500.02, 187500.00, -187500.02, -187500.02, -187500.02, -187500.02, 0.000, 0.000, 0.000, 17:02:25.351
199, 23598.66, 13493.39, -187500.02, 187500.00, -187500.02, -187500.02, -187500.02, -187500.02, 0.000, 0.000, 0.000, 17:02:25.351
200, 23306.34, 13202.77, -187500.02, 187500.00, -187500.02, -187500.02, -187500.02, -187500.02, 0.000, 0.000, 0.000, 17:02:25.352
201, 22670.59, 12571.92, -187500.02, 187500.00, -187500.02, -187500.02, -187500.02, -187500.02, 0.000, 0.000, 0.000, 17:02:25.352
202, 22712.14, 12604.06, -187500.02, 187500.00, -187500.02, -187500.02, -187500.02, -187500.02, 0.000, 0.000, 0.000, 17:02:25.352
203, 23509.47, 13401.68, -187500.02, 187500.00, -187500.02, -187500.02, -187500.02, -187500.02, 0.000, 0.000, 0.000, 17:02:25.352
204, 23602.05, 13493.70, -187500.02, 187500.00, -187500.02, -187500.02, -187500.02, -187500.02, 0.000, 0.000, 0.000, 17:02:25.352
205, 23327.35, 13214.19, -187500.02, 187500.00, -187500.02, -187500.02, -187500.02, -187500.02, 0.008, -0.014, 1.030, 17:02:25.352
206, 22691.80, 12587.00, -187500.02, 187500.00, -187500.02, -187500.02, -187500.02, -187500.02, 0.000, 0.000, 0.000, 17:02:25.352
207, 22723.21, 12604.37, -187500.02, 187500.00, -187500.02, -187500.02, -187500.02, -187500.02, 0.000, 0.000, 0.000, 17:02:25.352
208, 23519.38, 13400.79, -187500.02, 187500.00, -187500.02, -187500.02, -187500.02, -187500.02, 0.000, 0.000, 0.000, 17:02:25.353
209, 23603.42, 13504.19, -187500.02, 187500.00, -187500.02, -187500.02, -187500.02, -187500.02, 0.000, 0.000, 0.000, 17:02:25.353
210, 23333.97, 13239.32, -187500.02, 187500.00, -187500.02, -187500.02, -187500.02, -187500.02, 0.000, 0.000, 0.000, 17:02:25.353
211, 22692.90, 12601.20, -187500.02, 187500.00, -187500.02, -187500.02, -187500.02, -187500.02, 0.000, 0.000, 0.000, 17:02:25.353
212, 22704.83, 12586.85, -187500.02, 187500.00, -187500.02, -187500.02, -187500.02, -187500.02, 0.000, 0.000, 0.000, 17:02:25.353
213, 23506.17, 13381.01, -187500.02, 187500.00, -187500.02, -187500.02, -187500.02, -187500.02, 0.000, 0.000, 0.000, 17:02:25.353
214, 23598.77, 13483.22, -187500.02, 187500.00, -187500.02, -187500.02, -187500.02, -187500.02, 0.000, 0.000, 0.000, 17:02:25.354
215, 23309.14, 13197.65, -187500.02, 187500.00, -187500.02, -187500.02, -187500.02, -187500.02, 0.006, -0.018, 1.034, 17:02:25.354
216, 22711.21, 12608.01, -187500.02, 187500.00, -187500.02, -187500.02, -187500.02, -187500.02, 0.000, 0.000, 0.000, 17:02:25.354
217, 22722.22, 12603.70, -187500.02, 187500.00, -187500.02, -187500.02, -187500.02, -187500.02, 0.000, 0.000, 0.000, 17:02:25.354
218, 23501.23, 13384.69, -187500.02, 187500.00, -187500.02, -187500.02, -187500.02, -187500.02, 0.000, 0.000, 0.000, 17:02:25.354
219, 23606.86, 13503.31, -187500.02, 187500.00, -187500.02, -187500.02, -187500.02, -187500.02, 0.000, 0.000, 0.000, 17:02:25.354
220, 23337.46, 13227.25, -187500.02, 187500.00, -187500.02, -187500.02, -187500.02, -187500.02, 0.000, 0.000, 0.000, 17:02:25.354
221, 22696.54, 12582.47, -187500.02, 187500.00, -187500.02, -187500.02, -187500.02, -187500.02, 0.000, 0.000, 0.000, 17:02:25.354
222, 22685.75, 12567.45, -187500.02, 187500.00, -187500.02, -187500.02, -187500.02, -187500.02, 0.000, 0.000, 0.000, 17:02:25.355
223, 23485.07, 13367.77, -187500.02, 187500.00, -187500.02, -187500.02, -187500.02, -187500.02, 0.000, 0.000, 0.000, 17:02:25.355
224, 23609.32, 13494.17, -187500.02, 187500.00, -187500.02, -187500.02, -187500.02, -187500.02, 0.000, 0.000, 0.000, 17:02:25.355
225, 23333.07, 13226.98, -187500.02, 187500.00, -187500.02, -187500.02, -187500.02, -187500.02, 0.004, -0.016, 1.026, 17:02:25.355
226, 22709.04, 12609.18, -187500.02, 187500.00, -187500.02, -187500.02, -187500.02, -187500.02, 0.000, 0.000, 0.000, 17:02:25.355
227, 22698.93, 12580.32, -187500.02, 187500.00, -187500.02, -187500.02, -187500.02, -187500.02, 0.000, 0.000, 0.000, 17:02:25.355
228, 23485.09, 13369.20, -187500.02, 187500.00, -187500.02, -187500.02, -187500.02, -187500.02, 0.000, 0.000, 0.000, 17:02:25.356
229, 23611.69, 13496.41, -187500.02, 187500.00, -187500.02, -187500.02, -187500.02, -187500.02, 0.000, 0.000, 0.000, 17:02:25.356
230, 23323.11, 13206.97, -187500.02, 187500.00, -187500.02, -187500.02, -187500.02, -187500.02, 0.000, 0.000, 0.000, 17:02:25.356
231, 22693.81, 12585.06, -187500.02, 187500.00, -187500.02, -187500.02, -187500.02, -187500.02, 0.000, 0.000, 0.000, 17:02:25.356
232, 22710.24, 12592.59, -187500.02, 187500.00, -187500.02, -187500.02, -187500.02, -187500.02, 0.000, 0.000, 0.000, 17:02:25.356
233, 23489.65, 13375.24, -187500.02, 187500.00, -187500.02, -187500.02, -187500.02, -187500.02, 0.000, 0.000, 0.000, 17:02:25.356
234, 23606.75, 13505.88, -187500.02, 187500.00, -187500.02, -187500.02, -187500.02, -187500.02, 0.000, 0.000, 0.000, 17:02:25.357
235, 23338.82, 13247.74, -187500.02, 187500.00, -187500.02, -187500.02, -187500.02, -187500.02, 0.012, -0.018, 1.030, 17:02:25.357
236, 22704.10, 12607.97, -187500.02, 187500.00, -187500.02, -187500.02, -187500.02, -187500.02, 0.000, 0.000, 0.000, 17:02:25.357
237, 22685.77, 12559.96, -187500.02, 187500.00, -187500.02, -187500.02, -187500.02, -187500.02, 0.000, 0.000, 0.000, 17:02:25.357
238, 23484.11, 13356.89, -187500.02, 187500.00, -187500.02, -187500.02, -187500.02, -187500.02, 0.000, 0.000, 0.000, 17:02:25.357
239, 23609.21, 13496.36, -187500.02, 187500.00, -187500.02, -187500.02, -187500.02, -187500.02, 0.000, 0.000, 0.000, 17:02:25.357
240, 23338.13, 13234.51, -187500.02, 187500.00, -187500.02, -187500.02, -187500.02, -187500.02, 0.000, 0.000, 0.000, 17:02:25.358
241, 22705.71, 12606.92, -187500.02, 187500.00, -187500.02, -187500.02, -187500.02, -187500.02, 0.000, 0.000, 0.000, 17:02:25.820
242, 22662.77, 12546.21, -187500.02, 187500.00, -187500.02, -187500.02, -187500.02, -187500.02, 0.000, 0.000, 0.000, 17:02:25.820
243, 23486.07, 13365.85, -187500.02, 187500.00, -187500.02, -187500.02, -187500.02, -187500.02, 0.000, 0.000, 0.000, 17:02:25.820
244, 23630.04, 13513.95, -187500.02, 187500.00, -187500.02, -187500.02, -187500.02, -187500.02, 0.000, 0.000, 0.000, 17:02:25.820
245, 23345.79, 13235.58, -187500.02, 187500.00, -187500.02, -187500.02, -187500.02, -187500.02, 0.004, -0.016, 1.032, 17:02:25.820
246, 22711.96, 12614.05, -187500.02, 187500.00, -187500.02, -187500.02, -187500.02, -187500.02, 0.000, 0.000, 0.000, 17:02:25.821
247, 22670.44, 12554.95, -187500.02, 187500.00, -187500.02, -187500.02, -187500.02, -187500.02, 0.000, 0.000, 0.000, 17:02:25.821
248, 23451.38, 13338.87, -187500.02, 187500.00, -187500.02, -187500.02, -187500.02, -187500.02, 0.000, 0.000, 0.000, 17:02:25.821
249, 23608.58, 13504.77, -187500.02, 187500.00, -187500.02, -187500.02, -187500.02, -187500.02, 0.000, 0.000, 0.000, 17:02:25.821
250, 23348.72, 13250.18, -187500.02, 187500.00, -187500.02, -187500.02, -187500.02, -187500.02, 0.000, 0.000, 0.000, 17:02:25.821
251, 22723.39, 12627.53, -187500.02, 187500.00, -187500.02, -187500.02, -187500.02, -187500.02, 0.000, 0.000, 0.000, 17:02:25.822
252, 22668.54, 12556.76, -187500.02, 187500.00, -187500.02, -187500.02, -187500.02, -187500.02, 0.000, 0.000, 0.000, 17:02:25.822
253, 23460.26, 13354.72, -187500.02, 187500.00, -187500.02, -187500.02, -187500.02, -187500.02, 0.000, 0.000, 0.000, 17:02:25.822
254, 23626.02, 13528.75, -187500.02, 187500.00, -187500.02, -187500.02, -187500.02, -187500.02, 0.008, -0.006, 1.030, 17:02:25.822
255, 23367.36, 13267.88, -187500.02, 187500.00, -187500.02, -187500.02, -187500.02, -187500.02, 0.000, 0.000, 0.000, 17:02:25.822
0, 22726.87, 12634.14, -187500.02, 187500.00, -187500.02, -187500.02, -187500.02, -187500.02, 0.000, 0.000, 0.000, 17:02:25.823
1, 22655.97, 12539.31, -187500.02, 187500.00, -187500.02, -187500.02, -187500.02, -187500.02, 0.000, 0.000, 0.000, 17:02:25.823
2, 23463.79, 13349.89, -187500.02, 187500.00, -187500.02, -187500.02, -187500.02, -187500.02, 0.000, 0.000, 0.000, 17:02:25.823
3, 23605.19, 13503.05, -187500.02, 187500.00, -187500.02, -187500.02, -187500.02, -187500.02, 0.000, 0.000, 0.000, 17:02:25.823
4, 23333.01, 13230.71, -187500.02, 187500.00, -187500.02, -187500.02, -187500.02, -187500.02, 0.000, 0.000, 0.000, 17:02:25.823
5, 22730.83, 12633.21, -187500.02, 187500.00, -187500.02, -187500.02, -187500.02, -187500.02, 0.000, 0.000, 0.000, 17:02:25.823
6, 22661.99, 12546.24, -187500.02, 187500.00, -187500.02, -187500.02, -187500.02, -187500.02, 0.000, 0.000, 0.000, 17:02:25.823
7, 23473.06, 13357.40, -187500.02, 187500.00, -187500.02, -187500.02, -187500.02, -187500.02, 0.000, 0.000, 0.000, 17:02:25.824
8, 23635.38, 13529.09, -187500.02, 187500.00, -187500.02, -187500.02, -187500.02, -187500.02, 0.010, -0.012, 1.034, 17:02:25.824
9, 23367.79, 13266.32, -187500.02, 187500.00, -187500.02, -187500.02, -187500.02, -187500.02, 0.000, 0.000, 0.000, 17:02:25.824
10, 22747.93, 12652.67, -187500.02, 187500.00, -187500.02, -187500.02, -187500.02, -187500.02, 0.000, 0.000, 0.000, 17:02:25.824
11, 22655.06, 12548.34, -187500.02, 187500.00, -187500.02, -187500.02, -187500.02, -187500.02, 0.000, 0.000, 0.000, 17:02:25.824
12, 23463.01, 13357.87, -187500.02, 187500.00, -187500.02, -187500.02, -187500.02, -187500.02, 0.000, 0.000, 0.000, 17:02:25.824
13, 23613.03, 13518.80, -187500.02, 187500.00, -187500.02, -187500.02, -187500.02, -187500.02, 0.000, 0.000, 0.000, 17:02:25.824
14, 23348.54, 13256.44, -187500.02, 187500.00, -187500.02, -187500.02, -187500.02, -187500.02, 0.000, 0.000, 0.000, 17:02:25.824
15, 22752.13, 12660.94, -187500.02, 187500.00, -187500.02, -187500.02, -187500.02, -187500.02, 0.000, 0.000, 0.000, 17:02:25.825
16, 22661.81, 12546.68, -187500.02, 187500.00, -187500.02, -187500.02, -187500.02, -187500.02, 0.000, 0.000, 0.000, 17:02:25.825
17, 23459.29, 13344.62, -187500.02, 187500.00, -187500.02, -187500.02, -187500.02, -187500.02, 0.000, 0.000, 0.000, 17:02:25.825
18, 23617.86, 13527.34, -187500.02, 187500.00, -187500.02, -187500.02, -187500.02, -187500.02, 0.010, -0.012, 1.032, 17:02:25.825
19, 23347.92, 13256.46, -187500.02, 187500.00, -187500.02, -187500.02, -187500.02, -187500.02, 0.000, 0.000, 0.000, 17:02:25.825
20, 22746.27, 12652.72, -187500.02, 187500.00, -187500.02, -187500.02, -187500.02, -187500.02, 0.000, 0.000, 0.000, 17:02:25.825
21, 22670.97, 12557.77, -187500.02, 187500.00, -187500.02, -187500.02, -187500.02, -187500.02, 0.000, 0.000, 0.000, 17:02:25.825
22, 23466.22, 13354.59, -187500.02, 187500.00, -187500.02, -187500.02, -187500.02, -187500.02, 0.000, 0.000, 0.000, 17:02:25.825
23, 23614.73, 13520.57, -187500.02, 187500.00, -187500.02, -187500.02, -187500.02, -187500.02, 0.000, 0.000, 0.000, 17:02:25.826
24, 23364.34, 13268.91, -187500.02, 187500.00, -187500.02, -187500.02, -187500.02, -187500.02, 0.000, 0.000, 0.000, 17:02:25.826
25, 22756.20, 12656.97, -187500.02, 187500.00, -187500.02, -187500.02, -187500.02, -187500.02, 0.000, 0.000, 0.000, 17:02:25.826
26, 22659.75, 12543.53, -187500.02, 187500.00, -187500.02, -187500.02, -187500.02, -187500.02, 0.000, 0.000, 0.000, 17:02:25.826
27, 23470.49, 13357.98, -187500.02, 187500.00, -187500.02, -187500.02, -187500.02, -187500.02, 0.000, 0.000, 0.000, 17:02:25.826
28, 23624.99, 13527.25, -187500.02, 187500.00, -187500.02, -187500.02, -187500.02, -187500.02, 0.010, -0.006, 1.020, 17:02:25.826
29, 23365.98, 13268.91, -187500.02, 187500.00, -187500.02, -187500.02, -187500.02, -187500.02, 0.000, 0.000, 0.000, 17:02:25.826
30, 22773.03, 12687.99, -187500.02, 187500.00, -187500.02, -187500.02, -187500.02, -187500.02, 0.000, 0.000, 0.000, 17:02:25.826
31, 22645.09, 12547.42, -187500.02, 187500.00, -187500.02, -187500.02, -187500.02, -187500.02, 0.000, 0.000, 0.000, 17:02:25.827
32, 23442.69, 13343.23, -187500.02, 187500.00, -187500.02, -187500.02, -187500.02, -187500.02, 0.000, 0.000, 0.000, 17:02:25.827
33, 23640.17, 13550.86, -187500.02, 187500.00, -187500.02, -187500.02, -187500.02, -187500.02, 0.000, 0.000, 0.000, 17:02:25.827
34, 23386.61, 13291.55, -187500.02, 187500.00, -187500.02, -187500.02, -187500.02, -187500.02, 0.000, 0.000, 0.000, 17:02:25.827
35, 22778.57, 12681.37, -187500.02, 187500.00, -187500.02, -187500.02, -187500.02, -187500.02, 0.000, 0.000, 0.000, 17:02:25.827
36, 22644.64, 12533.14, -187500.02, 187500.00, -187500.02, -187500.02, -187500.02, -187500.02, 0.000, 0.000, 0.000, 17:02:25.827
37, 23447.56, 13335.21, -187500.02, 187500.00, -187500.02, -187500.02, -187500.02, -187500.02, 0.000, 0.000, 0.000, 17:02:25.827
38, 23632.37, 13533.56, -187500.02, 187500.00, -187500.02, -187500.02, -187500.02, -187500.02, 0.002, -0.006, 1.024, 17:02:25.827
39, 23382.58, 13291.08, -187500.02, 187500.00, -187500.02, -187500.02, -187500.02, -187500.02, 0.000, 0.000, 0.000, 17:02:25.828
40, 22783.49, 12692.55, -187500.02, 187500.00, -187500.02, -187500.02, -187500.02, -187500.02, 0.000, 0.000, 0.000, 17:02:25.828
41, 22643.28, 12532.33, -187500.02, 187500.00, -187500.02, -187500.02, -187500.02, -187500.02, 0.000, 0.000, 0.000, 17:02:25.828
42, 23432.21, 13322.44, -187500.02, 187500.00, -187500.02, -187500.02, -187500.02, -187500.02, 0.000, 0.000, 0.000, 17:02:25.828
43, 23627.67, 13532.17, -187500.02, 187500.00, -187500.02, -187500.02, -187500.02, -187500.02, 0.000, 0.000, 0.000, 17:02:25.828
44, 23374.96, 13285.65, -187500.02, 187500.00, -187500.02, -187500.02, -187500.02, -187500.02, 0.000, 0.000, 0.000, 17:02:25.828
45, 22767.69, 12680.05, -187500.02, 187500.00, -187500.02, -187500.02, -187500.02, -187500.02, 0.000, 0.000, 0.000, 17:02:25.828
46, 22633.71, 12532.47, -187500.02, 187500.00, -187500.02, -187500.02, -187500.02, -187500.02, 0.000, 0.000, 0.000, 17:02:25.828
47, 23432.45, 13324.39, -187500.02, 187500.00, -187500.02, -187500.02, -187500.02, -187500.02, 0.000, 0.000, 0.000, 17:02:25.828
48, 23640.77, 13545.45, -187500.02, 187500.00, -187500.02, -187500.02, -187500.02, -187500.02, 0.006, -0.008, 1.026, 17:02:25.829
49, 23400.89, 13304.81, -187500.02, 187500.00, -187500.02, -187500.02, -187500.02, -187500.02, 0.000, 0.000, 0.000, 17:02:25.829
50, 22800.52, 12704.87, -187500.02, 187500.00, -187500.02, -187500.02, -187500.02, -187500.02, 0.000, 0.000, 0.000, 17:02:25.829
51, 22639.72, 12530.37, -187500.02, 187500.00, -187500.02, -187500.02, -187500.02, -187500.02, 0.000, 0.000, 0.000, 17:02:25.829
52, 23435.27, 13334.25, -187500.02, 187500.00, -187500.02, -187500.02, -187500.02, -187500.02, 0.000, 0.000, 0.000, 17:02:25.829
53, 23653.24, 13560.87, -187500.02, 187500.00, -187500.02, -187500.02, -187500.02, -187500.02, 0.000, 0.000, 0.000, 17:02:25.829
54, 23403.10, 13307.96, -187500.02, 187500.00, -187500.02, -187500.02, -187500.02, -187500.02, 0.000, 0.000, 0.000, 17:02:25.829
55, 22790.82, 12697.60, -187500.02, 187500.00, -187500.02, -187500.02, -187500.02, -187500.02, 0.000, 0.000, 0.000, 17:02:25.829
56, 22638.65, 12530.45, -187500.02, 187500.00, -187500.02, -187500.02, -187500.02, -187500.02, 0.000, 0.000, 0.000, 17:02:25.830
57, 23432.90, 13325.10, -187500.02, 187500.00, -187500.02, -187500.02, -187500.02, -187500.02, 0.000, 0.000, 0.000, 17:02:25.830
58, 23641.30, 13546.03, -187500.02, 187500.00, -187500.02, -187500.02, -187500.02, -187500.02, 0.010, -0.014, 1.024, 17:02:25.830
59, 23394.43, 13301.84, -187500.02, 187500.00, -187500.02, -187500.02, -187500.02, -187500.02, 0.000, 0.000, 0.000, 17:02:25.830
60, 22793.97, 12705.33, -187500.02, 187500.00, -187500.02, -187500.02, -187500.02, -187500.02, 0.000, 0.000, 0.000, 17:02:25.830
61, 22638.94, 12543.82, -187500.02, 187500.00, -187500.02, -187500.02, -187500.02, -187500.02, 0.000, 0.000, 0.000, 17:02:25.830
62, 23429.52, 13334.22, -187500.02, 187500.00, -187500.02, -187500.02, -187500.02, -187500.02, 0.000, 0.000, 0.000, 17:02:25.831
63, 23643.63, 13546.97, -187500.02, 187500.00, -187500.02, -187500.02, -187500.02, -187500.02, 0.000, 0.000, 0.000, 17:02:25.831
64, 23384.33, 13291.64, -187500.02, 187500.00, -187500.02, -187500.02, -187500.02, -187500.02, 0.000, 0.000, 0.000, 17:02:25.831
65, 22798.67, 12717.36, -187500.02, 187500.00, -187500.02, -187500.02, -187500.02, -187500.02, 0.000, 0.000, 0.000, 17:02:25.831
66, 22620.93, 12528.22, -187500.02, 187500.00, -187500.02, -187500.02, -187500.02, -187500.02, 0.000, 0.000, 0.000, 17:02:25.831
67, 23424.92, 13324.34, -187500.02, 187500.00, -187500.02, -187500.02, -187500.02, -187500.02, 0.000, 0.000, 0.000, 17:02:25.831
68, 23646.07, 13551.33, -187500.02, 187500.00, -187500.02, -187500.02, -187500.02, -187500.02, 0.002, -0.012, 1.024, 17:02:25.832
69, 23391.17, 13312.30, -187500.02, 187500.00, -187500.02, -187500.02, -187500.02, -187500.02, 0.000, 0.000, 0.000, 17:02:25.832
70, 22803.38, 12724.02, -187500.02, 187500.00, -187500.02, -187500.02, -187500.02, -187500.02, 0.000, 0.000, 0.000, 17:02:25.832
71, 22628.28, 12527.44, -187500.02, 187500.00, -187500.02, -187500.02, -187500.02, -187500.02, 0.000, 0.000, 0.000, 17:02:25.832
72, 23422.50, 13317.37, -187500.02, 187500.00, -187500.02, -187500.02, -187500.02, -187500.02, 0.000, 0.000, 0.000, 17:02:25.832
73, 23650.34, 13554.16, -187500.02, 187500.00, -187500.02, -187500.02, -187500.02, -187500.02, 0.000, 0.000, 0.000, 17:02:25.833
74, 23409.65, 13317.33, -187500.02, 187500.00, -187500.02, -187500.02, -187500.02, -187500.02, 0.000, 0.000, 0.000, 17:02:25.833
75, 22816.37, 12732.54, -187500.02, 187500.00, -187500.02, -187500.02, -187500.02, -187500.02, 0.000, 0.000, 0.000, 17:02:25.833
76, 22639.05, 12544.20, -187500.02, 187500.00, -187500.02, -187500.02, -187500.02, -187500.02, 0.000, 0.000, 0.000, 17:02:25.833
77, 23424.36, 13333.40, -187500.02, 187500.00, -187500.02, -187500.02, -187500.02, -187500.02, 0.000, 0.000, 0.000, 17:02:25.833
78, 23638.82, 13554.54, -187500.02, 187500.00, -187500.02, -187500.02, -187500.02, -187500.02, 0.004, -0.016, 1.022, 17:02:25.833
79, 23399.19, 13312.21, -187500.02, 187500.00, -187500.02, -187500.02, -187500.02, -187500.02, 0.000, 0.000, 0.000, 17:02:25.833
80, 22819.30, 12733.48, -187500.02, 187500.00, -187500.02, -187500.02, -187500.02, -187500.02, 0.000, 0.000, 0.000, 17:02:25.834
81, 22628.37, 12529.74, -187500.02, 187500.00, -187500.02, -187500.02, -187500.02, -187500.02, 0.000, 0.000, 0.000, 17:02:25.834
82, 23418.21, 13314.78, -187500.02, 187500.00, -187500.02, -187500.02, -187500.02, -187500.02, 0.000, 0.000, 0.000, 17:02:25.834
83, 23643.21, 13551.33, -187500.02, 187500.00, -187500.02, -187500.02, -187500.02, -187500.02, 0.000, 0.000, 0.000, 17:02:25.834
84, 23413.32, 13324.14, -187500.02, 187500.00, -187500.02, -187500.02, -187500.02, -187500.02, 0.000, 0.000, 0.000, 17:02:25.834
85, 22828.64, 12744.99, -187500.02, 187500.00, -187500.02, -187500.02, -187500.02, -187500.02, 0.000, 0.000, 0.000, 17:02:25.834
86, 22620.81, 12525.27, -187500.02, 187500.00, -187500.02, -187500.02, -187500.02, -187500.02, 0.000, 0.000, 0.000, 17:02:25.835
87, 23410.79, 13318.98, -187500.02, 187500.00, -187500.02, -187500.02, -187500.02, -187500.02, 0.000, 0.000, 0.000, 17:02:25.835
88, 23647.77, 13568.72, -187500.02, 187500.00, -187500.02, -187500.02, -187500.02, -187500.02, 0.006, -0.012, 1.024, 17:02:25.835
89, 23420.94, 13346.94, -187500.02, 187500.00, -187500.02, -187500.02, -187500.02, -187500.02, 0.000, 0.000, 0.000, 17:02:25.835
90, 22831.90, 12754.78, -187500.02, 187500.00, -187500.02, -187500.02, -187500.02, -187500.02, 0.000, 0.000, 0.000, 17:02:25.835
91, 22616.75, 12523.46, -187500.02, 187500.00, -187500.02, -187500.02, -187500.02, -187500.02, 0.000, 0.000, 0.000, 17:02:25.835
92, 23406.90, 13304.83, -187500.02, 187500.00, -187500.02, -187500.02, -187500.02, -187500.02, 0.000, 0.000, 0.000, 17:02:25.835
93, 23652.71, 13555.84, -187500.02, 187500.00, -187500.02, -187500.02, -187500.02, -187500.02, 0.000, 0.000, 0.000, 17:02:25.836
94, 23408.94, 13318.11, -187500.02, 187500.00, -187500.02, -187500.02, -187500.02, -187500.02, 0.000, 0.000, 0.000, 17:02:25.836
95, 22847.71, 12765.37, -187500.02, 187500.00, -187500.02, -187500.02, -187500.02, -187500.02, 0.000, 0.000, 0.000, 17:02:25.836
96, 22622.56, 12533.16, -187500.02, 187500.00, -187500.02, -187500.02, -187500.02, -187500.02, 0.000, 0.000, 0.000, 17:02:25.836
97, 23406.16, 13310.91, -187500.02, 187500.00, -187500.02, -187500.02, -187500.02, -187500.02, 0.000, 0.000, 0.000, 17:02:25.836
98, 23644.77, 13556.40, -187500.02, 187500.00, -187500.02, -187500.02, -187500.02, -187500.02, 0.006, -0.014, 1.026, 17:02:25.836
99, 23407.28, 13324.79, -187500.02, 187500.00, -187500.02, -187500.02, -187500.02, -187500.02, 0.000, 0.000, 0.000, 17:02:25.837
100, 22831.28, 12750.40, -187500.02, 187500.00, -187500.02, -187500.02, -187500.02, -187500.02, 0.000, 0.000, 0.000, 17:02:25.837
101, 22614.27, 12515.28, -187500.02, 187500.00, -187500.02, -187500.02, -187500.02, -187500.02, 0.000, 0.000, 0.000, 17:02:25.837
102, 23411.95, 13314.00, -187500.02, 187500.00, -187500.02, -187500.02, -187500.02, -187500.02, 0.000, 0.000, 0.000, 17:02:25.837
103, 23669.13, 13584.38, -187500.02, 187500.00, -187500.02, -187500.02, -187500.02, -187500.02, 0.000, 0.000, 0.000, 17:02:25.837
104, 23434.19, 13351.05, -187500.02, 187500.00, -187500.02, -187500.02, -187500.02, -187500.02, 0.000, 0.000, 0.000, 17:02:25.837
105, 22854.70, 12778.22, -187500.02, 187500.00, -187500.02, -187500.02, -187500.02, -187500.02, 0.000, 0.000, 0.000, 17:02:26.299
106, 22613.28, 12518.94, -187500.02, 187500.00, -187500.02, -187500.02, -187500.02, -187500.02, 0.000, 0.000, 0.000, 17:02:26.299
107, 23393.87, 13293.32, -187500.02, 187500.00, -187500.02, -187500.02, -187500.02, -187500.02, 0.000, 0.000, 0.000, 17:02:26.299
108, 23651.97, 13564.54, -187500.02, 187500.00, -187500.02, -187500.02, -187500.02, -187500.02, 0.012, -0.014, 1.024, 17:02:26.299
109, 23416.22, 13329.89, -187500.02, 187500.00, -187500.02, -187500.02, -187500.02, -187500.02, 0.000, 0.000, 0.000, 17:02:26.299
110, 22851.37, 12768.77, -187500.02, 187500.00, -187500.02, -187500.02, -187500.02, -187500.02, 0.000, 0.000, 0.000, 17:02:26.299
111, 22615.92, 12524.38, -187500.02, 187500.00, -187500.02, -187500.02, -187500.02, -187500.02, 0.000, 0.000, 0.000, 17:02:26.300
112, 23386.03, 13290.68, -187500.02, 187500.00, -187500.02, -187500.02, -187500.02, -187500.02, 0.000, 0.000, 0.000, 17:02:26.300
113, 23660.35, 13573.41, -187500.02, 187500.00, -187500.02, -187500.02, -187500.02, -187500.02, 0.000, 0.000, 0.000, 17:02:26.300
114, 23431.47, 13349.06, -187500.02, 187500.00, -187500.02, -187500.02, -187500.02, -187500.02, 0.000, 0.000, 0.000, 17:02:26.300
115, 22865.12, 12789.98, -187500.02, 187500.00, -187500.02, -187500.02, -187500.02, -187500.02, 0.000, 0.000, 0.000, 17:02:26.300
116, 22616.19, 12521.38, -187500.02, 187500.00, -187500.02, -187500.02, -187500.02, -187500.02, 0.000, 0.000, 0.000, 17:02:26.300
117, 23403.46, 13309.48, -187500.02, 187500.00, -187500.02, -187500.02, -187500.02, -187500.02, 0.008, -0.020, 1.028, 17:02:26.301
118, 23683.21, 13592.74, -187500.02, 187500.00, -187500.02, -187500.02, -187500.02, -187500.02, 0.000, 0.000, 0.000, 17:02:26.301
119, 23445.19, 13350.00, -187500.02, 187500.00, -187500.02, -187500.02, -187500.02, -187500.02, 0.000, 0.000, 0.000, 17:02:26.301
120, 22861.50, 12782.38, -187500.02, 187500.00, -187500.02, -187500.02, -187500.02, -187500.02, 0.000, 0.000, 0.000, 17:02:26.301
121, 22610.22, 12513.49, -187500.02, 187500.00, -187500.02, -187500.02, -187500.02, -187500.02, 0.000, 0.000, 0.000, 17:02:26.301
122, 23405.00, 13300.54, -187500.02, 187500.00, -187500.02, -187500.02, -187500.02, -187500.02, 0.000, 0.000, 0.000, 17:02:26.301
123, 23675.28, 13582.55, -187500.02, 187500.00, -187500.02, -187500.02, -187500.02, -187500.02, 0.000, 0.000, 0.000, 17:02:26.302
124, 23463.21, 13375.55, -187500.02, 187500.00, -187500.02, -187500.02, -187500.02, -187500.02, 0.000, 0.000, 0.000, 17:02:26.302
125, 22895.63, 12818.41, -187500.02, 187500.00, -187500.02, -187500.02, -187500.02, -187500.02, 0.000, 0.000, 0.000, 17:02:26.302
126, 22628.57, 12541.38, -187500.02, 187500.00, -187500.02, -187500.02, -187500.02, -187500.02, 0.000, 0.000, 0.000, 17:02:26.302
127, 23395.93, 13298.55, -187500.02, 187500.00, -187500.02, -187500.02, -187500.02, -187500.02, 0.008, -0.022, 1.028, 17:02:26.302
128, 23677.63, 13593.48, -187500.02, 187500.00, -187500.02, -187500.02, -187500.02, -187500.02, 0.000, 0.000, 0.000, 17:02:26.302
129, 23461.53, 13383.84, -187500.02, 187500.00, -187500.02, -187500.02, -187500.02, -187500.02, 0.000, 0.000, 0.000, 17:02:26.302
130, 22887.47, 12811.93, -187500.02, 187500.00, -187500.02, -187500.02, -187500.02, -187500.02, 0.000, 0.000, 0.000, 17:02:26.303
131, 22612.74, 12517.78, -187500.02, 187500.00, -187500.02, -187500.02, -187500.02, -187500.02, 0.000, 0.000, 0.000, 17:02:26.303
132, 23380.13, 13273.45, -187500.02, 187500.00, -187500.02, -187500.02, -187500.02, -187500.02, 0.000, 0.000, 0.000, 17:02:26.303
133, 23674.63, 13584.70, -187500.02, 187500.00, -187500.02, -187500.02, -187500.02, -187500.02, 0.000, 0.000, 0.000, 17:02:26.303
134, 23451.63, 13366.10, -187500.02, 187500.00, -187500.02, -187500.02, -187500.02, -187500.02, 0.000, 0.000, 0.000, 17:02:26.303
135, 22894.76, 12813.23, -187500.02, 187500.00, -187500.02, -187500.02, -187500.02, -187500.02, 0.000, 0.000, 0.000, 17:02:26.303
136, 22625.42, 12530.92, -187500.02, 187500.00, -187500.02, -187500.02, -187500.02, -187500.02, 0.000, 0.000, 0.000, 17:02:26.304
137, 23392.08, 13292.78, -187500.02, 187500.00, -187500.02, -187500.02, -187500.02, -187500.02, 0.012, -0.018, 1.030, 17:02:26.304
138, 23683.97, 13592.30, -187500.02, 187500.00, -187500.02, -187500.02, -187500.02, -187500.02, 0.000, 0.000, 0.000, 17:02:26.304
139, 23461.29, 13370.23, -187500.02, 187500.00, -187500.02, -187500.02, -187500.02, -187500.02, 0.000, 0.000, 0.000, 17:02:26.304
140, 22900.10, 12816.67, -187500.02, 187500.00, -187500.02, -187500.02, -187500.02, -187500.02, 0.000, 0.000, 0.000, 17:02:26.304
141, 22603.25, 12504.75, -187500.02, 187500.00, -187500.02, -187500.02, -187500.02, -187500.02, 0.000, 0.000, 0.000, 17:02:26.304
142, 23390.70, 13288.31, -187500.02, 187500.00, -187500.02, -187500.02, -187500.02, -187500.02, 0.000, 0.000, 0.000, 17:02:26.304
143, 23691.15, 13601.19, -187500.02, 187500.00, -187500.02, -187500.02, -187500.02, -187500.02, 0.000, 0.000, 0.000, 17:02:26.305
144, 23467.99, 13382.86, -187500.02, 187500.00, -187500.02, -187500.02, -187500.02, -187500.02, 0.000, 0.000, 0.000, 17:02:26.305
145, 22919.75, 12843.31, -187500.02, 187500.00, -187500.02, -187500.02, -187500.02, -187500.02, 0.000, 0.000, 0.000, 17:02:26.305
146, 22633.69, 12540.63, -187500.02, 187500.00, -187500.02, -187500.02, -187500.02, -187500.02, 0.000, 0.000, 0.000, 17:02:26.305
147, 23390.16, 13285.16, -187500.02, 187500.00, -187500.02, -187500.02, -187500.02, -187500.02, 0.008, -0.014, 1.034, 17:02:26.305
148, 23692.29, 13602.44, -187500.02, 187500.00, -187500.02, -187500.02, -187500.02, -187500.02, 0.000, 0.000, 0.000, 17:02:26.305
149, 23466.56, 13377.16, -187500.02, 187500.00, -187500.02, -187500.02, -187500.02, -187500.02, 0.000, 0.000, 0.000, 17:02:26.306
150, 22921.60, 12837.08, -187500.02, 187500.00, -187500.02, -187500.02, -187500.02, -187500.02, 0.000, 0.000, 0.000, 17:02:26.306
151, 22601.55, 12515.43, -187500.02, 187500.00, -187500.02, -187500.02, -187500.02, -187500.02, 0.000, 0.000, 0.000, 17:02:26.306
152, 23374.34, 13279.95, -187500.02, 187500.00, -187500.02, -187500.02, -187500.02, -187500.02, 0.000, 0.000, 0.000, 17:02:26.306
153, 23687.51, 13596.59, -187500.02, 187500.00, -187500.02, -187500.02, -187500.02, -187500.02, 0.000, 0.000, 0.000, 17:02:26.306
154, 23460.75, 13374.14, -187500.02, 187500.00, -187500.02, -187500.02, -187500.02, -187500.02, 0.000, 0.000, 0.000, 17:02:26.306
155, 22916.53, 12845.32, -187500.02, 187500.00, -187500.02, -187500.02, -187500.02, -187500.02, 0.000, 0.000, 0.000, 17:02:26.307
156, 22615.03, 12525.11, -187500.02, 187500.00, -187500.02, -187500.02, -187500.02, -187500.02, 0.000, 0.000, 0.000, 17:02:26.307
157, 23378.49, 13282.48, -187500.02, 187500.00, -187500.02, -187500.02, -187500.02, -187500.02, 0.006, -0.016, 1.036, 17:02:26.307
158, 23693.59, 13614.60, -187500.02, 187500.00, -187500.02, -187500.02, -187500.02, -187500.02, 0.000, 0.000, 0.000, 17:02:26.307
159, 23473.04, 13395.65, -187500.02, 187500.00, -187500.02, -187500.02, -187500.02, -187500.02, 0.000, 0.000, 0.000, 17:02:26.307
160, 22919.10, 12835.60, -187500.02, 187500.00, -187500.02, -187500.02, -187500.02, -187500.02, 0.000, 0.000, 0.000, 17:02:26.307
161, 22604.25, 12504.77, -187500.02, 187500.00, -187500.02, -187500.02, -187500.02, -187500.02, 0.000, 0.000, 0.000, 17:02:26.308
162, 23371.56, 13268.35, -187500.02, 187500.00, -187500.02, -187500.02, -187500.02, -187500.02, 0.000, 0.000, 0.000, 17:02:26.308
163, 23694.30, 13602.44, -187500.02, 187500.00, -187500.02, -187500.02, -187500.02, -187500.02, 0.000, 0.000, 0.000, 17:02:26.308
164, 23479.34, 13388.16, -187500.02, 187500.00, -187500.02, -187500.02, -187500.02, -187500.02, 0.000, 0.000, 0.000, 17:02:26.308
165, 22943.55, 12859.63, -187500.02, 187500.00, -187500.02, -187500.02, -187500.02, -187500.02, 0.000, 0.000, 0.000, 17:02:26.308
166, 22619.70, 12527.04, -187500.02, 187500.00, -187500.02, -187500.02, -187500.02, -187500.02, 0.000, 0.000, 0.000, 17:02:26.309
167, 23353.68, 13260.40, -187500.02, 187500.00, -187500.02, -187500.02, -187500.02, -187500.02, 0.008, -0.012, 1.028, 17:02:26.309
168, 23681.83, 13601.57, -187500.02, 187500.00, -187500.02, -187500.02, -187500.02, -187500.02, 0.000, 0.000, 0.000, 17:02:26.309
169, 23481.98, 13398.06, -187500.02, 187500.00, -187500.02, -187500.02, -187500.02, -187500.02, 0.000, 0.000, 0.000, 17:02:26.309
170, 22940.42, 12864.59, -187500.02, 187500.00, -187500.02, -187500.02, -187500.02, -187500.02, 0.000, 0.000, 0.000, 17:02:26.309
171, 22633.87, 12550.15, -187500.02, 187500.00, -187500.02, -187500.02, -187500.02, -187500.02, 0.000, 0.000, 0.000, 17:02:26.309
172, 23379.57, 13291.98, -187500.02, 187500.00, -187500.02, -187500.02, -187500.02, -187500.02, 0.000, 0.000, 0.000, 17:02:26.310
173, 23703.98, 13627.25, -187500.02, 187500.00, -187500.02, -187500.02, -187500.02, -187500.02, 0.000, 0.000, 0.000, 17:02:26.310
174, 23479.59, 13402.53, -187500.02, 187500.00, -187500.02, -187500.02, -187500.02, -187500.02, 0.000, 0.000, 0.000, 17:02:26.310
175, 22944.76, 12867.65, -187500.02, 187500.00, -187500.02, -187500.02, -187500.02, -187500.02, 0.000, 0.000, 0.000, 17:02:26.310
176, 22598.31, 12505.11, -187500.02, 187500.00, -187500.02, -187500.02, -187500.02, -187500.02, 0.000, 0.000, 0.000, 17:02:26.310
177, 23352.48, 13254.23, -187500.02, 187500.00, -187500.02, -187500.02, -187500.02, -187500.02, 0.010, -0.014, 1.026, 17:02:26.310
178, 23705.72, 13620.71, -187500.02, 187500.00, -187500.02, -187500.02, -187500.02, -187500.02, 0.000, 0.000, 0.000, 17:02:26.311
179, 23482.56, 13404.12, -187500.02, 187500.00, -187500.02, -187500.02, -187500.02, -187500.02, 0.000, 0.000, 0.000, 17:02:26.311
180, 22949.54, 12878.99, -187500.02, 187500.00, -187500.02, -187500.02, -187500.02, -187500.02, 0.000, 0.000, 0.000, 17:02:26.311
181, 22615.25, 12530.03, -187500.02, 187500.00, -187500.02, -187500.02, -187500.02, -187500.02, 0.000, 0.000, 0.000, 17:02:26.311
182, 23360.46, 13263.23, -187500.02, 187500.00, -187500.02, -187500.02, -187500.02, -187500.02, 0.000, 0.000, 0.000, 17:02:26.311
183, 23706.73, 13619.12, -187500.02, 187500.00, -187500.02, -187500.02, -187500.02, -187500.02, 0.000, 0.000, 0.000, 17:02:26.311
184, 23491.55, 13406.82, -187500.02, 187500.00, -187500.02, -187500.02, -187500.02, -187500.02, 0.000, 0.000, 0.000, 17:02:26.312
185, 22956.85, 12876.86, -187500.02, 187500.00, -187500.02, -187500.02, -187500.02, -187500.02, 0.000, 0.000, 0.000, 17:02:26.312
186, 22604.45, 12511.52, -187500.02, 187500.00, -187500.02, -187500.02, -187500.02, -187500.02, 0.000, 0.000, 0.000, 17:02:26.312
187, 23340.65, 13243.21, -187500.02, 187500.00, -187500.02, -187500.02, -187500.02, -187500.02, 0.008, -0.018, 1.022, 17:02:26.312
188, 23686.57, 13601.80, -187500.02, 187500.00, -187500.02, -187500.02, -187500.02, -187500.02, 0.000, 0.000, 0.000, 17:02:26.312
189, 23478.43, 13398.51, -187500.02, 187500.00, -187500.02, -187500.02, -187500.02, -187500.02, 0.000, 0.000, 0.000, 17:02:26.313
190, 22970.51, 12896.87, -187500.02, 187500.00, -187500.02, -187500.02, -187500.02, -187500.02, 0.000, 0.000, 0.000, 17:02:26.313
191, 22612.10, 12524.04, -187500.02, 187500.00, -187500.02, -187500.02, -187500.02, -187500.02, 0.000, 0.000, 0.000, 17:02:26.313
192, 23351.09, 13256.08, -187500.02, 187500.00, -187500.02, -187500.02, -187500.02, -187500.02, 0.000, 0.000, 0.000, 17:02:26.313
193, 23699.84, 13619.19, -187500.02, 187500.00, -187500.02, -187500.02, -187500.02, -187500.02, 0.000, 0.000, 0.000, 17:02:26.313
194, 23503.95, 13428.84, -187500.02, 187500.00, -187500.02, -187500.02, -187500.02, -187500.02, 0.000, 0.000, 0.000, 17:02:26.313
195, 22975.49, 12911.55, -187500.02, 187500.00, -187500.02, -187500.02, -187500.02, -187500.02, 0.000, 0.000, 0.000, 17:02:26.314
196, 22594.91, 12519.68, -187500.02, 187500.00, -187500.02, -187500.02, -187500.02, -187500.02, 0.000, 0.000, 0.000, 17:02:26.314
197, 23332.11, 13244.39, -187500.02, 187500.00, -187500.02, -187500.02, -187500.02, -187500.02, 0.008, -0.016, 1.028, 17:02:26.314
198, 23704.63, 13620.75, -187500.02, 187500.00, -187500.02, -187500.02, -187500.02, -187500.02, 0.000, 0.000, 0.000, 17:02:26.314
199, 23501.07, 13416.92, -187500.02, 187500.00, -187500.02, -187500.02, -187500.02, -187500.02, 0.000, 0.000, 0.000, 17:02:26.314
200, 22982.09, 12902.05, -187500.02, 187500.00, -187500.02, -187500.02, -187500.02, -187500.02, 0.000, 0.000, 0.000, 17:02:26.314
201, 22587.09, 12502.51, -187500.02, 187500.00, -187500.02, -187500.02, -187500.02, -187500.02, 0.000, 0.000, 0.000, 17:02:26.315
202, 23321.92, 13230.98, -187500.02, 187500.00, -187500.02, -187500.02, -187500.02, -187500.02, 0.000, 0.000, 0.000, 17:02:26.315
203, 23707.22, 13620.01, -187500.02, 187500.00, -187500.02, -187500.02, -187500.02, -187500.02, 0.000, 0.000, 0.000, 17:02:26.315
204, 23494.46, 13405.91, -187500.02, 187500.00, -187500.02, -187500.02, -187500.02, -187500.02, 0.000, 0.000, 0.000, 17:02:26.315
205, 22981.41, 12905.23, -187500.02, 187500.00, -187500.02, -187500.02, -187500.02, -187500.02, 0.000, 0.000, 0.000, 17:02:26.315
206, 22598.82, 12516.26, -187500.02, 187500.00, -187500.02, -187500.02, -187500.02, -187500.02, 0.000, 0.000, 0.000, 17:02:26.315
207, 23319.44, 13224.03, -187500.02, 187500.00, -187500.02, -187500.02, -187500.02, -187500.02, 0.010, -0.014, 1.026, 17:02:26.316
208, 23698.35, 13615.81, -187500.02, 187500.00, -187500.02, -187500.02, -187500.02, -187500.02, 0.000, 0.000, 0.000, 17:02:26.316
209, 23501.99, 13424.66, -187500.02, 187500.00, -187500.02, -187500.02, -187500.02, -187500.02, 0.000, 0.000, 0.000, 17:02:26.316
210, 22979.07, 12904.65, -187500.02, 187500.00, -187500.02, -187500.02, -187500.02, -187500.02, 0.000, 0.000, 0.000, 17:02:26.316
211, 22597.03, 12514.05, -187500.02, 187500.00, -187500.02, -187500.02, -187500.02, -187500.02, 0.000, 0.000, 0.000, 17:02:26.316
212, 23321.74, 13228.86, -187500.02, 187500.00, -187500.02, -187500.02, -187500.02, -187500.02, 0.000, 0.000, 0.000, 17:02:26.316
213, 23700.36, 13611.43, -187500.02, 187500.00, -187500.02, -187500.02, -187500.02, -187500.02, 0.000, 0.000, 0.000, 17:02:26.317
214, 23490.72, 13407.09, -187500.02, 187500.00, -187500.02, -187500.02, -187500.02, -187500.02, 0.000, 0.000, 0.000, 17:02:26.317
215, 22989.26, 12917.14, -187500.02, 187500.00, -187500.02, -187500.02, -187500.02, -187500.02, 0.000, 0.000, 0.000, 17:02:26.317
216, 22599.07, 12516.57, -187500.02, 187500.00, -187500.02, -187500.02, -187500.02, -187500.02, 0.000, 0.000, 0.000, 17:02:26.317
217, 23310.28, 13210.73, -187500.02, 187500.00, -187500.02, -187500.02, -187500.02, -187500.02, 0.010, -0.014, 1.024, 17:02:26.317
218, 23698.84, 13599.20, -187500.02, 187500.00, -187500.02, -187500.02, -187500.02, -187500.02, 0.000, 0.000, 0.000, 17:02:26.318
219, 23495.28, 13407.58, -187500.02, 187500.00, -187500.02, -187500.02, -187500.02, -187500.02, 0.000, 0.000, 0.000, 17:02:26.318
220, 22991.09, 12921.05, -187500.02, 187500.00, -187500.02, -187500.02, -187500.02, -187500.02, 0.000, 0.000, 0.000, 17:02:26.318
221, 22607.43, 12527.33, -187500.02, 187500.00, -187500.02, -187500.02, -187500.02, -187500.02, 0.000, 0.000, 0.000, 17:02:26.318
222, 23311.42, 13218.24, -187500.02, 187500.00, -187500.02, -187500.02, -187500.02, -187500.02, 0.000, 0.000, 0.000, 17:02:26.318
223, 23697.74, 13618.00, -187500.02, 187500.00, -187500.02, -187500.02, -187500.02, -187500.02, 0.000, 0.000, 0.000, 17:02:26.318
224, 23506.12, 13429.84, -187500.02, 187500.00, -187500.02, -187500.02, -187500.02, -187500.02, 0.000, 0.000, 0.000, 17:02:26.319
225, 23000.48, 12929.05, -187500.02, 187500.00, -187500.02, -187500.02, -187500.02, -187500.02, 0.000, 0.000, 0.000, 17:02:26.780
226, 22584.76, 12510.58, -187500.02, 187500.00, -187500.02, -187500.02, -187500.02, -187500.02, 0.000, 0.000, 0.000, 17:02:26.781
227, 23310.72, 13226.40, -187500.02, 187500.00, -187500.02, -187500.02, -187500.02, -187500.02, 0.010, -0.008, 1.032, 17:02:26.781
228, 23710.66, 13637.20, -187500.02, 187500.00, -187500.02, -187500.02, -187500.02, -187500.02, 0.000, 0.000, 0.000, 17:02:26.781
229, 23514.41, 13445.33, -187500.02, 187500.00, -187500.02, -187500.02, -187500.02, -187500.02, 0.000, 0.000, 0.000, 17:02:26.781
230, 23001.13, 12929.79, -187500.02, 187500.00, -187500.02, -187500.02, -187500.02, -187500.02, 0.000, 0.000, 0.000, 17:02:26.781
231, 22584.22, 12499.03, -187500.02, 187500.00, -187500.02, -187500.02, -187500.02, -187500.02, 0.000, 0.000, 0.000, 17:02:26.781
232, 23303.50, 13205.50, -187500.02, 187500.00, -187500.02, -187500.02, -187500.02, -187500.02, 0.000, 0.000, 0.000, 17:02:26.782
233, 23716.56, 13636.15, -187500.02, 187500.00, -187500.02, -187500.02, -187500.02, -187500.02, 0.000, 0.000, 0.000, 17:02:26.782
234, 23514.28, 13443.41, -187500.02, 187500.00, -187500.02, -187500.02, -187500.02, -187500.02, 0.000, 0.000, 0.000, 17:02:26.782
235, 23014.65, 12943.43, -187500.02, 187500.00, -187500.02, -187500.02, -187500.02, -187500.02, 0.000, 0.000, 0.000, 17:02:26.782
236, 22588.47, 12506.09, -187500.02, 187500.00, -187500.02, -187500.02, -187500.02, -187500.02, 0.008, -0.010, 1.022, 17:02:26.782
237, 23271.27, 13185.32, -187500.02, 187500.00, -187500.02, -187500.02, -187500.02, -187500.02, 0.000, 0.000, 0.000, 17:02:26.782
238, 23702.33, 13625.60, -187500.02, 187500.00, -187500.02, -187500.02, -187500.02, -187500.02, 0.000, 0.000, 0.000, 17:02:26.782
239, 23516.69, 13437.06, -187500.02, 187500.00, -187500.02, -187500.02, -187500.02, -187500.02, 0.000, 0.000, 0.000, 17:02:26.782
240, 23022.01, 12946.53, -187500.02, 187500.00, -187500.02, -187500.02, -187500.02, -187500.02, 0.000, 0.000, 0.000, 17:02:26.783
241, 22600.05, 12514.50, -187500.02, 187500.00, -187500.02, -187500.02, -187500.02, -187500.02, 0.000, 0.000, 0.000, 17:02:26.783
242, 23291.43, 13192.51, -187500.02, 187500.00, -187500.02, -187500.02, -187500.02, -187500.02, 0.000, 0.000, 0.000, 17:02:26.783
243, 23715.07, 13629.13, -187500.02, 187500.00, -187500.02, -187500.02, -187500.02, -187500.02, 0.000, 0.000, 0.000, 17:02:26.783
244, 23517.37, 13438.07, -187500.02, 187500.00, -187500.02, -187500.02, -187500.02, -187500.02, 0.000, 0.000, 0.000, 17:02:26.783
245, 23021.92, 12951.79, -187500.02, 187500.00, -187500.02, -187500.02, -187500.02, -187500.02, 0.000, 0.000, 0.000, 17:02:26.783
246, 22603.98, 12518.83, -187500.02, 187500.00, -187500.02, -187500.02, -187500.02, -187500.02, 0.008, -0.010, 1.018, 17:02:26.783
247, 23276.61, 13181.36, -187500.02, 187500.00, -187500.02, -187500.02, -187500.02, -187500.02, 0.000, 0.000, 0.000, 17:02:26.784
248, 23708.40, 13624.48, -187500.02, 187500.00, -187500.02, -187500.02, -187500.02, -187500.02, 0.000, 0.000, 0.000, 17:02:26.784
249, 23532.45, 13453.34, -187500.02, 187500.00, -187500.02, -187500.02, -187500.02, -187500.02, 0.000, 0.000, 0.000, 17:02:26.784
250, 23029.18, 12968.55, -187500.02, 187500.00, -187500.02, -187500.02, -187500.02, -187500.02, 0.000, 0.000, 0.000, 17:02:26.784
251, 22584.11, 12509.67, -187500.02, 187500.00, -187500.02, -187500.02, -187500.02, -187500.02, 0.000, 0.000, 0.000, 17:02:26.784
252, 23268.08, 13179.71, -187500.02, 187500.00, -187500.02, -187500.02, -187500.02, -187500.02, 0.000, 0.000, 0.000, 17:02:26.784
253, 23697.30, 13618.25, -187500.02, 187500.00, -187500.02, -187500.02, -187500.02, -187500.02, 0.000, 0.000, 0.000, 17:02:26.784
254, 23513.50, 13438.52, -187500.02, 187500.00, -187500.02, -187500.02, -187500.02, -187500.02, 0.000, 0.000, 0.000, 17:02:26.784
255, 23018.21, 12951.58, -187500.02, 187500.00, -187500.02, -187500.02, -187500.02, -187500.02, 0.000, 0.000, 0.000, 17:02:26.785
0, 22588.81, 12511.37, -187500.02, 187500.00, -187500.02, -187500.02, -187500.02, -187500.02, 0.010, -0.012, 1.018, 17:02:26.785
1, 23269.53, 13177.40, -187500.02, 187500.00, -187500.02, -187500.02, -187500.02, -187500.02, 0.000, 0.000, 0.000, 17:02:26.785
2, 23694.39, 13613.29, -187500.02, 187500.00, -187500.02, -187500.02, -187500.02, -187500.02, 0.000, 0.000, 0.000, 17:02:26.785
3, 23512.38, 13434.47, -187500.02, 187500.00, -187500.02, -187500.02, -187500.02, -187500.02, 0.000, 0.000, 0.000, 17:02:26.785
4, 23034.77, 12964.32, -187500.02, 187500.00, -187500.02, -187500.02, -187500.02, -187500.02, 0.000, 0.000, 0.000, 17:02:26.785
5, 22583.22, 12509.96, -187500.02, 187500.00, -187500.02, -187500.02, -187500.02, -187500.02, 0.000, 0.000, 0.000, 17:02:26.785
6, 23267.16, 13184.13, -187500.02, 187500.00, -187500.02, -187500.02, -187500.02, -187500.02, 0.000, 0.000, 0.000, 17:02:26.785
7, 23713.19, 13636.80, -187500.02, 187500.00, -187500.02, -187500.02, -187500.02, -187500.02, 0.000, 0.000, 0.000, 17:02:26.786
8, 23533.88, 13460.04, -187500.02, 187500.00, -187500.02, -187500.02, -187500.02, -187500.02, 0.000, 0.000, 0.000, 17:02:26.786
9, 23055.00, 12990.81, -187500.02, 187500.00, -187500.02, -187500.02, -187500.02, -187500.02, 0.000, 0.000, 0.000, 17:02:26.786
10, 22599.13, 12524.04, -187500.02, 187500.00, -187500.02, -187500.02, -187500.02, -187500.02, 0.012, -0.010, 1.026, 17:02:26.786
11, 23253.28, 13165.53, -187500.02, 187500.00, -187500.02, -187500.02, -187500.02, -187500.02, 0.000, 0.000, 0.000, 17:02:26.786
12, 23691.73, 13610.83, -187500.02, 187500.00, -187500.02, -187500.02, -187500.02, -187500.02, 0.000, 0.000, 0.000, 17:02:26.786
13, 23512.34, 13431.23, -187500.02, 187500.00, -187500.02, -187500.02, -187500.02, -187500.02, 0.000, 0.000, 0.000, 17:02:26.786
14, 23047.67, 12975.79, -187500.02, 187500.00, -187500.02, -187500.02, -187500.02, -187500.02, 0.000, 0.000, 0.000, 17:02:26.786
15, 22585.97, 12506.52, -187500.02, 187500.00, -187500.02, -187500.02, -187500.02, -187500.02, 0.000, 0.000, 0.000, 17:02:26.787
16, 23252.63, 13165.04, -187500.02, 187500.00, -187500.02, -187500.02, -187500.02, -187500.02, 0.000, 0.000, 0.000, 17:02:26.787
17, 23719.40, 13643.30, -187500.02, 187500.00, -187500.02, -187500.02, -187500.02, -187500.02, 0.000, 0.000, 0.000, 17:02:26.787
18, 23545.30, 13467.73, -187500.02, 187500.00, -187500.02, -187500.02, -187500.02, -187500.02, 0.000, 0.000, 0.000, 17:02:26.787
19, 23062.84, 12995.24, -187500.02, 187500.00, -187500.02, -187500.02, -187500.02, -187500.02, 0.000, 0.000, 0.000, 17:02:26.787
20, 22586.17, 12510.72, -187500.02, 187500.00, -187500.02, -187500.02, -187500.02, -187500.02, 0.010, -0.014, 1.026, 17:02:26.787
21, 23238.46, 13149.04, -187500.02, 187500.00, -187500.02, -187500.02, -187500.02, -187500.02, 0.000, 0.000, 0.000, 17:02:26.787
22, 23700.76, 13624.17, -187500.02, 187500.00, -187500.02, -187500.02, -187500.02, -187500.02, 0.000, 0.000, 0.000, 17:02:26.787
23, 23531.29, 13457.90, -187500.02, 187500.00, -187500.02, -187500.02, -187500.02, -187500.02, 0.000, 0.000, 0.000, 17:02:26.787
24, 23067.27, 12997.34, -187500.02, 187500.00, -187500.02, -187500.02, -187500.02, -187500.02, 0.000, 0.000, 0.000, 17:02:26.788
25, 22584.85, 12507.75, -187500.02, 187500.00, -187500.02, -187500.02, -187500.02, -187500.02, 0.000, 0.000, 0.000, 17:02:26.788
26, 23229.03, 13140.32, -187500.02, 187500.00, -187500.02, -187500.02, -187500.02, -187500.02, 0.000, 0.000, 0.000, 17:02:26.788
27, 23706.91, 13628.17, -187500.02, 187500.00, -187500.02, -187500.02, -187500.02, -187500.02, 0.000, 0.000, 0.000, 17:02:26.788
28, 23536.36, 13463.24, -187500.02, 187500.00, -187500.02, -187500.02, -187500.02, -187500.02, 0.000, 0.000, 0.000, 17:02:26.788
29, 23062.39, 12992.49, -187500.02, 187500.00, -187500.02, -187500.02, -187500.02, -187500.02, 0.000, 0.000, 0.000, 17:02:26.788
30, 22588.70, 12509.89, -187500.02, 187500.00, -187500.02, -187500.02, -187500.02, -187500.02, 0.006, -0.012, 1.036, 17:02:26.788
31, 23249.52, 13162.36, -187500.02, 187500.00, -187500.02, -187500.02, -187500.02, -187500.02, 0.000, 0.000, 0.000, 17:02:26.788
32, 23710.08, 13632.28, -187500.02, 187500.00, -187500.02, -187500.02, -187500.02, -187500.02, 0.000, 0.000, 0.000, 17:02:26.789
33, 23539.47, 13465.54, -187500.02, 187500.00, -187500.02, -187500.02, -187500.02, -187500.02, 0.000, 0.000, 0.000, 17:02:26.789
34, 23063.00, 12992.04, -187500.02, 187500.00, -187500.02, -187500.02, -187500.02, -187500.02, 0.000, 0.000, 0.000, 17:02:26.789
35, 22593.72, 12511.25, -187500.02, 187500.00, -187500.02, -187500.02, -187500.02, -187500.02, 0.000, 0.000, 0.000, 17:02:26.789
36, 23238.64, 13142.13, -187500.02, 187500.00, -187500.02, -187500.02, -187500.02, -187500.02, 0.000, 0.000, 0.000, 17:02:26.789
37, 23722.87, 13636.71, -187500.02, 187500.00, -187500.02, -187500.02, -187500.02, -187500.02, 0.000, 0.000, 0.000, 17:02:26.789
38, 23563.74, 13487.42, -187500.02, 187500.00, -187500.02, -187500.02, -187500.02, -187500.02, 0.000, 0.000, 0.000, 17:02:26.790
39, 23085.08, 13010.15, -187500.02, 187500.00, -187500.02, -187500.02, -187500.02, -187500.02, 0.000, 0.000, 0.000, 17:02:26.790
40, 22595.73, 12513.94, -187500.02, 187500.00, -187500.02, -187500.02, -187500.02, -187500.02, 0.008, -0.016, 1.026, 17:02:26.790
41, 23231.24, 13138.06, -187500.02, 187500.00, -187500.02, -187500.02, -187500.02, -187500.02, 0.000, 0.000, 0.000, 17:02:26.790
42, 23712.72, 13631.70, -187500.02, 187500.00, -187500.02, -187500.02, -187500.02, -187500.02, 0.000, 0.000, 0.000, 17:02:26.790
43, 23541.95, 13466.46, -187500.02, 187500.00, -187500.02, -187500.02, -187500.02, -187500.02, 0.000, 0.000, 0.000, 17:02:26.791
44, 23083.99, 13014.37, -187500.02, 187500.00, -187500.02, -187500.02, -187500.02, -187500.02, 0.000, 0.000, 0.000, 17:02:26.791
45, 22595.91, 12514.81, -187500.02, 187500.00, -187500.02, -187500.02, -187500.02, -187500.02, 0.000, 0.000, 0.000, 17:02:26.791
46, 23218.37, 13128.27, -187500.02, 187500.00, -187500.02, -187500.02, -187500.02, -187500.02, 0.000, 0.000, 0.000, 17:02:26.791
47, 23700.60, 13620.21, -187500.02, 187500.00, -187500.02, -187500.02, -187500.02, -187500.02, 0.000, 0.000, 0.000, 17:02:26.791
48, 23547.41, 13472.13, -187500.02, 187500.00, -187500.02, -187500.02, -187500.02, -187500.02, 0.000, 0.000, 0.000, 17:02:26.791
49, 23083.72, 13015.44, -187500.02, 187500.00, -187500.02, -187500.02, -187500.02, -187500.02, 0.000, 0.000, 0.000, 17:02:26.792
50, 22590.73, 12512.57, -187500.02, 187500.00, -187500.02, -187500.02, -187500.02, -187500.02, 0.004, -0.014, 1.032, 17:02:26.792
51, 23218.81, 13128.63, -187500.02, 187500.00, -187500.02, -187500.02, -187500.02, -187500.02, 0.000, 0.000, 0.000, 17:02:26.792
52, 23714.57, 13640.11, -187500.02, 187500.00, -187500.02, -187500.02, -187500.02, -187500.02, 0.000, 0.000, 0.000, 17:02:26.792
53, 23536.01, 13473.23, -187500.02, 187500.00, -187500.02, -187500.02, -187500.02, -187500.02, 0.000, 0.000, 0.000, 17:02:26.792
54, 23072.83, 13010.26, -187500.02, 187500.00, -187500.02, -187500.02, -187500.02, -187500.02, 0.000, 0.000, 0.000, 17:02:26.793
55, 22578.68, 12496.48, -187500.02, 187500.00, -187500.02, -187500.02, -187500.02, -187500.02, 0.000, 0.000, 0.000, 17:02:26.793
56, 23198.49, 13103.84, -187500.02, 187500.00, -187500.02, -187500.02, -187500.02, -187500.02, 0.000, 0.000, 0.000, 17:02:26.793
57, 23710.57, 13633.85, -187500.02, 187500.00, -187500.02, -187500.02, -187500.02, -187500.02, 0.000, 0.000, 0.000, 17:02:26.793
58, 23560.66, 13488.70, -187500.02, 187500.00, -187500.02, -187500.02, -187500.02, -187500.02, 0.000, 0.000, 0.000, 17:02:26.793
59, 23100.66, 13027.89, -187500.02, 187500.00, -187500.02, -187500.02, -187500.02, -187500.02, 0.000, 0.000, 0.000, 17:02:26.793
60, 22596.27, 12508.57, -187500.02, 187500.00, -187500.02, -187500.02, -187500.02, -187500.02, 0.008, -0.012, 1.026, 17:02:26.794
61, 23214.77, 13121.05, -187500.02, 187500.00, -187500.02, -187500.02, -187500.02, -187500.02, 0.000, 0.000, 0.000, 17:02:26.794
62, 23725.13, 13646.81, -187500.02, 187500.00, -187500.02, -187500.02, -187500.02, -187500.02, 0.000, 0.000, 0.000, 17:02:26.794
63, 23559.32, 13483.56, -187500.02, 187500.00, -187500.02, -187500.02, -187500.02, -187500.02, 0.000, 0.000, 0.000, 17:02:26.794
64, 23119.73, 13047.70, -187500.02, 187500.00, -187500.02, -187500.02, -187500.02, -187500.02, 0.000, 0.000, 0.000, 17:02:26.794
65, 22600.29, 12519.01, -187500.02, 187500.00, -187500.02, -187500.02, -187500.02, -187500.02, 0.000, 0.000, 0.000, 17:02:26.794
66, 23205.67, 13115.98, -187500.02, 187500.00, -187500.02, -187500.02, -187500.02, -187500.02, 0.000, 0.000, 0.000, 17:02:26.795
67, 23723.80, 13650.79, -187500.02, 187500.00, -187500.02, -187500.02, -187500.02, -187500.02, 0.000, 0.000, 0.000, 17:02:26.795
68, 23568.82, 13501.41, -187500.02, 187500.00, -187500.02, -187500.02, -187500.02, -187500.02, 0.000, 0.000, 0.000, 17:02:26.795
69, 23109.60, 13044.34, -187500.02, 187500.00, -187500.02, -187500.02, -187500.02, -187500.02, 0.000, 0.000, 0.000, 17:02:26.795
70, 22587.76, 12510.92, -187500.02, 187500.00, -187500.02, -187500.02, -187500.02, -187500.02, 0.008, -0.018, 1.026, 17:02:26.795
71, 23202.29, 13120.56, -187500.02, 187500.00, -187500.02, -187500.02, -187500.02, -187500.02, 0.000, 0.000, 0.000, 17:02:26.795
72, 23720.10, 13655.06, -187500.02, 187500.00, -187500.02, -187500.02, -187500.02, -187500.02, 0.000, 0.000, 0.000, 17:02:26.796
73, 23571.81, 13507.54, -187500.02, 187500.00, -187500.02, -187500.02, -187500.02, -187500.02, 0.000, 0.000, 0.000, 17:02:26.796
74, 23126.99, 13071.43, -187500.02, 187500.00, -187500.02, -187500.02, -187500.02, -187500.02, 0.000, 0.000, 0.000, 17:02:26.796
75, 22601.10, 12538.39, -187500.02, 187500.00, -187500.02, -187500.02, -187500.02, -187500.02, 0.000, 0.000, 0.000, 17:02:26.796
76, 23180.84, 13098.55, -187500.02, 187500.00, -187500.02, -187500.02, -187500.02, -187500.02, 0.000, 0.000, 0.000, 17:02:26.796
77, 23722.62, 13644.40, -187500.02, 187500.00, -187500.02, -187500.02, -187500.02, -187500.02, 0.000, 0.000, 0.000, 17:02:26.797
78, 23557.02, 13487.47, -187500.02, 187500.00, -187500.02, -187500.02, -187500.02, -187500.02, 0.000, 0.000, 0.000, 17:02:26.797
79, 23139.62, 13076.96, -187500.02, 187500.00, -187500.02, -187500.02, -187500.02, -187500.02, 0.000, 0.000, 0.000, 17:02:26.797
80, 22610.35, 12541.00, -187500.02, 187500.00, -187500.02, -187500.02, -187500.02, -187500.02, 0.008, -0.016, 1.028, 17:02:26.797
81, 23192.01, 13113.25, -187500.02, 187500.00, -187500.02, -187500.02, -187500.02, -187500.02, 0.000, 0.000, 0.000, 17:02:26.797
82, 23727.43, 13655.91, -187500.02, 187500.00, -187500.02, -187500.02, -187500.02, -187500.02, 0.000, 0.000, 0.000, 17:02:26.797
83, 23576.31, 13510.98, -187500.02, 187500.00, -187500.02, -187500.02, -187500.02, -187500.02, 0.000, 0.000, 0.000, 17:02:26.797
84, 23126.37, 13066.25, -187500.02, 187500.00, -187500.02, -187500.02, -187500.02, -187500.02, 0.000, 0.000, 0.000, 17:02:26.798
85, 22591.49, 12528.31, -187500.02, 187500.00, -187500.02, -187500.02, -187500.02, -187500.02, 0.000, 0.000, 0.000, 17:02:26.798
86, 23193.58, 13114.53, -187500.02, 187500.00, -187500.02, -187500.02, -187500.02, -187500.02, 0.000, 0.000, 0.000, 17:02:26.798
87, 23737.71, 13662.97, -187500.02, 187500.00, -187500.02, -187500.02, -187500.02, -187500.02, 0.000, 0.000, 0.000, 17:02:26.798
88, 23581.60, 13514.00, -187500.02, 187500.00, -187500.02, -187500.02, -187500.02, -187500.02, 0.000, 0.000, 0.000, 17:02:26.798
89, 23140.63, 13082.65, -187500.02, 187500.00, -187500.02, -187500.02, -187500.02, -187500.02, 0.000, 0.000, 0.000, 17:02:26.799
90, 22616.37, 12546.84, -187500.02, 187500.00, -187500.02, -187500.02, -187500.02, -187500.02, 0.006, -0.014, 1.026, 17:02:27.260
91, 23183.29, 13100.45, -187500.02, 187500.00, -187500.02, -187500.02, -187500.02, -187500.02, 0.000, 0.000, 0.000, 17:02:27.261
92, 23727.78, 13654.84, -187500.02, 187500.00, -187500.02, -187500.02, -187500.02, -187500.02, 0.000, 0.000, 0.000, 17:02:27.261
93, 23587.53, 13518.92, -187500.02, 187500.00, -187500.02, -187500.02, -187500.02, -187500.02, 0.000, 0.000, 0.000, 17:02:27.261
94, 23146.21, 13081.27, -187500.02, 187500.00, -187500.02, -187500.02, -187500.02, -187500.02, 0.000, 0.000, 0.000, 17:02:27.261
95, 22605.71, 12533.87, -187500.02, 187500.00, -187500.02, -187500.02, -187500.02, -187500.02, 0.000, 0.000, 0.000, 17:02:27.261
96, 23160.05, 13079.37, -187500.02, 187500.00, -187500.02, -187500.02, -187500.02, -187500.02, 0.000, 0.000, 0.000, 17:02:27.261
97, 23712.27, 13645.29, -187500.02, 187500.00, -187500.02, -187500.02, -187500.02, -187500.02, 0.000, 0.000, 0.000, 17:02:27.262
98, 23602.48, 13537.96, -187500.02, 187500.00, -187500.02, -187500.02, -187500.02, -187500.02, 0.000, 0.000, 0.000, 17:02:27.262
99, 23165.55, 13111.82, -187500.02, 187500.00, -187500.02, -187500.02, -187500.02, -187500.02, 0.000, 0.000, 0.000, 17:02:27.262
100, 22607.63, 12540.20, -187500.02, 187500.00, -187500.02, -187500.02, -187500.02, -187500.02, 0.006, -0.012, 1.024, 17:02:27.262
101, 23158.48, 13069.27, -187500.02, 187500.00, -187500.02, -187500.02, -187500.02, -187500.02, 0.000, 0.000, 0.000, 17:02:27.262
102, 23738.31, 13658.95, -187500.02, 187500.00, -187500.02, -187500.02, -187500.02, -187500.02, 0.000, 0.000, 0.000, 17:02:27.262
103, 23597.92, 13531.28, -187500.02, 187500.00, -187500.02, -187500.02, -187500.02, -187500.02, 0.000, 0.000, 0.000, 17:02:27.263
104, 23152.34, 13095.69, -187500.02, 187500.00, -187500.02, -187500.02, -187500.02, -187500.02, 0.000, 0.000, 0.000, 17:02:27.263
105, 22609.15, 12541.65, -187500.02, 187500.00, -187500.02, -187500.02, -187500.02, -187500.02, 0.000, 0.000, 0.000, 17:02:27.263
106, 23157.55, 13075.59, -187500.02, 187500.00, -187500.02, -187500.02, -187500.02, -187500.02, 0.000, 0.000, 0.000, 17:02:27.263
107, 23730.22, 13662.26, -187500.02, 187500.00, -187500.02, -187500.02, -187500.02, -187500.02, 0.000, 0.000, 0.000, 17:02:27.263
108, 23610.39, 13545.65, -187500.02, 187500.00, -187500.02, -187500.02, -187500.02, -187500.02, 0.000, 0.000, 0.000, 17:02:27.263
109, 23177.55, 13119.67, -187500.02, 187500.00, -187500.02, -187500.02, -187500.02, -187500.02, 0.006, -0.012, 1.024, 17:02:27.264
110, 22617.69, 12555.49, -187500.02, 187500.00, -187500.02, -187500.02, -187500.02, -187500.02, 0.000, 0.000, 0.000, 17:02:27.264
111, 23155.71, 13074.34, -187500.02, 187500.00, -187500.02, -187500.02, -187500.02, -187500.02, 0.000, 0.000, 0.000, 17:02:27.264
112, 23735.56, 13661.92, -187500.02, 187500.00, -187500.02, -187500.02, -187500.02, -187500.02, 0.000, 0.000, 0.000, 17:02:27.264
113, 23602.44, 13530.11, -187500.02, 187500.00, -187500.02, -187500.02, -187500.02, -187500.02, 0.000, 0.000, 0.000, 17:02:27.264
114, 23177.91, 13111.26, -187500.02, 187500.00, -187500.02, -187500.02, -187500.02, -187500.02, 0.000, 0.000, 0.000, 17:02:27.264
115, 22618.58, 12548.04, -187500.02, 187500.00, -187500.02, -187500.02, -187500.02, -187500.02, 0.000, 0.000, 0.000, 17:02:27.264
116, 23161.79, 13078.45, -187500.02, 187500.00, -187500.02, -187500.02, -187500.02, -187500.02, 0.000, 0.000, 0.000, 17:02:27.265
117, 23725.17, 13654.52, -187500.02, 187500.00, -187500.02, -187500.02, -187500.02, -187500.02, 0.000, 0.000, 0.000, 17:02:27.265
118, 23586.97, 13525.26, -187500.02, 187500.00, -187500.02, -187500.02, -187500.02, -187500.02, 0.000, 0.000, 0.000, 17:02:27.265
119, 23175.76, 13118.95, -187500.02, 187500.00, -187500.02, -187500.02, -187500.02, -187500.02, 0.006, -0.020, 1.028, 17:02:27.266
120, 22616.63, 12551.55, -187500.02, 187500.00, -187500.02, -187500.02, -187500.02, -187500.02, 0.000, 0.000, 0.000, 17:02:27.267
121, 23158.08, 13081.56, -187500.02, 187500.00, -187500.02, -187500.02, -187500.02, -187500.02, 0.000, 0.000, 0.000, 17:02:27.267
122, 23732.88, 13668.72, -187500.02, 187500.00, -187500.02, -187500.02, -187500.02, -187500.02, 0.000, 0.000, 0.000, 17:02:27.267
123, 23609.14, 13555.57, -187500.02, 187500.00, -187500.02, -187500.02, -187500.02, -187500.02, 0.000, 0.000, 0.000, 17:02:27.267
124, 23193.09, 13136.81, -187500.02, 187500.00, -187500.02, -187500.02, -187500.02, -187500.02, 0.000, 0.000, 0.000, 17:02:27.267
125, 22625.73, 12555.82, -187500.02, 187500.00, -187500.02, -187500.02, -187500.02, -187500.02, 0.000, 0.000, 0.000, 17:02:27.267
126, 23146.84, 13064.66, -187500.02, 187500.00, -187500.02, -187500.02, -187500.02, -187500.02, 0.000, 0.000, 0.000, 17:02:27.268
127, 23725.68, 13653.41, -187500.02, 187500.00, -187500.02, -187500.02, -187500.02, -187500.02, 0.000, 0.000, 0.000, 17:02:27.268
128, 23592.64, 13528.66, -187500.02, 187500.00, -187500.02, -187500.02, -187500.02, -187500.02, 0.000, 0.000, 0.000, 17:02:27.268
129, 23178.94, 13121.99, -187500.02, 187500.00, -187500.02, -187500.02, -187500.02, -187500.02, 0.008, -0.018, 1.024, 17:02:27.268
130, 22623.18, 12559.85, -187500.02, 187500.00, -187500.02, -187500.02, -187500.02, -187500.02, 0.000, 0.000, 0.000, 17:02:27.268
131, 23139.84, 13058.69, -187500.02, 187500.00, -187500.02, -187500.02, -187500.02, -187500.02, 0.000, 0.000, 0.000, 17:02:27.268
132, 23737.48, 13663.13, -187500.02, 187500.00, -187500.02, -187500.02, -187500.02, -187500.02, 0.000, 0.000, 0.000, 17:02:27.269
133, 23618.93, 13552.53, -187500.02, 187500.00, -187500.02, -187500.02, -187500.02, -187500.02, 0.000, 0.000, 0.000, 17:02:27.269
134, 23204.08, 13141.84, -187500.02, 187500.00, -187500.02, -187500.02, -187500.02, -187500.02, 0.000, 0.000, 0.000, 17:02:27.269
135, 22619.54, 12556.43, -187500.02, 187500.00, -187500.02, -187500.02, -187500.02, -187500.02, 0.000, 0.000, 0.000, 17:02:27.269
136, 23129.94, 13055.50, -187500.02, 187500.00, -187500.02, -187500.02, -187500.02, -187500.02, 0.000, 0.000, 0.000, 17:02:27.269
137, 23726.20, 13661.34, -187500.02, 187500.00, -187500.02, -187500.02, -187500.02, -187500.02, 0.000, 0.000, 0.000, 17:02:27.269
138, 23601.68, 13540.93, -187500.02, 187500.00, -187500.02, -187500.02, -187500.02, -187500.02, 0.000, 0.000, 0.000, 17:02:27.270
139, 23185.44, 13122.87, -187500.02, 187500.00, -187500.02, -187500.02, -187500.02, -187500.02, 0.010, -0.012, 1.026, 17:02:27.270
140, 22612.43, 12540.85, -187500.02, 187500.00, -187500.02, -187500.02, -187500.02, -187500.02, 0.000, 0.000, 0.000, 17:02:27.270
141, 23133.12, 13049.93, -187500.02, 187500.00, -187500.02, -187500.02, -187500.02, -187500.02, 0.000, 0.000, 0.000, 17:02:27.270
142, 23735.67, 13666.39, -187500.02, 187500.00, -187500.02, -187500.02, -187500.02, -187500.02, 0.000, 0.000, 0.000, 17:02:27.270
143, 23623.96, 13563.04, -187500.02, 187500.00, -187500.02, -187500.02, -187500.02, -187500.02, 0.000, 0.000, 0.000, 17:02:27.271
144, 23198.96, 13141.84, -187500.02, 187500.00, -187500.02, -187500.02, -187500.02, -187500.02, 0.000, 0.000, 0.000, 17:02:27.271
145, 22615.81, 12552.58, -187500.02, 187500.00, -187500.02, -187500.02, -187500.02, -187500.02, 0.000, 0.000, 0.000, 17:02:27.271
146, 23124.20, 13048.10, -187500.02, 187500.00, -187500.02, -187500.02, -187500.02, -187500.02, 0.000, 0.000, 0.000, 17:02:27.271
147, 23722.08, 13663.60, -187500.02, 187500.00, -187500.02, -187500.02, -187500.02, -187500.02, 0.000, 0.000, 0.000, 17:02:27.271
148, 23595.66, 13542.85, -187500.02, 187500.00, -187500.02, -187500.02, -187500.02, -187500.02, 0.000, 0.000, 0.000, 17:02:27.271
149, 23195.61, 13139.43, -187500.02, 187500.00, -187500.02, -187500.02, -187500.02, -187500.02, 0.010, -0.012, 1.022, 17:02:27.272
150, 22622.49, 12555.85, -187500.02, 187500.00, -187500.02, -187500.02, -187500.02, -187500.02, 0.000, 0.000, 0.000, 17:02:27.272
151, 23109.38, 13031.09, -187500.02, 187500.00, -187500.02, -187500.02, -187500.02, -187500.02, 0.000, 0.000, 0.000, 17:02:27.272
152, 23728.19, 13664.98, -187500.02, 187500.00, -187500.02, -187500.02, -187500.02, -187500.02, 0.000, 0.000, 0.000, 17:02:27.272
153, 23623.40, 13559.89, -187500.02, 187500.00, -187500.02, -187500.02, -187500.02, -187500.02, 0.000, 0.000, 0.000, 17:02:27.272
154, 23232.38, 13175.37, -187500.02, 187500.00, -187500.02, -187500.02, -187500.02, -187500.02, 0.000, 0.000, 0.000, 17:02:27.272
155, 22643.75, 12583.72, -187500.02, 187500.00, -187500.02, -187500.02, -187500.02, -187500.02, 0.000, 0.000, 0.000, 17:02:27.273
156, 23101.22, 13025.10, -187500.02, 187500.00, -187500.02, -187500.02, -187500.02, -187500.02, 0.000, 0.000, 0.000, 17:02:27.273
157, 23707.67, 13647.39, -187500.02, 187500.00, -187500.02, -187500.02, -187500.02, -187500.02, 0.000, 0.000, 0.000, 17:02:27.273
158, 23617.10, 13560.38, -187500.02, 187500.00, -187500.02, -187500.02, -187500.02, -187500.02, 0.000, 0.000, 0.000, 17:02:27.273
159, 23222.77, 13167.86, -187500.02, 187500.00, -187500.02, -187500.02, -187500.02, -187500.02, 0.006, -0.010, 1.024, 17:02:27.273
160, 22641.33, 12583.88, -187500.02, 187500.00, -187500.02, -187500.02, -187500.02, -187500.02, 0.000, 0.000, 0.000, 17:02:27.274
161, 23108.87, 13036.52, -187500.02, 187500.00, -187500.02, -187500.02, -187500.02, -187500.02, 0.000, 0.000, 0.000, 17:02:27.274
162, 23719.54, 13652.65, -187500.02, 187500.00, -187500.02, -187500.02, -187500.02, -187500.02, 0.000, 0.000, 0.000, 17:02:27.274
163, 23605.14, 13545.49, -187500.02, 187500.00, -187500.02, -187500.02, -187500.02, -187500.02, 0.000, 0.000, 0.000, 17:02:27.274
164, 23214.70, 13161.94, -187500.02, 187500.00, -187500.02, -187500.02, -187500.02, -187500.02, 0.000, 0.000, 0.000, 17:02:27.274
165, 22635.46, 12579.14, -187500.02, 187500.00, -187500.02, -187500.02, -187500.02, -187500.02, 0.000, 0.000, 0.000, 17:02:27.274
166, 23101.71, 13031.47, -187500.02, 187500.00, -187500.02, -187500.02, -187500.02, -187500.02, 0.000, 0.000, 0.000, 17:02:27.275
167, 23717.44, 13656.42, -187500.02, 187500.00, -187500.02, -187500.02, -187500.02, -187500.02, 0.000, 0.000, 0.000, 17:02:27.275
168, 23606.32, 13549.36, -187500.02, 187500.00, -187500.02, -187500.02, -187500.02, -187500.02, 0.000, 0.000, 0.000, 17:02:27.275
169, 23215.93, 13154.07, -187500.02, 187500.00, -187500.02, -187500.02, -187500.02, -187500.02, 0.008, -0.016, 1.022, 17:02:27.275
170, 22623.12, 12558.46, -187500.02, 187500.00, -187500.02, -187500.02, -187500.02, -187500.02, 0.000, 0.000, 0.000, 17:02:27.275
171, 23069.26, 13005.54, -187500.02, 187500.00, -187500.02, -187500.02, -187500.02, -187500.02, 0.000, 0.000, 0.000, 17:02:27.275
172, 23699.35, 13639.01, -187500.02, 187500.00, -187500.02, -187500.02, -187500.02, -187500.02, 0.000, 0.000, 0.000, 17:02:27.276
173, 23617.48, 13555.19, -187500.02, 187500.00, -187500.02, -187500.02, -187500.02, -187500.02, 0.000, 0.000, 0.000, 17:02:27.276
174, 23226.17, 13162.96, -187500.02, 187500.00, -187500.02, -187500.02, -187500.02, -187500.02, 0.000, 0.000, 0.000, 17:02:27.276
175, 22632.73, 12566.06, -187500.02, 187500.00, -187500.02, -187500.02, -187500.02, -187500.02, 0.000, 0.000, 0.000, 17:02:27.276
176, 23081.19, 13004.04, -187500.02, 187500.00, -187500.02, -187500.02, -187500.02, -187500.02, 0.000, 0.000, 0.000, 17:02:27.276
177, 23707.18, 13641.45, -187500.02, 187500.00, -187500.02, -187500.02, -187500.02, -187500.02, 0.000, 0.000, 0.000, 17:02:27.277
178, 23624.88, 13566.14, -187500.02, 187500.00, -187500.02, -187500.02, -187500.02, -187500.02, 0.000, 0.000, 0.000, 17:02:27.277
179, 23235.51, 13180.24, -187500.02, 187500.00, -187500.02, -187500.02, -187500.02, -187500.02, 0.006, -0.010, 1.024, 17:02:27.277
180, 22635.52, 12572.48, -187500.02, 187500.00, -187500.02, -187500.02, -187500.02, -187500.02, 0.000, 0.000, 0.000, 17:02:27.277
181, 23078.51, 13001.07, -187500.02, 187500.00, -187500.02, -187500.02, -187500.02, -187500.02, 0.000, 0.000, 0.000, 17:02:27.277
182, 23721.97, 13657.27, -187500.02, 187500.00, -187500.02, -187500.02, -187500.02, -187500.02, 0.000, 0.000, 0.000, 17:02:27.277
183, 23624.70, 13561.88, -187500.02, 187500.00, -187500.02, -187500.02, -187500.02, -187500.02, 0.000, 0.000, 0.000, 17:02:27.278
184, 23227.55, 13169.11, -187500.02, 187500.00, -187500.02, -187500.02, -187500.02, -187500.02, 0.000, 0.000, 0.000, 17:02:27.278
185, 22638.83, 12581.44, -187500.02, 187500.00, -187500.02, -187500.02, -187500.02, -187500.02, 0.000, 0.000, 0.000, 17:02:27.278
186, 23069.08, 13000.74, -187500.02, 187500.00, -187500.02, -187500.02, -187500.02, -187500.02, 0.000, 0.000, 0.000, 17:02:27.278
187, 23712.88, 13656.54, -187500.02, 187500.00, -187500.02, -187500.02, -187500.02, -187500.02, 0.000, 0.000, 0.000, 17:02:27.278
188, 23631.52, 13576.45, -187500.02, 187500.00, -187500.02, -187500.02, -187500.02, -187500.02, 0.000, 0.000, 0.000, 17:02:27.279
189, 23238.44, 13187.24, -187500.02, 187500.00, -187500.02, -187500.02, -187500.02, -187500.02, 0.002, -0.010, 1.028, 17:02:27.279
190, 22630.38, 12572.65, -187500.02, 187500.00, -187500.02, -187500.02, -187500.02, -187500.02, 0.000, 0.000, 0.000, 17:02:27.279
191, 23062.66, 12990.14, -187500.02, 187500.00, -187500.02, -187500.02, -187500.02, -187500.02, 0.000, 0.000, 0.000, 17:02:27.279
192, 23697.12, 13627.61, -187500.02, 187500.00, -187500.02, -187500.02, -187500.02, -187500.02, 0.000, 0.000, 0.000, 17:02:27.279
193, 23609.99, 13539.43, -187500.02, 187500.00, -187500.02, -187500.02, -187500.02, -187500.02, 0.000, 0.000, 0.000, 17:02:27.279
194, 23241.63, 13171.86, -187500.02, 187500.00, -187500.02, -187500.02, -187500.02, -187500.02, 0.000, 0.000, 0.000, 17:02:27.279
195, 22640.77, 12576.07, -187500.02, 187500.00, -187500.02, -187500.02, -187500.02, -187500.02, 0.000, 0.000, 0.000, 17:02:27.279
196, 23067.18, 12994.01, -187500.02, 187500.00, -187500.02, -187500.02, -187500.02, -187500.02, 0.000, 0.000, 0.000, 17:02:27.280
197, 23711.42, 13646.50, -187500.02, 187500.00, -187500.02, -187500.02, -187500.02, -187500.02, 0.000, 0.000, 0.000, 17:02:27.280
198, 23616.49, 13554.95, -187500.02, 187500.00, -187500.02, -187500.02, -187500.02, -187500.02, 0.000, 0.000, 0.000, 17:02:27.280
199, 23244.92, 13181.47, -187500.02, 187500.00, -187500.02, -187500.02, -187500.02, -187500.02, 0.008, -0.014, 1.032, 17:02:27.280
200, 22648.20, 12578.47, -187500.02, 187500.00, -187500.02, -187500.02, -187500.02, -187500.02, 0.000, 0.000, 0.000, 17:02:27.280
201, 23047.62, 12965.55, -187500.02, 187500.00, -187500.02, -187500.02, -187500.02, -187500.02, 0.000, 0.000, 0.000, 17:02:27.280
202, 23696.27, 13632.33, -187500.02, 187500.00, -187500.02, -187500.02, -187500.02, -187500.02, 0.000, 0.000, 0.000, 17:02:27.280
203, 23621.28, 13566.77, -187500.02, 187500.00, -187500.02, -187500.02, -187500.02, -187500.02, 0.000, 0.000, 0.000, 17:02:27.280
204, 23255.16, 13197.43, -187500.02, 187500.00, -187500.02, -187500.02, -187500.02, -187500.02, 0.000, 0.000, 0.000, 17:02:27.281
205, 22638.25, 12576.07, -187500.02, 187500.00, -187500.02, -187500.02, -187500.02, -187500.02, 0.000, 0.000, 0.000, 17:02:27.281
206, 23042.81, 12970.90, -187500.02, 187500.00, -187500.02, -187500.02, -187500.02, -187500.02, 0.000, 0.000, 0.000, 17:02:27.281
207, 23698.75, 13638.27, -187500.02, 187500.00, -187500.02, -187500.02, -187500.02, -187500.02, 0.000, 0.000, 0.000, 17:02:27.281
208, 23619.11, 13563.04, -187500.02, 187500.00, -187500.02, -187500.02, -187500.02, -187500.02, 0.000, 0.000, 0.000, 17:02:27.281
209, 23250.93, 13196.49, -187500.02, 187500.00, -187500.02, -187500.02, -187500.02, -187500.02, 0.004, -0.012, 1.028, 17:02:27.281
210, 22640.10, 12578.22, -187500.02, 187500.00, -187500.02, -187500.02, -187500.02, -187500.02, 0.000, 0.000, 0.000, 17:02:27.740
211, 23033.38, 12954.13, -187500.02, 187500.00, -187500.02, -187500.02, -187500.02, -187500.02, 0.000, 0.000, 0.000, 17:02:27.740
212, 23702.15, 13630.70, -187500.02, 187500.00, -187500.02, -187500.02, -187500.02, -187500.02, 0.000, 0.000, 0.000, 17:02:27.741
213, 23638.67, 13573.45, -187500.02, 187500.00, -187500.02, -187500.02, -187500.02, -187500.02, 0.000, 0.000, 0.000, 17:02:27.741
214, 23265.46, 13210.24, -187500.02, 187500.00, -187500.02, -187500.02, -187500.02, -187500.02, 0.000, 0.000, 0.000, 17:02:27.741
215, 22644.02, 12583.56, -187500.02, 187500.00, -187500.02, -187500.02, -187500.02, -187500.02, 0.000, 0.000, 0.000, 17:02:27.741
216, 23029.02, 12950.56, -187500.02, 187500.00, -187500.02, -187500.02, -187500.02, -187500.02, 0.000, 0.000, 0.000, 17:02:27.741
217, 23695.60, 13624.93, -187500.02, 187500.00, -187500.02, -187500.02, -187500.02, -187500.02, 0.000, 0.000, 0.000, 17:02:27.741
218, 23639.67, 13573.63, -187500.02, 187500.00, -187500.02, -187500.02, -187500.02, -187500.02, 0.000, 0.000, 0.000, 17:02:27.742
219, 23274.76, 13211.33, -187500.02, 187500.00, -187500.02, -187500.02, -187500.02, -187500.02, 0.002, -0.012, 1.028, 17:02:27.742
220, 22648.35, 12588.59, -187500.02, 187500.00, -187500.02, -187500.02, -187500.02, -187500.02, 0.000, 0.000, 0.000, 17:02:27.742
221, 23014.67, 12942.00, -187500.02, 187500.00, -187500.02, -187500.02, -187500.02, -187500.02, 0.000, 0.000, 0.000, 17:02:27.742
222, 23699.73, 13634.14, -187500.02, 187500.00, -187500.02, -187500.02, -187500.02, -187500.02, 0.000, 0.000, 0.000, 17:02:27.742
223, 23634.60, 13571.00, -187500.02, 187500.00, -187500.02, -187500.02, -187500.02, -187500.02, 0.000, 0.000, 0.000, 17:02:27.742
224, 23259.07, 13194.48, -187500.02, 187500.00, -187500.02, -187500.02, -187500.02, -187500.02, 0.000, 0.000, 0.000, 17:02:27.743
225, 22645.18, 12587.23, -187500.02, 187500.00, -187500.02, -187500.02, -187500.02, -187500.02, 0.000, 0.000, 0.000, 17:02:27.743
226, 23014.72, 12944.65, -187500.02, 187500.00, -187500.02, -187500.02, -187500.02, -187500.02, 0.000, 0.000, 0.000, 17:02:27.743
227, 23699.44, 13626.94, -187500.02, 187500.00, -187500.02, -187500.02, -187500.02, -187500.02, 0.000, 0.000, 0.000, 17:02:27.743
228, 23636.14, 13567.46, -187500.02, 187500.00, -187500.02, -187500.02, -187500.02, -187500.02, 0.008, -0.014, 1.028, 17:02:27.743
229, 23274.38, 13209.12, -187500.02, 187500.00, -187500.02, -187500.02, -187500.02, -187500.02, 0.000, 0.000, 0.000, 17:02:27.744
230, 22653.09, 12590.76, -187500.02, 187500.00, -187500.02, -187500.02, -187500.02, -187500.02, 0.000, 0.000, 0.000, 17:02:27.744
231, 23009.18, 12935.76, -187500.02, 187500.00, -187500.02, -187500.02, -187500.02, -187500.02, 0.000, 0.000, 0.000, 17:02:27.744
232, 23689.21, 13620.82, -187500.02, 187500.00, -187500.02, -187500.02, -187500.02, -187500.02, 0.000, 0.000, 0.000, 17:02:27.744
233, 23634.40, 13568.42, -187500.02, 187500.00, -187500.02, -187500.02, -187500.02, -187500.02, 0.000, 0.000, 0.000, 17:02:27.744
234, 23272.81, 13206.77, -187500.02, 187500.00, -187500.02, -187500.02, -187500.02, -187500.02, 0.000, 0.000, 0.000, 17:02:27.744
235, 22647.70, 12576.03, -187500.02, 187500.00, -187500.02, -187500.02, -187500.02, -187500.02, 0.000, 0.000, 0.000, 17:02:27.745
236, 23020.64, 12932.21, -187500.02, 187500.00, -187500.02, -187500.02, -187500.02, -187500.02, 0.000, 0.000, 0.000, 17:02:27.745
237, 23705.03, 13629.45, -187500.02, 187500.00, -187500.02, -187500.02, -187500.02, -187500.02, 0.000, 0.000, 0.000, 17:02:27.745
238, 23637.51, 13574.35, -187500.02, 187500.00, -187500.02, -187500.02, -187500.02, -187500.02, 0.008, -0.012, 1.032, 17:02:27.745
239, 23264.05, 13202.88, -187500.02, 187500.00, -187500.02, -187500.02, -187500.02, -187500.02, 0.000, 0.000, 0.000, 17:02:27.745
240, 22646.36, 12578.58, -187500.02, 187500.00, -187500.02, -187500.02, -187500.02, -187500.02, 0.000, 0.000, 0.000, 17:02:27.745
241, 22998.78, 12917.47, -187500.02, 187500.00, -187500.02, -187500.02, -187500.02, -187500.02, 0.000, 0.000, 0.000, 17:02:27.746
242, 23678.79, 13608.41, -187500.02, 187500.00, -187500.02, -187500.02, -187500.02, -187500.02, 0.000, 0.000, 0.000, 17:02:27.746
243, 23641.30, 13574.24, -187500.02, 187500.00, -187500.02, -187500.02, -187500.02, -187500.02, 0.000, 0.000, 0.000, 17:02:27.746
244, 23294.21, 13233.60, -187500.02, 187500.00, -187500.02, -187500.02, -187500.02, -187500.02, 0.000, 0.000, 0.000, 17:02:27.746
245, 22666.75, 12607.12, -187500.02, 187500.00, -187500.02, -187500.02, -187500.02, -187500.02, 0.000, 0.000, 0.000, 17:02:27.746
246, 23000.48, 12920.85, -187500.02, 187500.00, -187500.02, -187500.02, -187500.02, -187500.02, 0.000, 0.000, 0.000, 17:02:27.747
247, 23692.00, 13619.43, -187500.02, 187500.00, -187500.02, -187500.02, -187500.02, -187500.02, 0.000, 0.000, 0.000, 17:02:27.747
248, 23645.55, 13580.90, -187500.02, 187500.00, -187500.02, -187500.02, -187500.02, -187500.02, 0.006, -0.014, 1.034, 17:02:27.747
249, 23298.77, 13240.46, -187500.02, 187500.00, -187500.02, -187500.02, -187500.02, -187500.02, 0.000, 0.000, 0.000, 17:02:27.747
250, 22657.96, 12597.26, -187500.02, 187500.00, -187500.02, -187500.02, -187500.02, -187500.02, 0.000, 0.000, 0.000, 17:02:27.747
251, 22992.77, 12917.21, -187500.02, 187500.00, -187500.02, -187500.02, -187500.02, -187500.02, 0.000, 0.000, 0.000, 17:02:27.747
252, 23690.84, 13627.48, -187500.02, 187500.00, -187500.02, -187500.02, -187500.02, -187500.02, 0.000, 0.000, 0.000, 17:02:27.748
253, 23644.63, 13587.58, -187500.02, 187500.00, -187500.02, -187500.02, -187500.02, -187500.02, 0.000, 0.000, 0.000, 17:02:27.748
254, 23298.43, 13236.61, -187500.02, 187500.00, -187500.02, -187500.02, -187500.02, -187500.02, 0.000, 0.000, 0.000, 17:02:27.748
255, 22669.94, 12613.22, -187500.02, 187500.00, -187500.02, -187500.02, -187500.02, -187500.02, 0.000, 0.000, 0.000, 17:02:27.748
0, 22990.78, 12916.49, -187500.02, 187500.00, -187500.02, -187500.02, -187500.02, -187500.02, 0.000, 0.000, 0.000, 17:02:27.748
1, 23687.60, 13614.18, -187500.02, 187500.00, -187500.02, -187500.02, -187500.02, -187500.02, 0.000, 0.000, 0.000, 17:02:27.748
2, 23638.96, 13569.88, -187500.02, 187500.00, -187500.02, -187500.02, -187500.02, -187500.02, 0.004, -0.014, 1.032, 17:02:27.749
3, 23297.20, 13233.60, -187500.02, 187500.00, -187500.02, -187500.02, -187500.02, -187500.02, 0.000, 0.000, 0.000, 17:02:27.749
4, 22681.97, 12624.26, -187500.02, 187500.00, -187500.02, -187500.02, -187500.02, -187500.02, 0.000, 0.000, 0.000, 17:02:27.749
5, 22972.70, 12900.71, -187500.02, 187500.00, -187500.02, -187500.02, -187500.02, -187500.02, 0.000, 0.000, 0.000, 17:02:27.749
6, 23689.50, 13619.10, -187500.02, 187500.00, -187500.02, -187500.02, -187500.02, -187500.02, 0.000, 0.000, 0.000, 17:02:27.749
7, 23650.65, 13583.40, -187500.02, 187500.00, -187500.02, -187500.02, -187500.02, -187500.02, 0.000, 0.000, 0.000, 17:02:27.749
8, 23300.26, 13246.76, -187500.02, 187500.00, -187500.02, -187500.02, -187500.02, -187500.02, 0.000, 0.000, 0.000, 17:02:27.749
9, 22670.55, 12620.49, -187500.02, 187500.00, -187500.02, -187500.02, -187500.02, -187500.02, 0.000, 0.000, 0.000, 17:02:27.749
10, 22974.24, 12900.11, -187500.02, 187500.00, -187500.02, -187500.02, -187500.02, -187500.02, 0.000, 0.000, 0.000, 17:02:27.750
11, 23682.75, 13608.37, -187500.02, 187500.00, -187500.02, -187500.02, -187500.02, -187500.02, 0.000, 0.000, 0.000, 17:02:27.750
12, 23650.80, 13583.07, -187500.02, 187500.00, -187500.02, -187500.02, -187500.02, -187500.02, 0.002, -0.014, 1.028, 17:02:27.750
13, 23289.58, 13233.77, -187500.02, 187500.00, -187500.02, -187500.02, -187500.02, -187500.02, 0.000, 0.000, 0.000, 17:02:27.750
14, 22671.37, 12618.97, -187500.02, 187500.00, -187500.02, -187500.02, -187500.02, -187500.02, 0.000, 0.000, 0.000, 17:02:27.750
15, 22969.34, 12895.30, -187500.02, 187500.00, -187500.02, -187500.02, -187500.02, -187500.02, 0.000, 0.000, 0.000, 17:02:27.750
16, 23680.53, 13613.46, -187500.02, 187500.00, -187500.02, -187500.02, -187500.02, -187500.02, 0.000, 0.000, 0.000, 17:02:27.750
17, 23645.08, 13586.31, -187500.02, 187500.00, -187500.02, -187500.02, -187500.02, -187500.02, 0.000, 0.000, 0.000, 17:02:27.750
18, 23306.70, 13251.88, -187500.02, 187500.00, -187500.02, -187500.02, -187500.02, -187500.02, 0.000, 0.000, 0.000, 17:02:27.751
19, 22678.37, 12620.98, -187500.02, 187500.00, -187500.02, -187500.02, -187500.02, -187500.02, 0.000, 0.000, 0.000, 17:02:27.751
20, 22965.84, 12891.08, -187500.02, 187500.00, -187500.02, -187500.02, -187500.02, -187500.02, 0.000, 0.000, 0.000, 17:02:27.751
21, 23672.15, 13605.04, -187500.02, 187500.00, -187500.02, -187500.02, -187500.02, -187500.02, 0.000, 0.000, 0.000, 17:02:27.751
22, 23642.04, 13586.84, -187500.02, 187500.00, -187500.02, -187500.02, -187500.02, -187500.02, 0.008, -0.016, 1.032, 17:02:27.751
23, 23317.32, 13265.07, -187500.02, 187500.00, -187500.02, -187500.02, -187500.02, -187500.02, 0.000, 0.000, 0.000, 17:02:27.751
24, 22680.63, 12627.89, -187500.02, 187500.00, -187500.02, -187500.02, -187500.02, -187500.02, 0.000, 0.000, 0.000, 17:02:27.751
25, 22948.27, 12883.81, -187500.02, 187500.00, -187500.02, -187500.02, -187500.02, -187500.02, 0.000, 0.000, 0.000, 17:02:27.752
26, 23676.78, 13620.88, -187500.02, 187500.00, -187500.02, -187500.02, -187500.02, -187500.02, 0.000, 0.000, 0.000, 17:02:27.752
27, 23655.50, 13603.58, -187500.02, 187500.00, -187500.02, -187500.02, -187500.02, -187500.02, 0.000, 0.000, 0.000, 17:02:27.752
28, 23318.52, 13259.23, -187500.02, 187500.00, -187500.02, -187500.02, -187500.02, -187500.02, 0.000, 0.000, 0.000, 17:02:27.752
29, 22671.66, 12614.72, -187500.02, 187500.00, -187500.02, -187500.02, -187500.02, -187500.02, 0.000, 0.000, 0.000, 17:02:27.752
30, 22939.06, 12868.99, -187500.02, 187500.00, -187500.02, -187500.02, -187500.02, -187500.02, 0.000, 0.000, 0.000, 17:02:27.752
31, 23670.94, 13600.90, -187500.02, 187500.00, -187500.02, -187500.02, -187500.02, -187500.02, 0.000, 0.000, 0.000, 17:02:27.752
32, 23656.50, 13597.10, -187500.02, 187500.00, -187500.02, -187500.02, -187500.02, -187500.02, 0.008, -0.014, 1.026, 17:02:27.752
33, 23322.21, 13268.96, -187500.02, 187500.00, -187500.02, -187500.02, -187500.02, -187500.02, 0.000, 0.000, 0.000, 17:02:27.753
34, 22687.67, 12638.10, -187500.02, 187500.00, -187500.02, -187500.02, -187500.02, -187500.02, 0.000, 0.000, 0.000, 17:02:27.753
35, 22943.42, 12881.56, -187500.02, 187500.00, -187500.02, -187500.02, -187500.02, -187500.02, 0.000, 0.000, 0.000, 17:02:27.753
36, 23668.22, 13609.15, -187500.02, 187500.00, -187500.02, -187500.02, -187500.02, -187500.02, 0.000, 0.000, 0.000, 17:02:27.753
37, 23662.81, 13603.03, -187500.02, 187500.00, -187500.02, -187500.02, -187500.02, -187500.02, 0.000, 0.000, 0.000, 17:02:27.753
38, 23346.96, 13285.74, -187500.02, 187500.00, -187500.02, -187500.02, -187500.02, -187500.02, 0.000, 0.000, 0.000, 17:02:27.753
39, 22701.17, 12638.70, -187500.02, 187500.00, -187500.02, -187500.02, -187500.02, -187500.02, 0.000, 0.000, 0.000, 17:02:27.753
40, 22942.84, 12866.63, -187500.02, 187500.00, -187500.02, -187500.02, -187500.02, -187500.02, 0.000, 0.000, 0.000, 17:02:27.753
41, 23675.93, 13609.26, -187500.02, 187500.00, -187500.02, -187500.02, -187500.02, -187500.02, 0.000, 0.000, 0.000, 17:02:27.754
42, 23664.19, 13606.47, -187500.02, 187500.00, -187500.02, -187500.02, -187500.02, -187500.02, 0.006, -0.008, 1.028, 17:02:27.754
43, 23335.35, 13280.94, -187500.02, 187500.00, -187500.02, -187500.02, -187500.02, -187500.02, 0.000, 0.000, 0.000, 17:02:27.754
44, 22685.34, 12631.71, -187500.02, 187500.00, -187500.02, -187500.02, -187500.02, -187500.02, 0.000, 0.000, 0.000, 17:02:27.754
45, 22935.68, 12862.89, -187500.02, 187500.00, -187500.02, -187500.02, -187500.02, -187500.02, 0.000, 0.000, 0.000, 17:02:27.754
46, 23684.31, 13616.03, -187500.02, 187500.00, -187500.02, -187500.02, -187500.02, -187500.02, 0.000, 0.000, 0.000, 17:02:27.754
47, 23663.61, 13598.96, -187500.02, 187500.00, -187500.02, -187500.02, -187500.02, -187500.02, 0.000, 0.000, 0.000, 17:02:27.755
48, 23352.68, 13296.34, -187500.02, 187500.00, -187500.02, -187500.02, -187500.02, -187500.02, 0.000, 0.000, 0.000, 17:02:27.755
49, 22711.92, 12662.84, -187500.02, 187500.00, -187500.02, -187500.02, -187500.02, -187500.02, 0.000, 0.000, 0.000, 17:02:27.755
50, 22934.56, 12861.55, -187500.02, 187500.00, -187500.02, -187500.02, -187500.02, -187500.02, 0.000, 0.000, 0.000, 17:02:27.755
51, 23678.30, 13607.52, -187500.02, 187500.00, -187500.02, -187500.02, -187500.02, -187500.02, 0.000, 0.000, 0.000, 17:02:27.755
52, 23672.60, 13609.60, -187500.02, 187500.00, -187500.02, -187500.02, -187500.02, -187500.02, 0.004, -0.010, 1.026, 17:02:27.755
53, 23359.67, 13296.45, -187500.02, 187500.00, -187500.02, -187500.02, -187500.02, -187500.02, 0.000, 0.000, 0.000, 17:02:27.755
54, 22711.61, 12652.56, -187500.02, 187500.00, -187500.02, -187500.02, -187500.02, -187500.02, 0.000, 0.000, 0.000, 17:02:27.756
55, 22922.94, 12850.24, -187500.02, 187500.00, -187500.02, -187500.02, -187500.02, -187500.02, 0.000, 0.000, 0.000, 17:02:27.756
56, 23668.19, 13604.57, -187500.02, 187500.00, -187500.02, -187500.02, -187500.02, -187500.02, 0.000, 0.000, 0.000, 17:02:27.756
57, 23672.49, 13610.74, -187500.02, 187500.00, -187500.02, -187500.02, -187500.02, -187500.02, 0.000, 0.000, 0.000, 17:02:27.756
58, 23355.54, 13296.67, -187500.02, 187500.00, -187500.02, -187500.02, -187500.02, -187500.02, 0.000, 0.000, 0.000, 17:02:27.756
59, 22727.23, 12682.31, -187500.02, 187500.00, -187500.02, -187500.02, -187500.02, -187500.02, 0.000, 0.000, 0.000, 17:02:27.756
60, 22928.62, 12859.81, -187500.02, 187500.00, -187500.02, -187500.02, -187500.02, -187500.02, 0.000, 0.000, 0.000, 17:02:27.758
61, 23669.31, 13597.62, -187500.02, 187500.00, -187500.02, -187500.02, -187500.02, -187500.02, 0.000, 0.000, 0.000, 17:02:27.758
62, 23672.33, 13602.29, -187500.02, 187500.00, -187500.02, -187500.02, -187500.02, -187500.02, 0.006, -0.014, 1.028, 17:02:27.758
63, 23363.00, 13297.28, -187500.02, 187500.00, -187500.02, -187500.02, -187500.02, -187500.02, 0.000, 0.000, 0.000, 17:02:27.758
64, 22721.91, 12661.99, -187500.02, 187500.00, -187500.02, -187500.02, -187500.02, -187500.02, 0.000, 0.000, 0.000, 17:02:27.758
65, 22925.83, 12848.77, -187500.02, 187500.00, -187500.02, -187500.02, -187500.02, -187500.02, 0.000, 0.000, 0.000, 17:02:27.759
66, 23685.74, 13615.30, -187500.02, 187500.00, -187500.02, -187500.02, -187500.02, -187500.02, 0.000, 0.000, 0.000, 17:02:27.759
67, 23688.78, 13629.76, -187500.02, 187500.00, -187500.02, -187500.02, -187500.02, -187500.02, 0.000, 0.000, 0.000, 17:02:27.759
68, 23377.44, 13321.39, -187500.02, 187500.00, -187500.02, -187500.02, -187500.02, -187500.02, 0.000, 0.000, 0.000, 17:02:27.759
69, 22732.93, 12677.44, -187500.02, 187500.00, -187500.02, -187500.02, -187500.02, -187500.02, 0.000, 0.000, 0.000, 17:02:27.759
70, 22921.45, 12845.99, -187500.02, 187500.00, -187500.02, -187500.02, -187500.02, -187500.02, 0.000, 0.000, 0.000, 17:02:27.759
71, 23681.96, 13614.74, -187500.02, 187500.00, -187500.02, -187500.02, -187500.02, -187500.02, 0.000, 0.000, 0.000, 17:02:27.760
72, 23703.94, 13653.47, -187500.02, 187500.00, -187500.02, -187500.02, -187500.02, -187500.02, 0.002, -0.018, 1.028, 17:02:27.760
73, 23391.08, 13341.67, -187500.02, 187500.00, -187500.02, -187500.02, -187500.02, -187500.02, 0.000, 0.000, 0.000, 17:02:27.760
74, 22742.32, 12692.62, -187500.02, 187500.00, -187500.02, -187500.02, -187500.02, -187500.02, 0.000, 0.000, 0.000, 17:02:28.223
75, 22914.98, 12842.82, -187500.02, 187500.00, -187500.02, -187500.02, -187500.02, -187500.02, 0.000, 0.000, 0.000, 17:02:28.223
76, 23662.29, 13592.97, -187500.02, 187500.00, -187500.02, -187500.02, -187500.02, -187500.02, 0.000, 0.000, 0.000, 17:02:28.224
77, 23687.46, 13617.78, -187500.02, 187500.00, -187500.02, -187500.02, -187500.02, -187500.02, 0.000, 0.000, 0.000, 17:02:28.224
78, 23377.53, 13313.53, -187500.02, 187500.00, -187500.02, -187500.02, -187500.02, -187500.02, 0.000, 0.000, 0.000, 17:02:28.224
79, 22732.75, 12669.21, -187500.02, 187500.00, -187500.02, -187500.02, -187500.02, -187500.02, 0.000, 0.000, 0.000, 17:02:28.224
80, 22925.31, 12845.08, -187500.02, 187500.00, -187500.02, -187500.02, -187500.02, -187500.02, 0.000, 0.000, 0.000, 17:02:28.224
81, 23675.93, 13614.89, -187500.02, 187500.00, -187500.02, -187500.02, -187500.02, -187500.02, 0.000, 0.000, 0.000, 17:02:28.224
82, 23678.34, 13629.60, -187500.02, 187500.00, -187500.02, -187500.02, -187500.02, -187500.02, 0.006, -0.014, 1.022, 17:02:28.225
83, 23365.26, 13308.74, -187500.02, 187500.00, -187500.02, -187500.02, -187500.02, -187500.02, 0.000, 0.000, 0.000, 17:02:28.225
84, 22738.32, 12679.23, -187500.02, 187500.00, -187500.02, -187500.02, -187500.02, -187500.02, 0.000, 0.000, 0.000, 17:02:28.225
85, 22909.17, 12833.99, -187500.02, 187500.00, -187500.02, -187500.02, -187500.02, -187500.02, 0.000, 0.000, 0.000, 17:02:28.225
86, 23668.73, 13594.38, -187500.02, 187500.00, -187500.02, -187500.02, -187500.02, -187500.02, 0.000, 0.000, 0.000, 17:02:28.225
87, 23693.61, 13633.31, -187500.02, 187500.00, -187500.02, -187500.02, -187500.02, -187500.02, 0.000, 0.000, 0.000, 17:02:28.225
88, 23387.81, 13330.54, -187500.02, 187500.00, -187500.02, -187500.02, -187500.02, -187500.02, 0.000, 0.000, 0.000, 17:02:28.226
89, 22745.00, 12683.34, -187500.02, 187500.00, -187500.02, -187500.02, -187500.02, -187500.02, 0.000, 0.000, 0.000, 17:02:28.226
90, 22898.94, 12824.74, -187500.02, 187500.00, -187500.02, -187500.02, -187500.02, -187500.02, 0.000, 0.000, 0.000, 17:02:28.226
91, 23671.88, 13606.38, -187500.02, 187500.00, -187500.02, -187500.02, -187500.02, -187500.02, 0.006, -0.014, 1.016, 17:02:28.226
92, 23702.19, 13641.96, -187500.02, 187500.00, -187500.02, -187500.02, -187500.02, -187500.02, 0.000, 0.000, 0.000, 17:02:28.226
93, 23385.47, 13325.39, -187500.02, 187500.00, -187500.02, -187500.02, -187500.02, -187500.02, 0.000, 0.000, 0.000, 17:02:28.227
94, 22746.27, 12688.59, -187500.02, 187500.00, -187500.02, -187500.02, -187500.02, -187500.02, 0.000, 0.000, 0.000, 17:02:28.227
95, 22890.67, 12811.66, -187500.02, 187500.00, -187500.02, -187500.02, -187500.02, -187500.02, 0.000, 0.000, 0.000, 17:02:28.227
96, 23659.57, 13581.08, -187500.02, 187500.00, -187500.02, -187500.02, -187500.02, -187500.02, 0.000, 0.000, 0.000, 17:02:28.227
97, 23691.22, 13627.99, -187500.02, 187500.00, -187500.02, -187500.02, -187500.02, -187500.02, 0.000, 0.000, 0.000, 17:02:28.227
98, 23380.91, 13325.35, -187500.02, 187500.00, -187500.02, -187500.02, -187500.02, -187500.02, 0.000, 0.000, 0.000, 17:02:28.227
99, 22740.87, 12689.96, -187500.02, 187500.00, -187500.02, -187500.02, -187500.02, -187500.02, 0.000, 0.000, 0.000, 17:02:28.228
100, 22887.49, 12823.06, -187500.02, 187500.00, -187500.02, -187500.02, -187500.02, -187500.02, 0.000, 0.000, 0.000, 17:02:28.228
101, 23664.69, 13598.82, -187500.02, 187500.00, -187500.02, -187500.02, -187500.02, -187500.02, 0.006, -0.008, 1.022, 17:02:28.228
102, 23707.89, 13642.30, -187500.02, 187500.00, -187500.02, -187500.02, -187500.02, -187500.02, 0.000, 0.000, 0.000, 17:02:28.228
103, 23386.61, 13329.31, -187500.02, 187500.00, -187500.02, -187500.02, -187500.02, -187500.02, 0.000, 0.000, 0.000, 17:02:28.228
104, 22749.49, 12698.72, -187500.02, 187500.00, -187500.02, -187500.02, -187500.02, -187500.02, 0.000, 0.000, 0.000, 17:02:28.229
105, 22890.02, 12822.75, -187500.02, 187500.00, -187500.02, -187500.02, -187500.02, -187500.02, 0.000, 0.000, 0.000, 17:02:28.229
106, 23652.91, 13592.79, -187500.02, 187500.00, -187500.02, -187500.02, -187500.02, -187500.02, 0.000, 0.000, 0.000, 17:02:28.229
107, 23698.84, 13642.48, -187500.02, 187500.00, -187500.02, -187500.02, -187500.02, -187500.02, 0.000, 0.000, 0.000, 17:02:28.229
108, 23399.39, 13337.71, -187500.02, 187500.00, -187500.02, -187500.02, -187500.02, -187500.02, 0.000, 0.000, 0.000, 17:02:28.229
109, 22761.32, 12704.55, -187500.02, 187500.00, -187500.02, -187500.02, -187500.02, -187500.02, 0.000, 0.000, 0.000, 17:02:28.229
110, 22886.04, 12816.47, -187500.02, 187500.00, -187500.02, -187500.02, -187500.02, -187500.02, 0.000, 0.000, 0.000, 17:02:28.230
111, 23650.49, 13582.51, -187500.02, 187500.00, -187500.02, -187500.02, -187500.02, -187500.02, 0.002, -0.012, 1.024, 17:02:28.230
112, 23708.40, 13648.76, -187500.02, 187500.00, -187500.02, -187500.02, -187500.02, -187500.02, 0.000, 0.000, 0.000, 17:02:28.230
113, 23410.81, 13355.64, -187500.02, 187500.00, -187500.02, -187500.02, -187500.02, -187500.02, 0.000, 0.000, 0.000, 17:02:28.230
114, 22761.47, 12707.93, -187500.02, 187500.00, -187500.02, -187500.02, -187500.02, -187500.02, 0.000, 0.000, 0.000, 17:02:28.231
115, 22866.35, 12792.37, -187500.02, 187500.00, -187500.02, -187500.02, -187500.02, -187500.02, 0.000, 0.000, 0.000, 17:02:28.231
116, 23646.45, 13575.91, -187500.02, 187500.00, -187500.02, -187500.02, -187500.02, -187500.02, 0.000, 0.000, 0.000, 17:02:28.231
117, 23699.42, 13640.80, -187500.02, 187500.00, -187500.02, -187500.02, -187500.02, -187500.02, 0.000, 0.000, 0.000, 17:02:28.231
118, 23408.31, 13350.43, -187500.02, 187500.00, -187500.02, -187500.02, -187500.02, -187500.02, 0.000, 0.000, 0.000, 17:02:28.231
119, 22762.55, 12703.93, -187500.02, 187500.00, -187500.02, -187500.02, -187500.02, -187500.02, 0.000, 0.000, 0.000, 17:02:28.231
120, 22866.62, 12790.94, -187500.02, 187500.00, -187500.02, -187500.02, -187500.02, -187500.02, 0.000, 0.000, 0.000, 17:02:28.232
121, 23645.69, 13580.07, -187500.02, 187500.00, -187500.02, -187500.02, -187500.02, -187500.02, 0.000, -0.014, 1.026, 17:02:28.232
122, 23695.98, 13637.92, -187500.02, 187500.00, -187500.02, -187500.02, -187500.02, -187500.02, 0.000, 0.000, 0.000, 17:02:28.232
123, 23404.06, 13342.85, -187500.02, 187500.00, -187500.02, -187500.02, -187500.02, -187500.02, 0.000, 0.000, 0.000, 17:02:28.232
124, 22778.48, 12715.68, -187500.02, 187500.00, -187500.02, -187500.02, -187500.02, -187500.02, 0.000, 0.000, 0.000, 17:02:28.232
125, 22867.49, 12791.52, -187500.02, 187500.00, -187500.02, -187500.02, -187500.02, -187500.02, 0.000, 0.000, 0.000, 17:02:28.233
126, 23645.89, 13577.28, -187500.02, 187500.00, -187500.02, -187500.02, -187500.02, -187500.02, 0.000, 0.000, 0.000, 17:02:28.233
127, 23705.21, 13646.59, -187500.02, 187500.00, -187500.02, -187500.02, -187500.02, -187500.02, 0.000, 0.000, 0.000, 17:02:28.233
128, 23423.04, 13366.99, -187500.02, 187500.00, -187500.02, -187500.02, -187500.02, -187500.02, 0.000, 0.000, 0.000, 17:02:28.233
129, 22792.45, 12740.20, -187500.02, 187500.00, -187500.02, -187500.02, -187500.02, -187500.02, 0.000, 0.000, 0.000, 17:02:28.233
130, 22867.46, 12802.36, -187500.02, 187500.00, -187500.02, -187500.02, -187500.02, -187500.02, 0.000, 0.000, 0.000, 17:02:28.233
131, 23647.52, 13571.53, -187500.02, 187500.00, -187500.02, -187500.02, -187500.02, -187500.02, -0.002, -0.014, 1.026, 17:02:28.234
132, 23711.69, 13638.63, -187500.02, 187500.00, -187500.02, -187500.02, -187500.02, -187500.02, 0.000, 0.000, 0.000, 17:02:28.234
133, 23426.35, 13368.51, -187500.02, 187500.00, -187500.02, -187500.02, -187500.02, -187500.02, 0.000, 0.000, 0.000, 17:02:28.234
134, 22796.43, 12747.51, -187500.02, 187500.00, -187500.02, -187500.02, -187500.02, -187500.02, 0.000, 0.000, 0.000, 17:02:28.234
135, 22857.88, 12793.18, -187500.02, 187500.00, -187500.02, -187500.02, -187500.02, -187500.02, 0.000, 0.000, 0.000, 17:02:28.234
136, 23629.86, 13558.52, -187500.02, 187500.00, -187500.02, -187500.02, -187500.02, -187500.02, 0.000, 0.000, 0.000, 17:02:28.234
137, 23715.67, 13644.09, -187500.02, 187500.00, -187500.02, -187500.02, -187500.02, -187500.02, 0.000, 0.000, 0.000, 17:02:28.235
138, 23420.11, 13359.70, -187500.02, 187500.00, -187500.02, -187500.02, -187500.02, -187500.02, 0.000, 0.000, 0.000, 17:02:28.235
139, 22789.48, 12739.35, -187500.02, 187500.00, -187500.02, -187500.02, -187500.02, -187500.02, 0.000, 0.000, 0.000, 17:02:28.235
140, 22858.97, 12783.05, -187500.02, 187500.00, -187500.02, -187500.02, -187500.02, -187500.02, 0.000, 0.000, 0.000, 17:02:28.235
141, 23645.64, 13564.80, -187500.02, 187500.00, -187500.02, -187500.02, -187500.02, -187500.02, 0.000, -0.014, 1.026, 17:02:28.236
142, 23711.67, 13642.03, -187500.02, 187500.00, -187500.02, -187500.02, -187500.02, -187500.02, 0.000, 0.000, 0.000, 17:02:28.236
143, 23418.23, 13351.90, -187500.02, 187500.00, -187500.02, -187500.02, -187500.02, -187500.02, 0.000, 0.000, 0.000, 17:02:28.236
144, 22779.06, 12717.72, -187500.02, 187500.00, -187500.02, -187500.02, -187500.02, -187500.02, 0.000, 0.000, 0.000, 17:02:28.236
145, 22842.61, 12765.53, -187500.02, 187500.00, -187500.02, -187500.02, -187500.02, -187500.02, 0.000, 0.000, 0.000, 17:02:28.236
146, 23635.67, 13559.66, -187500.02, 187500.00, -187500.02, -187500.02, -187500.02, -187500.02, 0.000, 0.000, 0.000, 17:02:28.237
147, 23719.31, 13654.26, -187500.02, 187500.00, -187500.02, -187500.02, -187500.02, -187500.02, 0.000, 0.000, 0.000, 17:02:28.237
148, 23422.24, 13361.00, -187500.02, 187500.00, -187500.02, -187500.02, -187500.02, -187500.02, 0.000, 0.000, 0.000, 17:02:28.237
149, 22796.45, 12735.53, -187500.02, 187500.00, -187500.02, -187500.02, -187500.02, -187500.02, 0.000, 0.000, 0.000, 17:02:28.237
150, 22838.36, 12758.78, -187500.02, 187500.00, -187500.02, -187500.02, -187500.02, -187500.02, 0.000, 0.000, 0.000, 17:02:28.237
151, 23638.82, 13565.12, -187500.02, 187500.00, -187500.02, -187500.02, -187500.02, -187500.02, 0.000, -0.010, 1.024, 17:02:28.237
152, 23728.79, 13660.58, -187500.02, 187500.00, -187500.02, -187500.02, -187500.02, -187500.02, 0.000, 0.000, 0.000, 17:02:28.238
153, 23452.99, 13385.36, -187500.02, 187500.00, -187500.02, -187500.02, -187500.02, -187500.02, 0.000, 0.000, 0.000, 17:02:28.238
154, 22809.53, 12750.08, -187500.02, 187500.00, -187500.02, -187500.02, -187500.02, -187500.02, 0.000, 0.000, 0.000, 17:02:28.238
155, 22850.84, 12775.27, -187500.02, 187500.00, -187500.02, -187500.02, -187500.02, -187500.02, 0.000, 0.000, 0.000, 17:02:28.238
