%OpenBCI Raw EEG Data
%
%Sample Rate = 250.0 Hz
%First Column = SampleIndex
%Last Column = Timestamp 
%Other Columns = EEG data in microvolts followed by Accel Data (in G) interleaved with Aux Data
0, 98068.52, 71270.97, -187500.02, -187500.02, -187500.02, -187500.02, -187500.02, -187500.02, 0.024, 0.062, -1.028, 15:43:43.838
1, 98245.86, 71427.61, -187500.02, -187500.02, -187500.02, -187500.02, -187500.02, -187500.02, 0.000, 0.000, 0.000, 15:43:43.838
2, 97824.84, 70909.03, -187500.02, -187500.02, -187500.02, -187500.02, -187500.02, -187500.02, 0.000, 0.000, 0.000, 15:43:43.839
3, 96749.84, 69655.16, -187500.02, -187500.02, -187500.02, -187500.02, -187500.02, -187500.02, 0.000, 0.000, 0.000, 15:43:43.839
4, 96708.69, 69678.63, -187500.02, -187500.02, -187500.02, -187500.02, -187500.02, -187500.02, 0.000, 0.000, 0.000, 15:43:43.839
5, 98067.13, 71269.56, -187500.02, -187500.02, -187500.02, -187500.02, -187500.02, -187500.02, 0.000, 0.000, 0.000, 15:43:43.839
6, 98252.92, 71432.89, -187500.02, -187500.02, -187500.02, -187500.02, -187500.02, -187500.02, 0.000, 0.000, 0.000, 15:43:43.839
7, 97829.85, 70911.60, -187500.02, -187500.02, -187500.02, -187500.02, -187500.02, -187500.02, 0.024, 0.056, -1.024, 15:43:43.839
8, 96749.37, 69641.75, -187500.02, -187500.02, -187500.02, -187500.02, -187500.02, -187500.02, 0.000, 0.000, 0.000, 15:43:43.839
9, 96702.88, 69659.05, -187500.02, -187500.02, -187500.02, -187500.02, -187500.02, -187500.02, 0.000, 0.000, 0.000, 15:43:43.840
10, 98069.57, 71262.55, -187500.02, -187500.02, -187500.02, -187500.02, -187500.02, -187500.02, 0.000, 0.000, 0.000, 15:43:43.840
11, 98257.66, 71432.24, -187500.02, -187500.02, -187500.02, -187500.02, -187500.02, -187500.02, 0.000, 0.000, 0.000, 15:43:43.840
12, 97833.45, 70911.27, -187500.02, -187500.02, -187500.02, -187500.02, -187500.02, -187500.02, 0.000, 0.000, 0.000, 15:43:43.840
13, 96750.17, 69642.09, -187500.02, -187500.02, -187500.02, -187500.02, -187500.02, -187500.02, 0.000, 0.000, 0.000, 15:43:43.840
14, 96699.45, 69652.34, -187500.02, -187500.02, -187500.02, -187500.02, -187500.02, -187500.02, 0.000, 0.000, 0.000, 15:43:43.840
15, 98055.94, 71246.67, -187500.02, -187500.02, -187500.02, -187500.02, -187500.02, -187500.02, 0.000, 0.000, 0.000, 15:43:43.840
16, 98255.38, 71420.99, -187500.02, -187500.02, -187500.02, -187500.02, -187500.02, -187500.02, 0.000, 0.000, 0.000, 15:43:43.840
17, 97836.31, 70904.13, -187500.02, -187500.02, -187500.02, -187500.02, -187500.02, -187500.02, 0.024, 0.058, -1.030, 15:43:43.841
18, 96756.07, 69641.64, -187500.02, -187500.02, -187500.02, -187500.02, -187500.02, -187500.02, 0.000, 0.000, 0.000, 15:43:43.841
19, 96699.59, 69647.32, -187500.02, -187500.02, -187500.02, -187500.02, -187500.02, -187500.02, 0.000, 0.000, 0.000, 15:43:43.841
20, 98051.91, 71232.41, -187500.02, -187500.02, -187500.02, -187500.02, -187500.02, -187500.02, 0.000, 0.000, 0.000, 15:43:43.841
21, 98252.74, 71411.98, -187500.02, -187500.02, -187500.02, -187500.02, -187500.02, -187500.02, 0.000, 0.000, 0.000, 15:43:43.841
22, 97833.94, 70898.19, -187500.02, -187500.02, -187500.02, -187500.02, -187500.02, -187500.02, 0.000, 0.000, 0.000, 15:43:43.842
23, 96754.80, 69638.38, -187500.02, -187500.02, -187500.02, -187500.02, -187500.02, -187500.02, 0.000, 0.000, 0.000, 15:43:43.842
24, 96695.30, 69636.39, -187500.02, -187500.02, -187500.02, -187500.02, -187500.02, -187500.02, 0.000, 0.000, 0.000, 15:43:43.842
25, 98049.45, 71227.14, -187500.02, -187500.02, -187500.02, -187500.02, -187500.02, -187500.02, 0.000, 0.000, 0.000, 15:43:43.842
26, 98249.84, 71411.30, -187500.02, -187500.02, -187500.02, -187500.02, -187500.02, -187500.02, 0.020, 0.052, -1.036, 15:43:43.842
27, 97826.48, 70893.67, -187500.02, -187500.02, -187500.02, -187500.02, -187500.02, -187500.02, 0.000, 0.000, 0.000, 15:43:43.842
28, 96756.32, 69640.03, -187500.02, -187500.02, -187500.02, -187500.02, -187500.02, -187500.02, 0.000, 0.000, 0.000, 15:43:43.843
29, 96684.79, 69620.49, -187500.02, -187500.02, -187500.02, -187500.02, -187500.02, -187500.02, 0.000, 0.000, 0.000, 15:43:43.843
30, 98039.24, 71216.74, -187500.02, -187500.02, -187500.02, -187500.02, -187500.02, -187500.02, 0.000, 0.000, 0.000, 15:43:43.843
31, 98233.88, 71395.11, -187500.02, -187500.02, -187500.02, -187500.02, -187500.02, -187500.02, 0.000, 0.000, 0.000, 15:43:43.843
32, 97818.54, 70881.00, -187500.02, -187500.02, -187500.02, -187500.02, -187500.02, -187500.02, 0.000, 0.000, 0.000, 15:43:43.843
33, 96746.55, 69630.35, -187500.02, -187500.02, -187500.02, -187500.02, -187500.02, -187500.02, 0.000, 0.000, 0.000, 15:43:43.844
34, 96670.73, 69608.65, -187500.02, -187500.02, -187500.02, -187500.02, -187500.02, -187500.02, 0.000, 0.000, 0.000, 15:43:43.844
35, 98025.09, 71202.04, -187500.02, -187500.02, -187500.02, -187500.02, -187500.02, -187500.02, 0.000, 0.000, 0.000, 15:43:43.844
36, 98222.79, 71382.44, -187500.02, -187500.02, -187500.02, -187500.02, -187500.02, -187500.02, 0.022, 0.056, -1.028, 15:43:43.844
37, 97816.26, 70875.77, -187500.02, -187500.02, -187500.02, -187500.02, -187500.02, -187500.02, 0.000, 0.000, 0.000, 15:43:43.844
38, 96744.02, 69623.06, -187500.02, -187500.02, -187500.02, -187500.02, -187500.02, -187500.02, 0.000, 0.000, 0.000, 15:43:43.845
39, 96658.02, 69593.41, -187500.02, -187500.02, -187500.02, -187500.02, -187500.02, -187500.02, 0.000, 0.000, 0.000, 15:43:43.845
40, 98016.22, 71191.94, -187500.02, -187500.02, -187500.02, -187500.02, -187500.02, -187500.02, 0.000, 0.000, 0.000, 15:43:43.845
41, 98231.47, 71386.91, -187500.02, -187500.02, -187500.02, -187500.02, -187500.02, -187500.02, 0.000, 0.000, 0.000, 15:43:43.845
42, 97818.54, 70878.45, -187500.02, -187500.02, -187500.02, -187500.02, -187500.02, -187500.02, 0.000, 0.000, 0.000, 15:43:43.845
43, 96750.33, 69624.74, -187500.02, -187500.02, -187500.02, -187500.02, -187500.02, -187500.02, 0.000, 0.000, 0.000, 15:43:43.845
44, 96665.50, 69593.83, -187500.02, -187500.02, -187500.02, -187500.02, -187500.02, -187500.02, 0.000, 0.000, 0.000, 15:43:43.846
45, 98021.45, 71190.41, -187500.02, -187500.02, -187500.02, -187500.02, -187500.02, -187500.02, 0.000, 0.000, 0.000, 15:43:43.846
46, 98231.40, 71388.18, -187500.02, -187500.02, -187500.02, -187500.02, -187500.02, -187500.02, 0.020, 0.054, -1.028, 15:43:43.846
47, 97822.54, 70880.55, -187500.02, -187500.02, -187500.02, -187500.02, -187500.02, -187500.02, 0.000, 0.000, 0.000, 15:43:43.846
48, 96748.59, 69623.60, -187500.02, -187500.02, -187500.02, -187500.02, -187500.02, -187500.02, 0.000, 0.000, 0.000, 15:43:43.846
49, 96653.95, 69585.16, -187500.02, -187500.02, -187500.02, -187500.02, -187500.02, -187500.02, 0.000, 0.000, 0.000, 15:43:43.847
50, 98020.20, 71184.47, -187500.02, -187500.02, -187500.02, -187500.02, -187500.02, -187500.02, 0.000, 0.000, 0.000, 15:43:43.847
51, 98236.90, 71382.06, -187500.02, -187500.02, -187500.02, -187500.02, -187500.02, -187500.02, 0.000, 0.000, 0.000, 15:43:43.847
52, 97820.82, 70875.01, -187500.02, -187500.02, -187500.02, -187500.02, -187500.02, -187500.02, 0.000, 0.000, 0.000, 15:43:43.847
53, 96753.28, 69623.02, -187500.02, -187500.02, -187500.02, -187500.02, -187500.02, -187500.02, 0.000, 0.000, 0.000, 15:43:43.847
54, 96653.16, 69570.74, -187500.02, -187500.02, -187500.02, -187500.02, -187500.02, -187500.02, 0.000, 0.000, 0.000, 15:43:43.847
55, 98014.81, 71168.17, -187500.02, -187500.02, -187500.02, -187500.02, -187500.02, -187500.02, 0.000, 0.000, 0.000, 15:43:43.848
56, 98236.56, 71372.11, -187500.02, -187500.02, -187500.02, -187500.02, -187500.02, -187500.02, 0.020, 0.052, -1.026, 15:43:43.848
57, 97825.20, 70862.02, -187500.02, -187500.02, -187500.02, -187500.02, -187500.02, -187500.02, 0.000, 0.000, 0.000, 15:43:43.848
58, 96755.98, 69614.70, -187500.02, -187500.02, -187500.02, -187500.02, -187500.02, -187500.02, 0.000, 0.000, 0.000, 15:43:43.848
59, 96646.59, 69558.78, -187500.02, -187500.02, -187500.02, -187500.02, -187500.02, -187500.02, 0.000, 0.000, 0.000, 15:43:43.848
60, 98003.32, 71156.80, -187500.02, -187500.02, -187500.02, -187500.02, -187500.02, -187500.02, 0.000, 0.000, 0.000, 15:43:43.849
61, 98222.81, 71363.98, -187500.02, -187500.02, -187500.02, -187500.02, -187500.02, -187500.02, 0.000, 0.000, 0.000, 15:43:43.849
62, 97816.69, 70858.42, -187500.02, -187500.02, -187500.02, -187500.02, -187500.02, -187500.02, 0.000, 0.000, 0.000, 15:43:43.849
63, 96765.66, 69615.98, -187500.02, -187500.02, -187500.02, -187500.02, -187500.02, -187500.02, 0.000, 0.000, 0.000, 15:43:43.850
64, 96648.23, 69555.25, -187500.02, -187500.02, -187500.02, -187500.02, -187500.02, -187500.02, 0.000, 0.000, 0.000, 15:43:43.850
65, 97991.59, 71141.82, -187500.02, -187500.02, -187500.02, -187500.02, -187500.02, -187500.02, 0.000, 0.000, 0.000, 15:43:43.850
66, 98218.34, 71353.34, -187500.02, -187500.02, -187500.02, -187500.02, -187500.02, -187500.02, 0.026, 0.058, -1.018, 15:43:43.850
67, 97809.35, 70848.95, -187500.02, -187500.02, -187500.02, -187500.02, -187500.02, -187500.02, 0.000, 0.000, 0.000, 15:43:43.851
68, 96752.23, 69610.80, -187500.02, -187500.02, -187500.02, -187500.02, -187500.02, -187500.02, 0.000, 0.000, 0.000, 15:43:43.851
69, 96631.93, 69541.86, -187500.02, -187500.02, -187500.02, -187500.02, -187500.02, -187500.02, 0.000, 0.000, 0.000, 15:43:43.851
70, 97986.83, 71134.23, -187500.02, -187500.02, -187500.02, -187500.02, -187500.02, -187500.02, 0.000, 0.000, 0.000, 15:43:43.851
71, 98216.02, 71349.85, -187500.02, -187500.02, -187500.02, -187500.02, -187500.02, -187500.02, 0.000, 0.000, 0.000, 15:43:43.851
72, 97814.83, 70859.41, -187500.02, -187500.02, -187500.02, -187500.02, -187500.02, -187500.02, 0.000, 0.000, 0.000, 15:43:43.851
73, 96754.84, 69610.66, -187500.02, -187500.02, -187500.02, -187500.02, -187500.02, -187500.02, 0.000, 0.000, 0.000, 15:43:43.852
74, 96631.59, 69540.21, -187500.02, -187500.02, -187500.02, -187500.02, -187500.02, -187500.02, 0.000, 0.000, 0.000, 15:43:43.852
75, 97990.42, 71136.84, -187500.02, -187500.02, -187500.02, -187500.02, -187500.02, -187500.02, 0.000, 0.000, 0.000, 15:43:43.852
76, 98223.40, 71356.06, -187500.02, -187500.02, -187500.02, -187500.02, -187500.02, -187500.02, 0.020, 0.062, -1.018, 15:43:43.852
77, 97812.88, 70850.24, -187500.02, -187500.02, -187500.02, -187500.02, -187500.02, -187500.02, 0.000, 0.000, 0.000, 15:43:43.852
78, 96752.27, 69605.12, -187500.02, -187500.02, -187500.02, -187500.02, -187500.02, -187500.02, 0.000, 0.000, 0.000, 15:43:43.853
79, 96623.46, 69521.03, -187500.02, -187500.02, -187500.02, -187500.02, -187500.02, -187500.02, 0.000, 0.000, 0.000, 15:43:43.853
80, 97990.55, 71132.81, -187500.02, -187500.02, -187500.02, -187500.02, -187500.02, -187500.02, 0.000, 0.000, 0.000, 15:43:43.853
81, 98228.52, 71353.02, -187500.02, -187500.02, -187500.02, -187500.02, -187500.02, -187500.02, 0.000, 0.000, 0.000, 15:43:43.853
82, 97817.20, 70851.36, -187500.02, -187500.02, -187500.02, -187500.02, -187500.02, -187500.02, 0.000, 0.000, 0.000, 15:43:43.853
83, 96758.09, 69609.45, -187500.02, -187500.02, -187500.02, -187500.02, -187500.02, -187500.02, 0.000, 0.000, 0.000, 15:43:43.854
84, 96620.55, 69521.41, -187500.02, -187500.02, -187500.02, -187500.02, -187500.02, -187500.02, 0.000, 0.000, 0.000, 15:43:43.854
85, 97977.95, 71119.29, -187500.02, -187500.02, -187500.02, -187500.02, -187500.02, -187500.02, 0.000, 0.000, 0.000, 15:43:43.854
86, 98217.41, 71343.75, -187500.02, -187500.02, -187500.02, -187500.02, -187500.02, -187500.02, 0.022, 0.056, -1.016, 15:43:43.854
87, 97814.43, 70843.49, -187500.02, -187500.02, -187500.02, -187500.02, -187500.02, -187500.02, 0.000, 0.000, 0.000, 15:43:43.854
88, 96756.09, 69603.48, -187500.02, -187500.02, -187500.02, -187500.02, -187500.02, -187500.02, 0.000, 0.000, 0.000, 15:43:43.854
89, 96611.08, 69503.95, -187500.02, -187500.02, -187500.02, -187500.02, -187500.02, -187500.02, 0.000, 0.000, 0.000, 15:43:43.855
90, 97973.30, 71111.54, -187500.02, -187500.02, -187500.02, -187500.02, -187500.02, -187500.02, 0.000, 0.000, 0.000, 15:43:43.855
91, 98213.47, 71340.02, -187500.02, -187500.02, -187500.02, -187500.02, -187500.02, -187500.02, 0.000, 0.000, 0.000, 15:43:43.855
92, 97807.34, 70836.16, -187500.02, -187500.02, -187500.02, -187500.02, -187500.02, -187500.02, 0.000, 0.000, 0.000, 15:43:43.855
93, 96748.13, 69594.01, -187500.02, -187500.02, -187500.02, -187500.02, -187500.02, -187500.02, 0.000, 0.000, 0.000, 15:43:43.856
94, 96597.62, 69487.86, -187500.02, -187500.02, -187500.02, -187500.02, -187500.02, -187500.02, 0.000, 0.000, 0.000, 15:43:43.856
95, 97960.02, 71095.63, -187500.02, -187500.02, -187500.02, -187500.02, -187500.02, -187500.02, 0.000, 0.000, 0.000, 15:43:43.856
96, 98207.70, 71333.98, -187500.02, -187500.02, -187500.02, -187500.02, -187500.02, -187500.02, 0.022, 0.058, -1.024, 15:43:43.856
97, 97807.45, 70832.34, -187500.02, -187500.02, -187500.02, -187500.02, -187500.02, -187500.02, 0.000, 0.000, 0.000, 15:43:43.856
98, 96750.95, 69591.22, -187500.02, -187500.02, -187500.02, -187500.02, -187500.02, -187500.02, 0.000, 0.000, 0.000, 15:43:43.857
99, 96596.84, 69483.73, -187500.02, -187500.02, -187500.02, -187500.02, -187500.02, -187500.02, 0.000, 0.000, 0.000, 15:43:43.857
100, 97958.62, 71086.99, -187500.02, -187500.02, -187500.02, -187500.02, -187500.02, -187500.02, 0.000, 0.000, 0.000, 15:43:43.857
101, 98215.20, 71329.38, -187500.02, -187500.02, -187500.02, -187500.02, -187500.02, -187500.02, 0.000, 0.000, 0.000, 15:43:43.857
102, 97818.43, 70847.05, -187500.02, -187500.02, -187500.02, -187500.02, -187500.02, -187500.02, 0.000, 0.000, 0.000, 15:43:43.857
103, 96765.19, 69606.57, -187500.02, -187500.02, -187500.02, -187500.02, -187500.02, -187500.02, 0.000, 0.000, 0.000, 15:43:43.858
104, 96599.99, 69483.14, -187500.02, -187500.02, -187500.02, -187500.02, -187500.02, -187500.02, 0.000, 0.000, 0.000, 15:43:43.858
105, 97959.18, 71089.74, -187500.02, -187500.02, -187500.02, -187500.02, -187500.02, -187500.02, 0.000, 0.000, 0.000, 15:43:43.858
106, 98227.69, 71348.20, -187500.02, -187500.02, -187500.02, -187500.02, -187500.02, -187500.02, 0.024, 0.058, -1.024, 15:43:43.858
107, 97817.47, 70840.74, -187500.02, -187500.02, -187500.02, -187500.02, -187500.02, -187500.02, 0.000, 0.000, 0.000, 15:43:43.858
108, 96768.23, 69610.57, -187500.02, -187500.02, -187500.02, -187500.02, -187500.02, -187500.02, 0.000, 0.000, 0.000, 15:43:43.858
109, 96610.80, 69493.59, -187500.02, -187500.02, -187500.02, -187500.02, -187500.02, -187500.02, 0.000, 0.000, 0.000, 15:43:43.859
110, 97964.88, 71092.20, -187500.02, -187500.02, -187500.02, -187500.02, -187500.02, -187500.02, 0.000, 0.000, 0.000, 15:43:43.859
111, 98213.96, 71331.66, -187500.02, -187500.02, -187500.02, -187500.02, -187500.02, -187500.02, 0.000, 0.000, 0.000, 15:43:43.859
112, 97819.37, 70835.85, -187500.02, -187500.02, -187500.02, -187500.02, -187500.02, -187500.02, 0.000, 0.000, 0.000, 15:43:43.859
113, 96769.95, 69613.27, -187500.02, -187500.02, -187500.02, -187500.02, -187500.02, -187500.02, 0.000, 0.000, 0.000, 15:43:43.859
114, 96589.46, 69481.24, -187500.02, -187500.02, -187500.02, -187500.02, -187500.02, -187500.02, 0.000, 0.000, 0.000, 15:43:43.860
115, 97950.28, 71079.87, -187500.02, -187500.02, -187500.02, -187500.02, -187500.02, -187500.02, 0.000, 0.000, 0.000, 15:43:43.860
116, 98207.73, 71323.74, -187500.02, -187500.02, -187500.02, -187500.02, -187500.02, -187500.02, 0.020, 0.060, -1.032, 15:43:43.860
117, 97814.59, 70832.03, -187500.02, -187500.02, -187500.02, -187500.02, -187500.02, -187500.02, 0.000, 0.000, 0.000, 15:43:43.860
118, 96761.01, 69599.80, -187500.02, -187500.02, -187500.02, -187500.02, -187500.02, -187500.02, 0.000, 0.000, 0.000, 15:43:43.860
119, 96581.26, 69463.59, -187500.02, -187500.02, -187500.02, -187500.02, -187500.02, -187500.02, 0.000, 0.000, 0.000, 15:43:43.861
120, 97952.85, 71074.43, -187500.02, -187500.02, -187500.02, -187500.02, -187500.02, -187500.02, 0.000, 0.000, 0.000, 15:43:44.319
121, 98217.79, 71329.45, -187500.02, -187500.02, -187500.02, -187500.02, -187500.02, -187500.02, 0.000, 0.000, 0.000, 15:43:44.319
122, 97821.76, 70840.86, -187500.02, -187500.02, -187500.02, -187500.02, -187500.02, -187500.02, 0.000, 0.000, 0.000, 15:43:44.319
123, 96773.70, 69613.30, -187500.02, -187500.02, -187500.02, -187500.02, -187500.02, -187500.02, 0.000, 0.000, 0.000, 15:43:44.319
124, 96597.22, 69471.52, -187500.02, -187500.02, -187500.02, -187500.02, -187500.02, -187500.02, 0.000, 0.000, 0.000, 15:43:44.319
125, 97956.72, 71077.00, -187500.02, -187500.02, -187500.02, -187500.02, -187500.02, -187500.02, 0.000, 0.000, 0.000, 15:43:44.320
126, 98228.67, 71342.99, -187500.02, -187500.02, -187500.02, -187500.02, -187500.02, -187500.02, 0.018, 0.056, -1.024, 15:43:44.320
127, 97831.03, 70853.98, -187500.02, -187500.02, -187500.02, -187500.02, -187500.02, -187500.02, 0.000, 0.000, 0.000, 15:43:44.320
128, 96784.46, 69625.39, -187500.02, -187500.02, -187500.02, -187500.02, -187500.02, -187500.02, 0.000, 0.000, 0.000, 15:43:44.320
129, 96590.22, 69462.73, -187500.02, -187500.02, -187500.02, -187500.02, -187500.02, -187500.02, 0.000, 0.000, 0.000, 15:43:44.320
130, 97948.11, 71067.16, -187500.02, -187500.02, -187500.02, -187500.02, -187500.02, -187500.02, 0.000, 0.000, 0.000, 15:43:44.320
131, 98219.51, 71332.88, -187500.02, -187500.02, -187500.02, -187500.02, -187500.02, -187500.02, 0.000, 0.000, 0.000, 15:43:44.320
132, 97828.80, 70844.90, -187500.02, -187500.02, -187500.02, -187500.02, -187500.02, -187500.02, 0.000, 0.000, 0.000, 15:43:44.320
133, 96786.31, 69616.83, -187500.02, -187500.02, -187500.02, -187500.02, -187500.02, -187500.02, 0.000, 0.000, 0.000, 15:43:44.321
134, 96579.56, 69458.55, -187500.02, -187500.02, -187500.02, -187500.02, -187500.02, -187500.02, 0.000, 0.000, 0.000, 15:43:44.321
135, 97941.97, 71064.44, -187500.02, -187500.02, -187500.02, -187500.02, -187500.02, -187500.02, 0.000, 0.000, 0.000, 15:43:44.321
136, 98217.34, 71331.27, -187500.02, -187500.02, -187500.02, -187500.02, -187500.02, -187500.02, 0.014, 0.052, -1.026, 15:43:44.321
137, 97811.59, 70832.81, -187500.02, -187500.02, -187500.02, -187500.02, -187500.02, -187500.02, 0.000, 0.000, 0.000, 15:43:44.321
138, 96777.30, 69619.94, -187500.02, -187500.02, -187500.02, -187500.02, -187500.02, -187500.02, 0.000, 0.000, 0.000, 15:43:44.321
139, 96569.52, 69438.02, -187500.02, -187500.02, -187500.02, -187500.02, -187500.02, -187500.02, 0.000, 0.000, 0.000, 15:43:44.322
140, 97925.42, 71034.24, -187500.02, -187500.02, -187500.02, -187500.02, -187500.02, -187500.02, 0.000, 0.000, 0.000, 15:43:44.322
141, 98213.59, 71321.53, -187500.02, -187500.02, -187500.02, -187500.02, -187500.02, -187500.02, 0.000, 0.000, 0.000, 15:43:44.322
142, 97821.80, 70834.11, -187500.02, -187500.02, -187500.02, -187500.02, -187500.02, -187500.02, 0.000, 0.000, 0.000, 15:43:44.322
143, 96779.81, 69609.19, -187500.02, -187500.02, -187500.02, -187500.02, -187500.02, -187500.02, 0.000, 0.000, 0.000, 15:43:44.322
144, 96568.16, 69429.39, -187500.02, -187500.02, -187500.02, -187500.02, -187500.02, -187500.02, 0.000, 0.000, 0.000, 15:43:44.322
145, 97929.02, 71031.56, -187500.02, -187500.02, -187500.02, -187500.02, -187500.02, -187500.02, 0.022, 0.050, -1.026, 15:43:44.322
146, 98221.20, 71317.80, -187500.02, -187500.02, -187500.02, -187500.02, -187500.02, -187500.02, 0.000, 0.000, 0.000, 15:43:44.322
147, 97833.70, 70832.32, -187500.02, -187500.02, -187500.02, -187500.02, -187500.02, -187500.02, 0.000, 0.000, 0.000, 15:43:44.323
148, 96793.78, 69615.94, -187500.02, -187500.02, -187500.02, -187500.02, -187500.02, -187500.02, 0.000, 0.000, 0.000, 15:43:44.323
149, 96575.52, 69428.98, -187500.02, -187500.02, -187500.02, -187500.02, -187500.02, -187500.02, 0.000, 0.000, 0.000, 15:43:44.323
150, 97937.32, 71039.79, -187500.02, -187500.02, -187500.02, -187500.02, -187500.02, -187500.02, 0.000, 0.000, 0.000, 15:43:44.323
151, 98238.59, 71329.73, -187500.02, -187500.02, -187500.02, -187500.02, -187500.02, -187500.02, 0.000, 0.000, 0.000, 15:43:44.323
152, 97838.09, 70833.37, -187500.02, -187500.02, -187500.02, -187500.02, -187500.02, -187500.02, 0.000, 0.000, 0.000, 15:43:44.323
153, 96801.34, 69615.87, -187500.02, -187500.02, -187500.02, -187500.02, -187500.02, -187500.02, 0.000, 0.000, 0.000, 15:43:44.323
154, 96573.37, 69430.13, -187500.02, -187500.02, -187500.02, -187500.02, -187500.02, -187500.02, 0.000, 0.000, 0.000, 15:43:44.323
155, 97938.39, 71041.09, -187500.02, -187500.02, -187500.02, -187500.02, -187500.02, -187500.02, 0.022, 0.054, -1.022, 15:43:44.324
156, 98223.59, 71318.52, -187500.02, -187500.02, -187500.02, -187500.02, -187500.02, -187500.02, 0.000, 0.000, 0.000, 15:43:44.324
157, 97829.20, 70825.45, -187500.02, -187500.02, -187500.02, -187500.02, -187500.02, -187500.02, 0.000, 0.000, 0.000, 15:43:44.324
158, 96791.59, 69605.16, -187500.02, -187500.02, -187500.02, -187500.02, -187500.02, -187500.02, 0.000, 0.000, 0.000, 15:43:44.324
159, 96562.26, 69412.54, -187500.02, -187500.02, -187500.02, -187500.02, -187500.02, -187500.02, 0.000, 0.000, 0.000, 15:43:44.324
160, 97918.61, 71018.44, -187500.02, -187500.02, -187500.02, -187500.02, -187500.02, -187500.02, 0.000, 0.000, 0.000, 15:43:44.324
161, 98218.32, 71310.24, -187500.02, -187500.02, -187500.02, -187500.02, -187500.02, -187500.02, 0.000, 0.000, 0.000, 15:43:44.324
162, 97820.28, 70815.02, -187500.02, -187500.02, -187500.02, -187500.02, -187500.02, -187500.02, 0.000, 0.000, 0.000, 15:43:44.324
163, 96775.79, 69588.16, -187500.02, -187500.02, -187500.02, -187500.02, -187500.02, -187500.02, 0.000, 0.000, 0.000, 15:43:44.325
164, 96551.84, 69391.81, -187500.02, -187500.02, -187500.02, -187500.02, -187500.02, -187500.02, 0.000, 0.000, 0.000, 15:43:44.325
165, 97909.11, 70998.55, -187500.02, -187500.02, -187500.02, -187500.02, -187500.02, -187500.02, 0.022, 0.056, -1.022, 15:43:44.325
166, 98205.94, 71295.31, -187500.02, -187500.02, -187500.02, -187500.02, -187500.02, -187500.02, 0.000, 0.000, 0.000, 15:43:44.325
167, 97817.80, 70808.67, -187500.02, -187500.02, -187500.02, -187500.02, -187500.02, -187500.02, 0.000, 0.000, 0.000, 15:43:44.325
168, 96780.84, 69588.13, -187500.02, -187500.02, -187500.02, -187500.02, -187500.02, -187500.02, 0.000, 0.000, 0.000, 15:43:44.325
169, 96542.01, 69383.73, -187500.02, -187500.02, -187500.02, -187500.02, -187500.02, -187500.02, 0.000, 0.000, 0.000, 15:43:44.325
170, 97896.03, 70986.63, -187500.02, -187500.02, -187500.02, -187500.02, -187500.02, -187500.02, 0.000, 0.000, 0.000, 15:43:44.326
171, 98199.15, 71288.25, -187500.02, -187500.02, -187500.02, -187500.02, -187500.02, -187500.02, 0.000, 0.000, 0.000, 15:43:44.326
172, 97817.02, 70810.88, -187500.02, -187500.02, -187500.02, -187500.02, -187500.02, -187500.02, 0.000, 0.000, 0.000, 15:43:44.326
173, 96787.03, 69599.82, -187500.02, -187500.02, -187500.02, -187500.02, -187500.02, -187500.02, 0.000, 0.000, 0.000, 15:43:44.326
174, 96541.98, 69377.27, -187500.02, -187500.02, -187500.02, -187500.02, -187500.02, -187500.02, 0.000, 0.000, 0.000, 15:43:44.326
175, 97901.11, 70987.22, -187500.02, -187500.02, -187500.02, -187500.02, -187500.02, -187500.02, 0.018, 0.056, -1.024, 15:43:44.326
176, 98199.41, 71286.64, -187500.02, -187500.02, -187500.02, -187500.02, -187500.02, -187500.02, 0.000, 0.000, 0.000, 15:43:44.326
177, 97821.53, 70817.03, -187500.02, -187500.02, -187500.02, -187500.02, -187500.02, -187500.02, 0.000, 0.000, 0.000, 15:43:44.327
178, 96797.87, 69606.66, -187500.02, -187500.02, -187500.02, -187500.02, -187500.02, -187500.02, 0.000, 0.000, 0.000, 15:43:44.327
179, 96533.41, 69369.40, -187500.02, -187500.02, -187500.02, -187500.02, -187500.02, -187500.02, 0.000, 0.000, 0.000, 15:43:44.327
180, 97889.64, 70976.17, -187500.02, -187500.02, -187500.02, -187500.02, -187500.02, -187500.02, 0.000, 0.000, 0.000, 15:43:44.327
181, 98201.63, 71282.77, -187500.02, -187500.02, -187500.02, -187500.02, -187500.02, -187500.02, 0.000, 0.000, 0.000, 15:43:44.327
182, 97814.78, 70798.86, -187500.02, -187500.02, -187500.02, -187500.02, -187500.02, -187500.02, 0.000, 0.000, 0.000, 15:43:44.327
183, 96778.55, 69582.56, -187500.02, -187500.02, -187500.02, -187500.02, -187500.02, -187500.02, 0.000, 0.000, 0.000, 15:43:44.327
184, 96515.21, 69351.91, -187500.02, -187500.02, -187500.02, -187500.02, -187500.02, -187500.02, 0.000, 0.000, 0.000, 15:43:44.327
185, 97869.03, 70949.98, -187500.02, -187500.02, -187500.02, -187500.02, -187500.02, -187500.02, 0.020, 0.052, -1.024, 15:43:44.328
186, 98188.73, 71264.20, -187500.02, -187500.02, -187500.02, -187500.02, -187500.02, -187500.02, 0.000, 0.000, 0.000, 15:43:44.328
187, 97803.70, 70790.63, -187500.02, -187500.02, -187500.02, -187500.02, -187500.02, -187500.02, 0.000, 0.000, 0.000, 15:43:44.328
188, 96777.87, 69583.95, -187500.02, -187500.02, -187500.02, -187500.02, -187500.02, -187500.02, 0.000, 0.000, 0.000, 15:43:44.328
189, 96514.67, 69340.59, -187500.02, -187500.02, -187500.02, -187500.02, -187500.02, -187500.02, 0.000, 0.000, 0.000, 15:43:44.328
190, 97866.23, 70943.49, -187500.02, -187500.02, -187500.02, -187500.02, -187500.02, -187500.02, 0.000, 0.000, 0.000, 15:43:44.328
191, 98182.94, 71265.25, -187500.02, -187500.02, -187500.02, -187500.02, -187500.02, -187500.02, 0.000, 0.000, 0.000, 15:43:44.328
192, 97795.14, 70781.34, -187500.02, -187500.02, -187500.02, -187500.02, -187500.02, -187500.02, 0.000, 0.000, 0.000, 15:43:44.329
193, 96776.81, 69581.78, -187500.02, -187500.02, -187500.02, -187500.02, -187500.02, -187500.02, 0.000, 0.000, 0.000, 15:43:44.329
194, 96509.71, 69341.19, -187500.02, -187500.02, -187500.02, -187500.02, -187500.02, -187500.02, 0.000, 0.000, 0.000, 15:43:44.329
195, 97866.84, 70949.09, -187500.02, -187500.02, -187500.02, -187500.02, -187500.02, -187500.02, 0.018, 0.052, -1.026, 15:43:44.329
196, 98188.48, 71273.07, -187500.02, -187500.02, -187500.02, -187500.02, -187500.02, -187500.02, 0.000, 0.000, 0.000, 15:43:44.329
197, 97812.57, 70802.34, -187500.02, -187500.02, -187500.02, -187500.02, -187500.02, -187500.02, 0.000, 0.000, 0.000, 15:43:44.329
198, 96782.60, 69585.52, -187500.02, -187500.02, -187500.02, -187500.02, -187500.02, -187500.02, 0.000, 0.000, 0.000, 15:43:44.329
199, 96508.17, 69333.30, -187500.02, -187500.02, -187500.02, -187500.02, -187500.02, -187500.02, 0.000, 0.000, 0.000, 15:43:44.329
200, 97856.98, 70933.17, -187500.02, -187500.02, -187500.02, -187500.02, -187500.02, -187500.02, 0.000, 0.000, 0.000, 15:43:44.329
201, 98186.34, 71267.82, -187500.02, -187500.02, -187500.02, -187500.02, -187500.02, -187500.02, 0.000, 0.000, 0.000, 15:43:44.330
202, 97802.98, 70793.31, -187500.02, -187500.02, -187500.02, -187500.02, -187500.02, -187500.02, 0.000, 0.000, 0.000, 15:43:44.330
203, 96787.59, 69596.78, -187500.02, -187500.02, -187500.02, -187500.02, -187500.02, -187500.02, 0.000, 0.000, 0.000, 15:43:44.330
204, 96497.02, 69323.51, -187500.02, -187500.02, -187500.02, -187500.02, -187500.02, -187500.02, 0.000, 0.000, 0.000, 15:43:44.330
205, 97840.80, 70918.87, -187500.02, -187500.02, -187500.02, -187500.02, -187500.02, -187500.02, 0.018, 0.050, -1.028, 15:43:44.330
206, 98168.66, 71244.24, -187500.02, -187500.02, -187500.02, -187500.02, -187500.02, -187500.02, 0.000, 0.000, 0.000, 15:43:44.330
207, 97789.23, 70769.04, -187500.02, -187500.02, -187500.02, -187500.02, -187500.02, -187500.02, 0.000, 0.000, 0.000, 15:43:44.330
208, 96765.13, 69562.49, -187500.02, -187500.02, -187500.02, -187500.02, -187500.02, -187500.02, 0.000, 0.000, 0.000, 15:43:44.330
209, 96482.77, 69301.00, -187500.02, -187500.02, -187500.02, -187500.02, -187500.02, -187500.02, 0.000, 0.000, 0.000, 15:43:44.331
210, 97845.67, 70915.84, -187500.02, -187500.02, -187500.02, -187500.02, -187500.02, -187500.02, 0.000, 0.000, 0.000, 15:43:44.331
211, 98183.09, 71256.80, -187500.02, -187500.02, -187500.02, -187500.02, -187500.02, -187500.02, 0.000, 0.000, 0.000, 15:43:44.331
212, 97799.98, 70778.43, -187500.02, -187500.02, -187500.02, -187500.02, -187500.02, -187500.02, 0.000, 0.000, 0.000, 15:43:44.331
213, 96774.47, 69570.67, -187500.02, -187500.02, -187500.02, -187500.02, -187500.02, -187500.02, 0.000, 0.000, 0.000, 15:43:44.331
214, 96481.86, 69290.83, -187500.02, -187500.02, -187500.02, -187500.02, -187500.02, -187500.02, 0.000, 0.000, 0.000, 15:43:44.331
215, 97832.84, 70890.84, -187500.02, -187500.02, -187500.02, -187500.02, -187500.02, -187500.02, 0.022, 0.052, -1.028, 15:43:44.331
216, 98174.70, 71243.70, -187500.02, -187500.02, -187500.02, -187500.02, -187500.02, -187500.02, 0.000, 0.000, 0.000, 15:43:44.331
217, 97797.06, 70770.78, -187500.02, -187500.02, -187500.02, -187500.02, -187500.02, -187500.02, 0.000, 0.000, 0.000, 15:43:44.332
218, 96781.73, 69576.64, -187500.02, -187500.02, -187500.02, -187500.02, -187500.02, -187500.02, 0.000, 0.000, 0.000, 15:43:44.332
219, 96486.17, 69299.32, -187500.02, -187500.02, -187500.02, -187500.02, -187500.02, -187500.02, 0.000, 0.000, 0.000, 15:43:44.332
220, 97835.66, 70900.98, -187500.02, -187500.02, -187500.02, -187500.02, -187500.02, -187500.02, 0.000, 0.000, 0.000, 15:43:44.332
221, 98168.39, 71240.30, -187500.02, -187500.02, -187500.02, -187500.02, -187500.02, -187500.02, 0.000, 0.000, 0.000, 15:43:44.332
222, 97795.77, 70768.84, -187500.02, -187500.02, -187500.02, -187500.02, -187500.02, -187500.02, 0.000, 0.000, 0.000, 15:43:44.332
223, 96792.64, 69585.56, -187500.02, -187500.02, -187500.02, -187500.02, -187500.02, -187500.02, 0.000, 0.000, 0.000, 15:43:44.332
224, 96476.12, 69289.78, -187500.02, -187500.02, -187500.02, -187500.02, -187500.02, -187500.02, 0.000, 0.000, 0.000, 15:43:44.332
225, 97826.59, 70894.73, -187500.02, -187500.02, -187500.02, -187500.02, -187500.02, -187500.02, 0.030, 0.052, -1.024, 15:43:44.333
226, 98184.57, 71253.70, -187500.02, -187500.02, -187500.02, -187500.02, -187500.02, -187500.02, 0.000, 0.000, 0.000, 15:43:44.333
227, 97799.85, 70769.20, -187500.02, -187500.02, -187500.02, -187500.02, -187500.02, -187500.02, 0.000, 0.000, 0.000, 15:43:44.333
228, 96778.42, 69562.23, -187500.02, -187500.02, -187500.02, -187500.02, -187500.02, -187500.02, 0.000, 0.000, 0.000, 15:43:44.333
229, 96457.77, 69257.82, -187500.02, -187500.02, -187500.02, -187500.02, -187500.02, -187500.02, 0.000, 0.000, 0.000, 15:43:44.333
230, 97811.01, 70861.35, -187500.02, -187500.02, -187500.02, -187500.02, -187500.02, -187500.02, 0.000, 0.000, 0.000, 15:43:44.333
231, 98167.96, 71223.98, -187500.02, -187500.02, -187500.02, -187500.02, -187500.02, -187500.02, 0.000, 0.000, 0.000, 15:43:44.333
232, 97786.11, 70749.93, -187500.02, -187500.02, -187500.02, -187500.02, -187500.02, -187500.02, 0.000, 0.000, 0.000, 15:43:44.333
233, 96778.11, 69561.73, -187500.02, -187500.02, -187500.02, -187500.02, -187500.02, -187500.02, 0.000, 0.000, 0.000, 15:43:44.334
234, 96454.81, 69250.09, -187500.02, -187500.02, -187500.02, -187500.02, -187500.02, -187500.02, 0.000, 0.000, 0.000, 15:43:44.334
235, 97795.98, 70846.83, -187500.02, -187500.02, -187500.02, -187500.02, -187500.02, -187500.02, 0.024, 0.054, -1.026, 15:43:44.334
236, 98151.22, 71210.20, -187500.02, -187500.02, -187500.02, -187500.02, -187500.02, -187500.02, 0.000, 0.000, 0.000, 15:43:44.334
237, 97799.92, 70761.02, -187500.02, -187500.02, -187500.02, -187500.02, -187500.02, -187500.02, 0.000, 0.000, 0.000, 15:43:44.334
238, 96803.68, 69578.88, -187500.02, -187500.02, -187500.02, -187500.02, -187500.02, -187500.02, 0.000, 0.000, 0.000, 15:43:44.334
239, 96472.27, 69263.94, -187500.02, -187500.02, -187500.02, -187500.02, -187500.02, -187500.02, 0.000, 0.000, 0.000, 15:43:44.334
240, 97823.84, 70869.27, -187500.02, -187500.02, -187500.02, -187500.02, -187500.02, -187500.02, 0.000, 0.000, 0.000, 15:43:44.801
241, 98185.35, 71235.55, -187500.02, -187500.02, -187500.02, -187500.02, -187500.02, -187500.02, 0.000, 0.000, 0.000, 15:43:44.801
242, 97816.28, 70775.34, -187500.02, -187500.02, -187500.02, -187500.02, -187500.02, -187500.02, 0.000, 0.000, 0.000, 15:43:44.801
243, 96819.87, 69599.71, -187500.02, -187500.02, -187500.02, -187500.02, -187500.02, -187500.02, 0.000, 0.000, 0.000, 15:43:44.801
244, 96488.03, 69277.44, -187500.02, -187500.02, -187500.02, -187500.02, -187500.02, -187500.02, 0.000, 0.000, 0.000, 15:43:44.802
245, 97837.29, 70876.48, -187500.02, -187500.02, -187500.02, -187500.02, -187500.02, -187500.02, 0.018, 0.058, -1.028, 15:43:44.802
246, 98191.59, 71235.48, -187500.02, -187500.02, -187500.02, -187500.02, -187500.02, -187500.02, 0.000, 0.000, 0.000, 15:43:44.802
247, 97822.98, 70776.04, -187500.02, -187500.02, -187500.02, -187500.02, -187500.02, -187500.02, 0.000, 0.000, 0.000, 15:43:44.802
248, 96826.75, 69602.86, -187500.02, -187500.02, -187500.02, -187500.02, -187500.02, -187500.02, 0.000, 0.000, 0.000, 15:43:44.802
249, 96482.11, 69271.95, -187500.02, -187500.02, -187500.02, -187500.02, -187500.02, -187500.02, 0.000, 0.000, 0.000, 15:43:44.802
250, 97829.36, 70867.90, -187500.02, -187500.02, -187500.02, -187500.02, -187500.02, -187500.02, 0.000, 0.000, 0.000, 15:43:44.803
251, 98195.03, 71246.18, -187500.02, -187500.02, -187500.02, -187500.02, -187500.02, -187500.02, 0.000, 0.000, 0.000, 15:43:44.803
252, 97810.52, 70767.14, -187500.02, -187500.02, -187500.02, -187500.02, -187500.02, -187500.02, 0.000, 0.000, 0.000, 15:43:44.803
253, 96804.40, 69575.52, -187500.02, -187500.02, -187500.02, -187500.02, -187500.02, -187500.02, 0.000, 0.000, 0.000, 15:43:44.803
254, 96463.48, 69245.92, -187500.02, -187500.02, -187500.02, -187500.02, -187500.02, -187500.02, 0.000, 0.000, 0.000, 15:43:44.803
255, 97804.81, 70846.38, -187500.02, -187500.02, -187500.02, -187500.02, -187500.02, -187500.02, 0.020, 0.056, -1.022, 15:43:44.804
0, 98174.63, 71224.19, -187500.02, -187500.02, -187500.02, -187500.02, -187500.02, -187500.02, 0.000, 0.000, 0.000, 15:43:44.804
1, 97801.82, 70756.01, -187500.02, -187500.02, -187500.02, -187500.02, -187500.02, -187500.02, 0.000, 0.000, 0.000, 15:43:44.804
2, 96796.26, 69566.63, -187500.02, -187500.02, -187500.02, -187500.02, -187500.02, -187500.02, 0.000, 0.000, 0.000, 15:43:44.804
3, 96446.05, 69226.79, -187500.02, -187500.02, -187500.02, -187500.02, -187500.02, -187500.02, 0.000, 0.000, 0.000, 15:43:44.804
4, 97792.70, 70828.74, -187500.02, -187500.02, -187500.02, -187500.02, -187500.02, -187500.02, 0.000, 0.000, 0.000, 15:43:44.805
5, 98169.38, 71217.30, -187500.02, -187500.02, -187500.02, -187500.02, -187500.02, -187500.02, 0.000, 0.000, 0.000, 15:43:44.805
6, 97817.34, 70767.97, -187500.02, -187500.02, -187500.02, -187500.02, -187500.02, -187500.02, 0.000, 0.000, 0.000, 15:43:44.805
7, 96817.56, 69590.50, -187500.02, -187500.02, -187500.02, -187500.02, -187500.02, -187500.02, 0.000, 0.000, 0.000, 15:43:44.805
8, 96463.73, 69245.52, -187500.02, -187500.02, -187500.02, -187500.02, -187500.02, -187500.02, 0.024, 0.054, -1.028, 15:43:44.806
9, 97811.48, 70847.63, -187500.02, -187500.02, -187500.02, -187500.02, -187500.02, -187500.02, 0.000, 0.000, 0.000, 15:43:44.806
10, 98192.17, 71244.91, -187500.02, -187500.02, -187500.02, -187500.02, -187500.02, -187500.02, 0.000, 0.000, 0.000, 15:43:44.806
11, 97827.91, 70784.93, -187500.02, -187500.02, -187500.02, -187500.02, -187500.02, -187500.02, 0.000, 0.000, 0.000, 15:43:44.806
12, 96826.77, 69602.75, -187500.02, -187500.02, -187500.02, -187500.02, -187500.02, -187500.02, 0.000, 0.000, 0.000, 15:43:44.806
13, 96471.02, 69249.45, -187500.02, -187500.02, -187500.02, -187500.02, -187500.02, -187500.02, 0.000, 0.000, 0.000, 15:43:44.806
14, 97812.33, 70840.45, -187500.02, -187500.02, -187500.02, -187500.02, -187500.02, -187500.02, 0.000, 0.000, 0.000, 15:43:44.807
15, 98193.69, 71237.51, -187500.02, -187500.02, -187500.02, -187500.02, -187500.02, -187500.02, 0.000, 0.000, 0.000, 15:43:44.807
16, 97822.48, 70776.53, -187500.02, -187500.02, -187500.02, -187500.02, -187500.02, -187500.02, 0.000, 0.000, 0.000, 15:43:44.807
17, 96818.84, 69594.91, -187500.02, -187500.02, -187500.02, -187500.02, -187500.02, -187500.02, 0.000, 0.000, 0.000, 15:43:44.807
18, 96456.83, 69233.34, -187500.02, -187500.02, -187500.02, -187500.02, -187500.02, -187500.02, 0.024, 0.056, -1.030, 15:43:44.807
19, 97793.23, 70820.29, -187500.02, -187500.02, -187500.02, -187500.02, -187500.02, -187500.02, 0.000, 0.000, 0.000, 15:43:44.807
20, 98178.07, 71215.59, -187500.02, -187500.02, -187500.02, -187500.02, -187500.02, -187500.02, 0.000, 0.000, 0.000, 15:43:44.808
21, 97806.11, 70755.63, -187500.02, -187500.02, -187500.02, -187500.02, -187500.02, -187500.02, 0.000, 0.000, 0.000, 15:43:44.808
22, 96806.88, 69582.86, -187500.02, -187500.02, -187500.02, -187500.02, -187500.02, -187500.02, 0.000, 0.000, 0.000, 15:43:44.808
23, 96425.06, 69204.48, -187500.02, -187500.02, -187500.02, -187500.02, -187500.02, -187500.02, 0.000, 0.000, 0.000, 15:43:44.808
24, 97760.58, 70793.02, -187500.02, -187500.02, -187500.02, -187500.02, -187500.02, -187500.02, 0.000, 0.000, 0.000, 15:43:44.808
25, 98155.20, 71200.70, -187500.02, -187500.02, -187500.02, -187500.02, -187500.02, -187500.02, 0.000, 0.000, 0.000, 15:43:44.809
26, 97790.17, 70736.74, -187500.02, -187500.02, -187500.02, -187500.02, -187500.02, -187500.02, 0.000, 0.000, 0.000, 15:43:44.809
27, 96796.23, 69562.36, -187500.02, -187500.02, -187500.02, -187500.02, -187500.02, -187500.02, 0.000, 0.000, 0.000, 15:43:44.809
28, 96420.70, 69192.20, -187500.02, -187500.02, -187500.02, -187500.02, -187500.02, -187500.02, 0.018, 0.056, -1.028, 15:43:44.809
29, 97760.89, 70787.03, -187500.02, -187500.02, -187500.02, -187500.02, -187500.02, -187500.02, 0.000, 0.000, 0.000, 15:43:44.809
30, 98149.13, 71193.30, -187500.02, -187500.02, -187500.02, -187500.02, -187500.02, -187500.02, 0.000, 0.000, 0.000, 15:43:44.809
31, 97792.66, 70737.46, -187500.02, -187500.02, -187500.02, -187500.02, -187500.02, -187500.02, 0.000, 0.000, 0.000, 15:43:44.810
32, 96802.83, 69572.13, -187500.02, -187500.02, -187500.02, -187500.02, -187500.02, -187500.02, 0.000, 0.000, 0.000, 15:43:44.810
33, 96422.16, 69193.51, -187500.02, -187500.02, -187500.02, -187500.02, -187500.02, -187500.02, 0.000, 0.000, 0.000, 15:43:44.810
34, 97771.82, 70792.64, -187500.02, -187500.02, -187500.02, -187500.02, -187500.02, -187500.02, 0.000, 0.000, 0.000, 15:43:44.810
35, 98164.55, 71203.78, -187500.02, -187500.02, -187500.02, -187500.02, -187500.02, -187500.02, 0.000, 0.000, 0.000, 15:43:44.810
36, 97799.56, 70749.33, -187500.02, -187500.02, -187500.02, -187500.02, -187500.02, -187500.02, 0.000, 0.000, 0.000, 15:43:44.810
37, 96825.09, 69594.12, -187500.02, -187500.02, -187500.02, -187500.02, -187500.02, -187500.02, 0.000, 0.000, 0.000, 15:43:44.810
38, 96441.94, 69209.67, -187500.02, -187500.02, -187500.02, -187500.02, -187500.02, -187500.02, 0.022, 0.052, -1.028, 15:43:44.811
39, 97785.30, 70807.84, -187500.02, -187500.02, -187500.02, -187500.02, -187500.02, -187500.02, 0.000, 0.000, 0.000, 15:43:44.811
40, 98185.16, 71215.72, -187500.02, -187500.02, -187500.02, -187500.02, -187500.02, -187500.02, 0.000, 0.000, 0.000, 15:43:44.811
41, 97823.75, 70761.69, -187500.02, -187500.02, -187500.02, -187500.02, -187500.02, -187500.02, 0.000, 0.000, 0.000, 15:43:44.811
42, 96839.24, 69607.55, -187500.02, -187500.02, -187500.02, -187500.02, -187500.02, -187500.02, 0.000, 0.000, 0.000, 15:43:44.811
43, 96445.65, 69213.25, -187500.02, -187500.02, -187500.02, -187500.02, -187500.02, -187500.02, 0.000, 0.000, 0.000, 15:43:44.811
44, 97784.97, 70806.70, -187500.02, -187500.02, -187500.02, -187500.02, -187500.02, -187500.02, 0.000, 0.000, 0.000, 15:43:44.811
45, 98184.75, 71221.28, -187500.02, -187500.02, -187500.02, -187500.02, -187500.02, -187500.02, 0.000, 0.000, 0.000, 15:43:44.811
46, 97821.98, 70768.59, -187500.02, -187500.02, -187500.02, -187500.02, -187500.02, -187500.02, 0.000, 0.000, 0.000, 15:43:44.811
47, 96836.00, 69600.52, -187500.02, -187500.02, -187500.02, -187500.02, -187500.02, -187500.02, 0.000, 0.000, 0.000, 15:43:44.812
48, 96428.08, 69187.01, -187500.02, -187500.02, -187500.02, -187500.02, -187500.02, -187500.02, 0.024, 0.048, -1.030, 15:43:44.812
49, 97759.44, 70774.54, -187500.02, -187500.02, -187500.02, -187500.02, -187500.02, -187500.02, 0.000, 0.000, 0.000, 15:43:44.812
50, 98165.41, 71199.18, -187500.02, -187500.02, -187500.02, -187500.02, -187500.02, -187500.02, 0.000, 0.000, 0.000, 15:43:44.812
51, 97807.63, 70749.37, -187500.02, -187500.02, -187500.02, -187500.02, -187500.02, -187500.02, 0.000, 0.000, 0.000, 15:43:44.812
52, 96825.25, 69587.86, -187500.02, -187500.02, -187500.02, -187500.02, -187500.02, -187500.02, 0.000, 0.000, 0.000, 15:43:44.812
53, 96422.07, 69175.98, -187500.02, -187500.02, -187500.02, -187500.02, -187500.02, -187500.02, 0.000, 0.000, 0.000, 15:43:44.812
54, 97749.85, 70762.73, -187500.02, -187500.02, -187500.02, -187500.02, -187500.02, -187500.02, 0.000, 0.000, 0.000, 15:43:44.813
55, 98156.88, 71192.88, -187500.02, -187500.02, -187500.02, -187500.02, -187500.02, -187500.02, 0.000, 0.000, 0.000, 15:43:44.813
56, 97809.64, 70752.08, -187500.02, -187500.02, -187500.02, -187500.02, -187500.02, -187500.02, 0.000, 0.000, 0.000, 15:43:44.813
57, 96834.08, 69599.73, -187500.02, -187500.02, -187500.02, -187500.02, -187500.02, -187500.02, 0.000, 0.000, 0.000, 15:43:44.813
58, 96418.41, 69179.90, -187500.02, -187500.02, -187500.02, -187500.02, -187500.02, -187500.02, 0.020, 0.058, -1.022, 15:43:44.813
59, 97755.80, 70770.00, -187500.02, -187500.02, -187500.02, -187500.02, -187500.02, -187500.02, 0.000, 0.000, 0.000, 15:43:44.813
60, 98175.01, 71204.16, -187500.02, -187500.02, -187500.02, -187500.02, -187500.02, -187500.02, 0.000, 0.000, 0.000, 15:43:44.813
61, 97807.88, 70747.25, -187500.02, -187500.02, -187500.02, -187500.02, -187500.02, -187500.02, 0.000, 0.000, 0.000, 15:43:44.813
62, 96832.36, 69599.15, -187500.02, -187500.02, -187500.02, -187500.02, -187500.02, -187500.02, 0.000, 0.000, 0.000, 15:43:44.814
63, 96423.34, 69182.63, -187500.02, -187500.02, -187500.02, -187500.02, -187500.02, -187500.02, 0.000, 0.000, 0.000, 15:43:44.814
64, 97756.34, 70770.29, -187500.02, -187500.02, -187500.02, -187500.02, -187500.02, -187500.02, 0.000, 0.000, 0.000, 15:43:44.814
65, 98173.91, 71204.48, -187500.02, -187500.02, -187500.02, -187500.02, -187500.02, -187500.02, 0.000, 0.000, 0.000, 15:43:44.814
66, 97804.16, 70743.91, -187500.02, -187500.02, -187500.02, -187500.02, -187500.02, -187500.02, 0.000, 0.000, 0.000, 15:43:44.814
67, 96825.66, 69589.67, -187500.02, -187500.02, -187500.02, -187500.02, -187500.02, -187500.02, 0.000, 0.000, 0.000, 15:43:44.814
68, 96404.61, 69165.75, -187500.02, -187500.02, -187500.02, -187500.02, -187500.02, -187500.02, 0.020, 0.056, -1.024, 15:43:44.814
69, 97732.59, 70750.04, -187500.02, -187500.02, -187500.02, -187500.02, -187500.02, -187500.02, 0.000, 0.000, 0.000, 15:43:44.814
70, 98153.26, 71193.63, -187500.02, -187500.02, -187500.02, -187500.02, -187500.02, -187500.02, 0.000, 0.000, 0.000, 15:43:44.815
71, 97792.59, 70737.73, -187500.02, -187500.02, -187500.02, -187500.02, -187500.02, -187500.02, 0.000, 0.000, 0.000, 15:43:44.815
72, 96821.38, 69586.56, -187500.02, -187500.02, -187500.02, -187500.02, -187500.02, -187500.02, 0.000, 0.000, 0.000, 15:43:44.815
73, 96398.47, 69154.64, -187500.02, -187500.02, -187500.02, -187500.02, -187500.02, -187500.02, 0.000, 0.000, 0.000, 15:43:44.815
74, 97725.04, 70741.03, -187500.02, -187500.02, -187500.02, -187500.02, -187500.02, -187500.02, 0.000, 0.000, 0.000, 15:43:44.815
75, 98150.26, 71187.53, -187500.02, -187500.02, -187500.02, -187500.02, -187500.02, -187500.02, 0.000, 0.000, 0.000, 15:43:44.815
76, 97797.73, 70744.77, -187500.02, -187500.02, -187500.02, -187500.02, -187500.02, -187500.02, 0.000, 0.000, 0.000, 15:43:44.815
77, 96825.16, 69597.56, -187500.02, -187500.02, -187500.02, -187500.02, -187500.02, -187500.02, 0.000, 0.000, 0.000, 15:43:44.815
78, 96396.16, 69156.09, -187500.02, -187500.02, -187500.02, -187500.02, -187500.02, -187500.02, 0.018, 0.054, -1.026, 15:43:44.815
79, 97727.39, 70741.26, -187500.02, -187500.02, -187500.02, -187500.02, -187500.02, -187500.02, 0.000, 0.000, 0.000, 15:43:44.816
80, 98158.66, 71194.41, -187500.02, -187500.02, -187500.02, -187500.02, -187500.02, -187500.02, 0.000, 0.000, 0.000, 15:43:44.816
81, 97805.48, 70752.50, -187500.02, -187500.02, -187500.02, -187500.02, -187500.02, -187500.02, 0.000, 0.000, 0.000, 15:43:44.816
82, 96842.17, 69607.53, -187500.02, -187500.02, -187500.02, -187500.02, -187500.02, -187500.02, 0.000, 0.000, 0.000, 15:43:44.816
83, 96396.23, 69143.98, -187500.02, -187500.02, -187500.02, -187500.02, -187500.02, -187500.02, 0.000, 0.000, 0.000, 15:43:44.816
84, 97720.95, 70725.32, -187500.02, -187500.02, -187500.02, -187500.02, -187500.02, -187500.02, 0.000, 0.000, 0.000, 15:43:44.816
85, 98164.01, 71192.23, -187500.02, -187500.02, -187500.02, -187500.02, -187500.02, -187500.02, 0.000, 0.000, 0.000, 15:43:44.816
86, 97811.84, 70747.27, -187500.02, -187500.02, -187500.02, -187500.02, -187500.02, -187500.02, 0.000, 0.000, 0.000, 15:43:44.816
87, 96839.84, 69598.19, -187500.02, -187500.02, -187500.02, -187500.02, -187500.02, -187500.02, 0.000, 0.000, 0.000, 15:43:44.817
88, 96392.16, 69138.97, -187500.02, -187500.02, -187500.02, -187500.02, -187500.02, -187500.02, 0.022, 0.054, -1.024, 15:43:44.817
89, 97725.84, 70730.51, -187500.02, -187500.02, -187500.02, -187500.02, -187500.02, -187500.02, 0.000, 0.000, 0.000, 15:43:44.817
90, 98164.19, 71190.93, -187500.02, -187500.02, -187500.02, -187500.02, -187500.02, -187500.02, 0.000, 0.000, 0.000, 15:43:44.817
91, 97807.61, 70736.30, -187500.02, -187500.02, -187500.02, -187500.02, -187500.02, -187500.02, 0.000, 0.000, 0.000, 15:43:44.817
92, 96835.35, 69588.87, -187500.02, -187500.02, -187500.02, -187500.02, -187500.02, -187500.02, 0.000, 0.000, 0.000, 15:43:44.817
93, 96378.04, 69116.27, -187500.02, -187500.02, -187500.02, -187500.02, -187500.02, -187500.02, 0.000, 0.000, 0.000, 15:43:44.817
94, 97705.82, 70707.46, -187500.02, -187500.02, -187500.02, -187500.02, -187500.02, -187500.02, 0.000, 0.000, 0.000, 15:43:44.817
95, 98148.97, 71175.98, -187500.02, -187500.02, -187500.02, -187500.02, -187500.02, -187500.02, 0.000, 0.000, 0.000, 15:43:44.818
96, 97797.51, 70727.02, -187500.02, -187500.02, -187500.02, -187500.02, -187500.02, -187500.02, 0.000, 0.000, 0.000, 15:43:44.818
97, 96834.34, 69591.22, -187500.02, -187500.02, -187500.02, -187500.02, -187500.02, -187500.02, 0.000, 0.000, 0.000, 15:43:44.818
98, 96377.32, 69118.74, -187500.02, -187500.02, -187500.02, -187500.02, -187500.02, -187500.02, 0.024, 0.056, -1.020, 15:43:44.818
99, 97694.35, 70686.80, -187500.02, -187500.02, -187500.02, -187500.02, -187500.02, -187500.02, 0.000, 0.000, 0.000, 15:43:44.818
100, 98142.62, 71160.53, -187500.02, -187500.02, -187500.02, -187500.02, -187500.02, -187500.02, 0.000, 0.000, 0.000, 15:43:44.818
101, 97802.27, 70728.47, -187500.02, -187500.02, -187500.02, -187500.02, -187500.02, -187500.02, 0.000, 0.000, 0.000, 15:43:44.818
102, 96843.04, 69594.41, -187500.02, -187500.02, -187500.02, -187500.02, -187500.02, -187500.02, 0.000, 0.000, 0.000, 15:43:44.819
103, 96385.14, 69115.03, -187500.02, -187500.02, -187500.02, -187500.02, -187500.02, -187500.02, 0.000, 0.000, 0.000, 15:43:44.819
104, 97698.55, 70684.02, -187500.02, -187500.02, -187500.02, -187500.02, -187500.02, -187500.02, 0.000, 0.000, 0.000, 15:43:45.280
105, 98146.57, 71159.64, -187500.02, -187500.02, -187500.02, -187500.02, -187500.02, -187500.02, 0.000, 0.000, 0.000, 15:43:45.280
106, 97799.23, 70726.39, -187500.02, -187500.02, -187500.02, -187500.02, -187500.02, -187500.02, 0.000, 0.000, 0.000, 15:43:45.281
107, 96839.02, 69591.73, -187500.02, -187500.02, -187500.02, -187500.02, -187500.02, -187500.02, 0.000, 0.000, 0.000, 15:43:45.281
108, 96364.24, 69097.73, -187500.02, -187500.02, -187500.02, -187500.02, -187500.02, -187500.02, 0.020, 0.056, -1.024, 15:43:45.281
109, 97684.07, 70670.09, -187500.02, -187500.02, -187500.02, -187500.02, -187500.02, -187500.02, 0.000, 0.000, 0.000, 15:43:45.281
110, 98142.75, 71152.48, -187500.02, -187500.02, -187500.02, -187500.02, -187500.02, -187500.02, 0.000, 0.000, 0.000, 15:43:45.281
111, 97797.91, 70713.20, -187500.02, -187500.02, -187500.02, -187500.02, -187500.02, -187500.02, 0.000, 0.000, 0.000, 15:43:45.281
112, 96838.46, 69582.48, -187500.02, -187500.02, -187500.02, -187500.02, -187500.02, -187500.02, 0.000, 0.000, 0.000, 15:43:45.282
113, 96361.59, 69085.59, -187500.02, -187500.02, -187500.02, -187500.02, -187500.02, -187500.02, 0.000, 0.000, 0.000, 15:43:45.282
114, 97672.00, 70649.05, -187500.02, -187500.02, -187500.02, -187500.02, -187500.02, -187500.02, 0.000, 0.000, 0.000, 15:43:45.282
115, 98134.17, 71131.98, -187500.02, -187500.02, -187500.02, -187500.02, -187500.02, -187500.02, 0.000, 0.000, 0.000, 15:43:45.282
116, 97787.49, 70700.69, -187500.02, -187500.02, -187500.02, -187500.02, -187500.02, -187500.02, 0.000, 0.000, 0.000, 15:43:45.282
117, 96831.64, 69572.06, -187500.02, -187500.02, -187500.02, -187500.02, -187500.02, -187500.02, 0.000, 0.000, 0.000, 15:43:45.283
118, 96347.64, 69067.29, -187500.02, -187500.02, -187500.02, -187500.02, -187500.02, -187500.02, 0.016, 0.058, -1.026, 15:43:45.283
119, 97661.52, 70637.70, -187500.02, -187500.02, -187500.02, -187500.02, -187500.02, -187500.02, 0.000, 0.000, 0.000, 15:43:45.283
120, 98123.91, 71119.76, -187500.02, -187500.02, -187500.02, -187500.02, -187500.02, -187500.02, 0.000, 0.000, 0.000, 15:43:45.283
121, 97792.86, 70698.61, -187500.02, -187500.02, -187500.02, -187500.02, -187500.02, -187500.02, 0.000, 0.000, 0.000, 15:43:45.283
122, 96843.42, 69581.13, -187500.02, -187500.02, -187500.02, -187500.02, -187500.02, -187500.02, 0.000, 0.000, 0.000, 15:43:45.283
123, 96362.03, 69080.43, -187500.02, -187500.02, -187500.02, -187500.02, -187500.02, -187500.02, 0.000, 0.000, 0.000, 15:43:45.284
124, 97678.38, 70651.52, -187500.02, -187500.02, -187500.02, -187500.02, -187500.02, -187500.02, 0.000, 0.000, 0.000, 15:43:45.284
125, 98150.15, 71149.60, -187500.02, -187500.02, -187500.02, -187500.02, -187500.02, -187500.02, 0.000, 0.000, 0.000, 15:43:45.284
126, 97809.91, 70716.96, -187500.02, -187500.02, -187500.02, -187500.02, -187500.02, -187500.02, 0.000, 0.000, 0.000, 15:43:45.284
127, 96856.45, 69592.91, -187500.02, -187500.02, -187500.02, -187500.02, -187500.02, -187500.02, 0.000, 0.000, 0.000, 15:43:45.284
128, 96365.84, 69078.24, -187500.02, -187500.02, -187500.02, -187500.02, -187500.02, -187500.02, 0.012, 0.054, -1.022, 15:43:45.284
129, 97685.01, 70655.00, -187500.02, -187500.02, -187500.02, -187500.02, -187500.02, -187500.02, 0.000, 0.000, 0.000, 15:43:45.284
130, 98156.79, 71153.55, -187500.02, -187500.02, -187500.02, -187500.02, -187500.02, -187500.02, 0.000, 0.000, 0.000, 15:43:45.284
131, 97809.29, 70714.50, -187500.02, -187500.02, -187500.02, -187500.02, -187500.02, -187500.02, 0.000, 0.000, 0.000, 15:43:45.285
132, 96855.09, 69588.78, -187500.02, -187500.02, -187500.02, -187500.02, -187500.02, -187500.02, 0.000, 0.000, 0.000, 15:43:45.285
133, 96351.59, 69063.45, -187500.02, -187500.02, -187500.02, -187500.02, -187500.02, -187500.02, 0.000, 0.000, 0.000, 15:43:45.285
134, 97668.25, 70636.12, -187500.02, -187500.02, -187500.02, -187500.02, -187500.02, -187500.02, 0.000, 0.000, 0.000, 15:43:45.285
135, 98136.96, 71135.20, -187500.02, -187500.02, -187500.02, -187500.02, -187500.02, -187500.02, 0.000, 0.000, 0.000, 15:43:45.285
136, 97796.61, 70698.07, -187500.02, -187500.02, -187500.02, -187500.02, -187500.02, -187500.02, 0.000, 0.000, 0.000, 15:43:45.285
137, 96848.36, 69572.48, -187500.02, -187500.02, -187500.02, -187500.02, -187500.02, -187500.02, 0.000, 0.000, 0.000, 15:43:45.285
138, 96346.37, 69049.19, -187500.02, -187500.02, -187500.02, -187500.02, -187500.02, -187500.02, 0.018, 0.052, -1.026, 15:43:45.285
139, 97651.59, 70610.59, -187500.02, -187500.02, -187500.02, -187500.02, -187500.02, -187500.02, 0.000, 0.000, 0.000, 15:43:45.286
140, 98124.00, 71120.72, -187500.02, -187500.02, -187500.02, -187500.02, -187500.02, -187500.02, 0.000, 0.000, 0.000, 15:43:45.286
141, 97780.41, 70689.31, -187500.02, -187500.02, -187500.02, -187500.02, -187500.02, -187500.02, 0.000, 0.000, 0.000, 15:43:45.286
142, 96839.58, 69570.95, -187500.02, -187500.02, -187500.02, -187500.02, -187500.02, -187500.02, 0.000, 0.000, 0.000, 15:43:45.286
143, 96336.75, 69042.37, -187500.02, -187500.02, -187500.02, -187500.02, -187500.02, -187500.02, 0.000, 0.000, 0.000, 15:43:45.286
144, 97647.57, 70608.96, -187500.02, -187500.02, -187500.02, -187500.02, -187500.02, -187500.02, 0.000, 0.000, 0.000, 15:43:45.286
145, 98128.65, 71120.52, -187500.02, -187500.02, -187500.02, -187500.02, -187500.02, -187500.02, 0.000, 0.000, 0.000, 15:43:45.286
146, 97790.98, 70694.77, -187500.02, -187500.02, -187500.02, -187500.02, -187500.02, -187500.02, 0.000, 0.000, 0.000, 15:43:45.286
147, 96854.15, 69578.56, -187500.02, -187500.02, -187500.02, -187500.02, -187500.02, -187500.02, 0.018, 0.056, -1.032, 15:43:45.287
148, 96349.74, 69046.46, -187500.02, -187500.02, -187500.02, -187500.02, -187500.02, -187500.02, 0.000, 0.000, 0.000, 15:43:45.287
149, 97671.33, 70629.43, -187500.02, -187500.02, -187500.02, -187500.02, -187500.02, -187500.02, 0.000, 0.000, 0.000, 15:43:45.287
150, 98159.09, 71145.22, -187500.02, -187500.02, -187500.02, -187500.02, -187500.02, -187500.02, 0.000, 0.000, 0.000, 15:43:45.287
151, 97818.14, 70713.61, -187500.02, -187500.02, -187500.02, -187500.02, -187500.02, -187500.02, 0.000, 0.000, 0.000, 15:43:45.287
152, 96878.73, 69605.09, -187500.02, -187500.02, -187500.02, -187500.02, -187500.02, -187500.02, 0.000, 0.000, 0.000, 15:43:45.287
153, 96358.14, 69057.68, -187500.02, -187500.02, -187500.02, -187500.02, -187500.02, -187500.02, 0.000, 0.000, 0.000, 15:43:45.288
154, 97660.29, 70616.27, -187500.02, -187500.02, -187500.02, -187500.02, -187500.02, -187500.02, 0.000, 0.000, 0.000, 15:43:45.288
155, 98146.04, 71131.59, -187500.02, -187500.02, -187500.02, -187500.02, -187500.02, -187500.02, 0.000, 0.000, 0.000, 15:43:45.288
156, 97806.18, 70701.13, -187500.02, -187500.02, -187500.02, -187500.02, -187500.02, -187500.02, 0.000, 0.000, 0.000, 15:43:45.288
157, 96866.84, 69585.11, -187500.02, -187500.02, -187500.02, -187500.02, -187500.02, -187500.02, 0.024, 0.058, -1.032, 15:43:45.288
158, 96342.88, 69036.63, -187500.02, -187500.02, -187500.02, -187500.02, -187500.02, -187500.02, 0.000, 0.000, 0.000, 15:43:45.288
159, 97639.19, 70591.03, -187500.02, -187500.02, -187500.02, -187500.02, -187500.02, -187500.02, 0.000, 0.000, 0.000, 15:43:45.288
160, 98138.84, 71125.48, -187500.02, -187500.02, -187500.02, -187500.02, -187500.02, -187500.02, 0.000, 0.000, 0.000, 15:43:45.288
161, 97792.32, 70684.88, -187500.02, -187500.02, -187500.02, -187500.02, -187500.02, -187500.02, 0.000, 0.000, 0.000, 15:43:45.289
162, 96851.31, 69567.16, -187500.02, -187500.02, -187500.02, -187500.02, -187500.02, -187500.02, 0.000, 0.000, 0.000, 15:43:45.289
163, 96318.88, 69005.96, -187500.02, -187500.02, -187500.02, -187500.02, -187500.02, -187500.02, 0.000, 0.000, 0.000, 15:43:45.289
164, 97624.28, 70563.02, -187500.02, -187500.02, -187500.02, -187500.02, -187500.02, -187500.02, 0.000, 0.000, 0.000, 15:43:45.289
165, 98124.89, 71104.67, -187500.02, -187500.02, -187500.02, -187500.02, -187500.02, -187500.02, 0.000, 0.000, 0.000, 15:43:45.289
166, 97787.34, 70678.88, -187500.02, -187500.02, -187500.02, -187500.02, -187500.02, -187500.02, 0.000, 0.000, 0.000, 15:43:45.289
167, 96859.49, 69571.73, -187500.02, -187500.02, -187500.02, -187500.02, -187500.02, -187500.02, 0.024, 0.052, -1.034, 15:43:45.289
168, 96336.66, 69022.48, -187500.02, -187500.02, -187500.02, -187500.02, -187500.02, -187500.02, 0.000, 0.000, 0.000, 15:43:45.289
169, 97631.68, 70576.03, -187500.02, -187500.02, -187500.02, -187500.02, -187500.02, -187500.02, 0.000, 0.000, 0.000, 15:43:45.290
170, 98142.95, 71114.38, -187500.02, -187500.02, -187500.02, -187500.02, -187500.02, -187500.02, 0.000, 0.000, 0.000, 15:43:45.290
171, 97808.80, 70693.38, -187500.02, -187500.02, -187500.02, -187500.02, -187500.02, -187500.02, 0.000, 0.000, 0.000, 15:43:45.290
172, 96870.87, 69586.66, -187500.02, -187500.02, -187500.02, -187500.02, -187500.02, -187500.02, 0.000, 0.000, 0.000, 15:43:45.290
173, 96342.20, 69029.23, -187500.02, -187500.02, -187500.02, -187500.02, -187500.02, -187500.02, 0.000, 0.000, 0.000, 15:43:45.290
174, 97636.06, 70577.46, -187500.02, -187500.02, -187500.02, -187500.02, -187500.02, -187500.02, 0.000, 0.000, 0.000, 15:43:45.290
175, 98147.24, 71117.13, -187500.02, -187500.02, -187500.02, -187500.02, -187500.02, -187500.02, 0.000, 0.000, 0.000, 15:43:45.290
176, 97814.72, 70698.68, -187500.02, -187500.02, -187500.02, -187500.02, -187500.02, -187500.02, 0.000, 0.000, 0.000, 15:43:45.290
177, 96879.90, 69594.10, -187500.02, -187500.02, -187500.02, -187500.02, -187500.02, -187500.02, 0.020, 0.052, -1.030, 15:43:45.291
178, 96329.31, 69008.91, -187500.02, -187500.02, -187500.02, -187500.02, -187500.02, -187500.02, 0.000, 0.000, 0.000, 15:43:45.291
179, 97628.02, 70562.47, -187500.02, -187500.02, -187500.02, -187500.02, -187500.02, -187500.02, 0.000, 0.000, 0.000, 15:43:45.291
180, 98141.68, 71115.27, -187500.02, -187500.02, -187500.02, -187500.02, -187500.02, -187500.02, 0.000, 0.000, 0.000, 15:43:45.291
181, 97795.56, 70679.92, -187500.02, -187500.02, -187500.02, -187500.02, -187500.02, -187500.02, 0.000, 0.000, 0.000, 15:43:45.291
182, 96867.14, 69576.87, -187500.02, -187500.02, -187500.02, -187500.02, -187500.02, -187500.02, 0.000, 0.000, 0.000, 15:43:45.291
183, 96312.55, 68991.12, -187500.02, -187500.02, -187500.02, -187500.02, -187500.02, -187500.02, 0.000, 0.000, 0.000, 15:43:45.291
184, 97595.85, 70530.50, -187500.02, -187500.02, -187500.02, -187500.02, -187500.02, -187500.02, 0.000, 0.000, 0.000, 15:43:45.291
185, 98104.51, 71077.56, -187500.02, -187500.02, -187500.02, -187500.02, -187500.02, -187500.02, 0.000, 0.000, 0.000, 15:43:45.292
186, 97773.70, 70656.50, -187500.02, -187500.02, -187500.02, -187500.02, -187500.02, -187500.02, 0.000, 0.000, 0.000, 15:43:45.292
187, 96847.52, 69556.30, -187500.02, -187500.02, -187500.02, -187500.02, -187500.02, -187500.02, 0.024, 0.052, -1.030, 15:43:45.292
188, 96293.16, 68965.81, -187500.02, -187500.02, -187500.02, -187500.02, -187500.02, -187500.02, 0.000, 0.000, 0.000, 15:43:45.292
189, 97581.41, 70510.84, -187500.02, -187500.02, -187500.02, -187500.02, -187500.02, -187500.02, 0.000, 0.000, 0.000, 15:43:45.292
190, 98096.23, 71062.18, -187500.02, -187500.02, -187500.02, -187500.02, -187500.02, -187500.02, 0.000, 0.000, 0.000, 15:43:45.292
191, 97763.66, 70639.34, -187500.02, -187500.02, -187500.02, -187500.02, -187500.02, -187500.02, 0.000, 0.000, 0.000, 15:43:45.292
192, 96842.41, 69550.76, -187500.02, -187500.02, -187500.02, -187500.02, -187500.02, -187500.02, 0.000, 0.000, 0.000, 15:43:45.292
193, 96281.66, 68956.65, -187500.02, -187500.02, -187500.02, -187500.02, -187500.02, -187500.02, 0.000, 0.000, 0.000, 15:43:45.292
194, 97577.52, 70507.77, -187500.02, -187500.02, -187500.02, -187500.02, -187500.02, -187500.02, 0.000, 0.000, 0.000, 15:43:45.293
195, 98102.88, 71070.74, -187500.02, -187500.02, -187500.02, -187500.02, -187500.02, -187500.02, 0.000, 0.000, 0.000, 15:43:45.293
196, 97783.91, 70663.74, -187500.02, -187500.02, -187500.02, -187500.02, -187500.02, -187500.02, 0.000, 0.000, 0.000, 15:43:45.293
197, 96870.98, 69576.02, -187500.02, -187500.02, -187500.02, -187500.02, -187500.02, -187500.02, 0.016, 0.048, -1.030, 15:43:45.293
198, 96307.13, 68980.16, -187500.02, -187500.02, -187500.02, -187500.02, -187500.02, -187500.02, 0.000, 0.000, 0.000, 15:43:45.293
199, 97592.83, 70527.04, -187500.02, -187500.02, -187500.02, -187500.02, -187500.02, -187500.02, 0.000, 0.000, 0.000, 15:43:45.293
200, 98131.60, 71100.13, -187500.02, -187500.02, -187500.02, -187500.02, -187500.02, -187500.02, 0.000, 0.000, 0.000, 15:43:45.293
201, 97802.65, 70680.30, -187500.02, -187500.02, -187500.02, -187500.02, -187500.02, -187500.02, 0.000, 0.000, 0.000, 15:43:45.293
202, 96888.98, 69598.55, -187500.02, -187500.02, -187500.02, -187500.02, -187500.02, -187500.02, 0.000, 0.000, 0.000, 15:43:45.294
203, 96322.29, 68990.29, -187500.02, -187500.02, -187500.02, -187500.02, -187500.02, -187500.02, 0.000, 0.000, 0.000, 15:43:45.294
204, 97608.86, 70533.34, -187500.02, -187500.02, -187500.02, -187500.02, -187500.02, -187500.02, 0.000, 0.000, 0.000, 15:43:45.294
205, 98133.52, 71099.84, -187500.02, -187500.02, -187500.02, -187500.02, -187500.02, -187500.02, 0.000, 0.000, 0.000, 15:43:45.294
206, 97787.74, 70671.99, -187500.02, -187500.02, -187500.02, -187500.02, -187500.02, -187500.02, 0.000, 0.000, 0.000, 15:43:45.294
207, 96866.71, 69578.36, -187500.02, -187500.02, -187500.02, -187500.02, -187500.02, -187500.02, 0.018, 0.052, -1.030, 15:43:45.294
208, 96304.37, 68973.59, -187500.02, -187500.02, -187500.02, -187500.02, -187500.02, -187500.02, 0.000, 0.000, 0.000, 15:43:45.294
209, 97581.27, 70508.76, -187500.02, -187500.02, -187500.02, -187500.02, -187500.02, -187500.02, 0.000, 0.000, 0.000, 15:43:45.295
210, 98109.24, 71079.95, -187500.02, -187500.02, -187500.02, -187500.02, -187500.02, -187500.02, 0.000, 0.000, 0.000, 15:43:45.295
211, 97768.72, 70646.77, -187500.02, -187500.02, -187500.02, -187500.02, -187500.02, -187500.02, 0.000, 0.000, 0.000, 15:43:45.295
212, 96851.78, 69560.99, -187500.02, -187500.02, -187500.02, -187500.02, -187500.02, -187500.02, 0.000, 0.000, 0.000, 15:43:45.295
213, 96269.18, 68944.40, -187500.02, -187500.02, -187500.02, -187500.02, -187500.02, -187500.02, 0.000, 0.000, 0.000, 15:43:45.295
214, 97547.50, 70472.37, -187500.02, -187500.02, -187500.02, -187500.02, -187500.02, -187500.02, 0.000, 0.000, 0.000, 15:43:45.295
215, 98078.98, 71046.45, -187500.02, -187500.02, -187500.02, -187500.02, -187500.02, -187500.02, 0.000, 0.000, 0.000, 15:43:45.295
216, 97752.65, 70634.13, -187500.02, -187500.02, -187500.02, -187500.02, -187500.02, -187500.02, 0.000, 0.000, 0.000, 15:43:45.295
217, 96839.73, 69548.14, -187500.02, -187500.02, -187500.02, -187500.02, -187500.02, -187500.02, 0.020, 0.050, -1.030, 15:43:45.296
218, 96249.54, 68919.30, -187500.02, -187500.02, -187500.02, -187500.02, -187500.02, -187500.02, 0.000, 0.000, 0.000, 15:43:45.296
219, 97530.96, 70457.73, -187500.02, -187500.02, -187500.02, -187500.02, -187500.02, -187500.02, 0.000, 0.000, 0.000, 15:43:45.296
220, 98078.02, 71049.78, -187500.02, -187500.02, -187500.02, -187500.02, -187500.02, -187500.02, 0.000, 0.000, 0.000, 15:43:45.296
221, 97761.32, 70635.82, -187500.02, -187500.02, -187500.02, -187500.02, -187500.02, -187500.02, 0.000, 0.000, 0.000, 15:43:45.296
222, 96855.94, 69559.70, -187500.02, -187500.02, -187500.02, -187500.02, -187500.02, -187500.02, 0.000, 0.000, 0.000, 15:43:45.296
223, 96268.83, 68935.73, -187500.02, -187500.02, -187500.02, -187500.02, -187500.02, -187500.02, 0.000, 0.000, 0.000, 15:43:45.296
224, 97553.38, 70475.70, -187500.02, -187500.02, -187500.02, -187500.02, -187500.02, -187500.02, 0.000, 0.000, 0.000, 15:43:45.761
225, 98103.37, 71070.07, -187500.02, -187500.02, -187500.02, -187500.02, -187500.02, -187500.02, 0.000, 0.000, 0.000, 15:43:45.761
226, 97773.30, 70652.84, -187500.02, -187500.02, -187500.02, -187500.02, -187500.02, -187500.02, 0.000, 0.000, 0.000, 15:43:45.761
227, 96867.74, 69583.23, -187500.02, -187500.02, -187500.02, -187500.02, -187500.02, -187500.02, 0.022, 0.048, -1.024, 15:43:45.761
228, 96279.02, 68950.37, -187500.02, -187500.02, -187500.02, -187500.02, -187500.02, -187500.02, 0.000, 0.000, 0.000, 15:43:45.761
229, 97545.60, 70470.94, -187500.02, -187500.02, -187500.02, -187500.02, -187500.02, -187500.02, 0.000, 0.000, 0.000, 15:43:45.762
230, 98100.30, 71069.45, -187500.02, -187500.02, -187500.02, -187500.02, -187500.02, -187500.02, 0.000, 0.000, 0.000, 15:43:45.762
231, 97778.73, 70654.55, -187500.02, -187500.02, -187500.02, -187500.02, -187500.02, -187500.02, 0.000, 0.000, 0.000, 15:43:45.762
232, 96879.99, 69586.88, -187500.02, -187500.02, -187500.02, -187500.02, -187500.02, -187500.02, 0.000, 0.000, 0.000, 15:43:45.762
233, 96281.23, 68942.50, -187500.02, -187500.02, -187500.02, -187500.02, -187500.02, -187500.02, 0.000, 0.000, 0.000, 15:43:45.762
234, 97544.35, 70464.52, -187500.02, -187500.02, -187500.02, -187500.02, -187500.02, -187500.02, 0.000, 0.000, 0.000, 15:43:45.762
235, 98098.47, 71064.33, -187500.02, -187500.02, -187500.02, -187500.02, -187500.02, -187500.02, 0.000, 0.000, 0.000, 15:43:45.763
236, 97771.35, 70646.40, -187500.02, -187500.02, -187500.02, -187500.02, -187500.02, -187500.02, 0.000, 0.000, 0.000, 15:43:45.763
237, 96865.15, 69568.98, -187500.02, -187500.02, -187500.02, -187500.02, -187500.02, -187500.02, 0.022, 0.052, -1.032, 15:43:45.763
238, 96251.62, 68908.80, -187500.02, -187500.02, -187500.02, -187500.02, -187500.02, -187500.02, 0.000, 0.000, 0.000, 15:43:45.763
239, 97513.48, 70429.88, -187500.02, -187500.02, -187500.02, -187500.02, -187500.02, -187500.02, 0.000, 0.000, 0.000, 15:43:45.763
240, 98081.24, 71042.20, -187500.02, -187500.02, -187500.02, -187500.02, -187500.02, -187500.02, 0.000, 0.000, 0.000, 15:43:45.763
241, 97757.61, 70628.70, -187500.02, -187500.02, -187500.02, -187500.02, -187500.02, -187500.02, 0.000, 0.000, 0.000, 15:43:45.764
242, 96854.27, 69556.97, -187500.02, -187500.02, -187500.02, -187500.02, -187500.02, -187500.02, 0.000, 0.000, 0.000, 15:43:45.764
243, 96241.13, 68897.59, -187500.02, -187500.02, -187500.02, -187500.02, -187500.02, -187500.02, 0.000, 0.000, 0.000, 15:43:45.764
244, 97504.79, 70414.79, -187500.02, -187500.02, -187500.02, -187500.02, -187500.02, -187500.02, 0.000, 0.000, 0.000, 15:43:45.764
245, 98077.44, 71038.83, -187500.02, -187500.02, -187500.02, -187500.02, -187500.02, -187500.02, 0.000, 0.000, 0.000, 15:43:45.764
246, 97749.14, 70621.09, -187500.02, -187500.02, -187500.02, -187500.02, -187500.02, -187500.02, 0.000, 0.000, 0.000, 15:43:45.765
247, 96848.81, 69552.34, -187500.02, -187500.02, -187500.02, -187500.02, -187500.02, -187500.02, 0.018, 0.050, -1.026, 15:43:45.765
248, 96249.09, 68901.10, -187500.02, -187500.02, -187500.02, -187500.02, -187500.02, -187500.02, 0.000, 0.000, 0.000, 15:43:45.765
249, 97519.65, 70423.62, -187500.02, -187500.02, -187500.02, -187500.02, -187500.02, -187500.02, 0.000, 0.000, 0.000, 15:43:45.765
250, 98074.73, 71035.18, -187500.02, -187500.02, -187500.02, -187500.02, -187500.02, -187500.02, 0.000, 0.000, 0.000, 15:43:45.765
251, 97760.89, 70630.88, -187500.02, -187500.02, -187500.02, -187500.02, -187500.02, -187500.02, 0.000, 0.000, 0.000, 15:43:45.765
252, 96873.84, 69569.94, -187500.02, -187500.02, -187500.02, -187500.02, -187500.02, -187500.02, 0.000, 0.000, 0.000, 15:43:45.765
253, 96255.37, 68905.51, -187500.02, -187500.02, -187500.02, -187500.02, -187500.02, -187500.02, 0.000, 0.000, 0.000, 15:43:45.765
254, 97513.62, 70422.37, -187500.02, -187500.02, -187500.02, -187500.02, -187500.02, -187500.02, 0.000, 0.000, 0.000, 15:43:45.765
255, 98089.58, 71042.54, -187500.02, -187500.02, -187500.02, -187500.02, -187500.02, -187500.02, 0.000, 0.000, 0.000, 15:43:45.766
0, 97760.02, 70623.38, -187500.02, -187500.02, -187500.02, -187500.02, -187500.02, -187500.02, 0.000, 0.000, 0.000, 15:43:45.766
1, 96868.34, 69561.15, -187500.02, -187500.02, -187500.02, -187500.02, -187500.02, -187500.02, 0.020, 0.056, -1.022, 15:43:45.766
2, 96247.50, 68893.23, -187500.02, -187500.02, -187500.02, -187500.02, -187500.02, -187500.02, 0.000, 0.000, 0.000, 15:43:45.766
3, 97512.59, 70411.32, -187500.02, -187500.02, -187500.02, -187500.02, -187500.02, -187500.02, 0.000, 0.000, 0.000, 15:43:45.766
4, 98091.95, 71048.21, -187500.02, -187500.02, -187500.02, -187500.02, -187500.02, -187500.02, 0.000, 0.000, 0.000, 15:43:45.766
5, 97771.65, 70638.35, -187500.02, -187500.02, -187500.02, -187500.02, -187500.02, -187500.02, 0.000, 0.000, 0.000, 15:43:45.766
6, 96875.88, 69566.56, -187500.02, -187500.02, -187500.02, -187500.02, -187500.02, -187500.02, 0.000, 0.000, 0.000, 15:43:45.766
7, 96243.37, 68886.58, -187500.02, -187500.02, -187500.02, -187500.02, -187500.02, -187500.02, 0.000, 0.000, 0.000, 15:43:45.767
8, 97500.45, 70402.13, -187500.02, -187500.02, -187500.02, -187500.02, -187500.02, -187500.02, 0.000, 0.000, 0.000, 15:43:45.767
9, 98086.83, 71033.53, -187500.02, -187500.02, -187500.02, -187500.02, -187500.02, -187500.02, 0.000, 0.000, 0.000, 15:43:45.767
10, 97774.77, 70634.13, -187500.02, -187500.02, -187500.02, -187500.02, -187500.02, -187500.02, 0.022, 0.054, -1.020, 15:43:45.767
11, 96879.79, 69576.28, -187500.02, -187500.02, -187500.02, -187500.02, -187500.02, -187500.02, 0.000, 0.000, 0.000, 15:43:45.767
12, 96250.03, 68893.98, -187500.02, -187500.02, -187500.02, -187500.02, -187500.02, -187500.02, 0.000, 0.000, 0.000, 15:43:45.767
13, 97509.70, 70405.55, -187500.02, -187500.02, -187500.02, -187500.02, -187500.02, -187500.02, 0.000, 0.000, 0.000, 15:43:45.767
14, 98096.84, 71039.50, -187500.02, -187500.02, -187500.02, -187500.02, -187500.02, -187500.02, 0.000, 0.000, 0.000, 15:43:45.767
15, 97776.05, 70629.32, -187500.02, -187500.02, -187500.02, -187500.02, -187500.02, -187500.02, 0.000, 0.000, 0.000, 15:43:45.768
16, 96881.63, 69571.95, -187500.02, -187500.02, -187500.02, -187500.02, -187500.02, -187500.02, 0.000, 0.000, 0.000, 15:43:45.768
17, 96242.36, 68880.38, -187500.02, -187500.02, -187500.02, -187500.02, -187500.02, -187500.02, 0.000, 0.000, 0.000, 15:43:45.768
18, 97501.16, 70395.95, -187500.02, -187500.02, -187500.02, -187500.02, -187500.02, -187500.02, 0.000, 0.000, 0.000, 15:43:45.768
19, 98097.98, 71039.25, -187500.02, -187500.02, -187500.02, -187500.02, -187500.02, -187500.02, 0.000, 0.000, 0.000, 15:43:45.768
20, 97788.59, 70636.83, -187500.02, -187500.02, -187500.02, -187500.02, -187500.02, -187500.02, 0.026, 0.056, -1.022, 15:43:45.768
21, 96907.20, 69586.79, -187500.02, -187500.02, -187500.02, -187500.02, -187500.02, -187500.02, 0.000, 0.000, 0.000, 15:43:45.768
22, 96256.51, 68892.32, -187500.02, -187500.02, -187500.02, -187500.02, -187500.02, -187500.02, 0.000, 0.000, 0.000, 15:43:45.768
23, 97497.16, 70389.58, -187500.02, -187500.02, -187500.02, -187500.02, -187500.02, -187500.02, 0.000, 0.000, 0.000, 15:43:45.768
24, 98091.05, 71032.14, -187500.02, -187500.02, -187500.02, -187500.02, -187500.02, -187500.02, 0.000, 0.000, 0.000, 15:43:45.769
25, 97777.05, 70628.58, -187500.02, -187500.02, -187500.02, -187500.02, -187500.02, -187500.02, 0.000, 0.000, 0.000, 15:43:45.769
26, 96891.88, 69574.54, -187500.02, -187500.02, -187500.02, -187500.02, -187500.02, -187500.02, 0.000, 0.000, 0.000, 15:43:45.769
27, 96241.49, 68869.97, -187500.02, -187500.02, -187500.02, -187500.02, -187500.02, -187500.02, 0.000, 0.000, 0.000, 15:43:45.769
28, 97481.30, 70363.42, -187500.02, -187500.02, -187500.02, -187500.02, -187500.02, -187500.02, 0.000, 0.000, 0.000, 15:43:45.769
29, 98079.02, 71026.40, -187500.02, -187500.02, -187500.02, -187500.02, -187500.02, -187500.02, 0.000, 0.000, 0.000, 15:43:45.769
30, 97768.52, 70626.10, -187500.02, -187500.02, -187500.02, -187500.02, -187500.02, -187500.02, 0.030, 0.054, -1.022, 15:43:45.769
31, 96884.08, 69571.73, -187500.02, -187500.02, -187500.02, -187500.02, -187500.02, -187500.02, 0.000, 0.000, 0.000, 15:43:45.769
32, 96231.43, 68861.25, -187500.02, -187500.02, -187500.02, -187500.02, -187500.02, -187500.02, 0.000, 0.000, 0.000, 15:43:45.770
33, 97472.09, 70357.77, -187500.02, -187500.02, -187500.02, -187500.02, -187500.02, -187500.02, 0.000, 0.000, 0.000, 15:43:45.770
34, 98073.26, 71006.75, -187500.02, -187500.02, -187500.02, -187500.02, -187500.02, -187500.02, 0.000, 0.000, 0.000, 15:43:45.770
35, 97767.82, 70618.75, -187500.02, -187500.02, -187500.02, -187500.02, -187500.02, -187500.02, 0.000, 0.000, 0.000, 15:43:45.770
36, 96889.63, 69572.80, -187500.02, -187500.02, -187500.02, -187500.02, -187500.02, -187500.02, 0.000, 0.000, 0.000, 15:43:45.770
37, 96239.41, 68864.96, -187500.02, -187500.02, -187500.02, -187500.02, -187500.02, -187500.02, 0.000, 0.000, 0.000, 15:43:45.770
38, 97477.81, 70358.66, -187500.02, -187500.02, -187500.02, -187500.02, -187500.02, -187500.02, 0.000, 0.000, 0.000, 15:43:45.770
39, 98083.92, 71019.23, -187500.02, -187500.02, -187500.02, -187500.02, -187500.02, -187500.02, 0.000, 0.000, 0.000, 15:43:45.770
40, 97770.80, 70614.03, -187500.02, -187500.02, -187500.02, -187500.02, -187500.02, -187500.02, 0.024, 0.046, -1.024, 15:43:45.771
41, 96891.59, 69565.51, -187500.02, -187500.02, -187500.02, -187500.02, -187500.02, -187500.02, 0.000, 0.000, 0.000, 15:43:45.771
42, 96235.23, 68854.88, -187500.02, -187500.02, -187500.02, -187500.02, -187500.02, -187500.02, 0.000, 0.000, 0.000, 15:43:45.771
43, 97467.30, 70348.25, -187500.02, -187500.02, -187500.02, -187500.02, -187500.02, -187500.02, 0.000, 0.000, 0.000, 15:43:45.771
44, 98080.66, 71017.21, -187500.02, -187500.02, -187500.02, -187500.02, -187500.02, -187500.02, 0.000, 0.000, 0.000, 15:43:45.771
45, 97775.78, 70617.27, -187500.02, -187500.02, -187500.02, -187500.02, -187500.02, -187500.02, 0.000, 0.000, 0.000, 15:43:45.771
46, 96895.13, 69570.90, -187500.02, -187500.02, -187500.02, -187500.02, -187500.02, -187500.02, 0.000, 0.000, 0.000, 15:43:45.772
47, 96222.73, 68839.57, -187500.02, -187500.02, -187500.02, -187500.02, -187500.02, -187500.02, 0.000, 0.000, 0.000, 15:43:45.772
48, 97463.84, 70340.98, -187500.02, -187500.02, -187500.02, -187500.02, -187500.02, -187500.02, 0.000, 0.000, 0.000, 15:43:45.772
49, 98075.79, 71005.79, -187500.02, -187500.02, -187500.02, -187500.02, -187500.02, -187500.02, 0.000, 0.000, 0.000, 15:43:45.772
50, 97770.55, 70607.26, -187500.02, -187500.02, -187500.02, -187500.02, -187500.02, -187500.02, 0.020, 0.046, -1.028, 15:43:45.772
51, 96882.96, 69562.43, -187500.02, -187500.02, -187500.02, -187500.02, -187500.02, -187500.02, 0.000, 0.000, 0.000, 15:43:45.772
52, 96211.52, 68834.97, -187500.02, -187500.02, -187500.02, -187500.02, -187500.02, -187500.02, 0.000, 0.000, 0.000, 15:43:45.772
53, 97453.45, 70332.45, -187500.02, -187500.02, -187500.02, -187500.02, -187500.02, -187500.02, 0.000, 0.000, 0.000, 15:43:45.773
54, 98070.63, 71002.48, -187500.02, -187500.02, -187500.02, -187500.02, -187500.02, -187500.02, 0.000, 0.000, 0.000, 15:43:45.773
55, 97762.77, 70603.55, -187500.02, -187500.02, -187500.02, -187500.02, -187500.02, -187500.02, 0.000, 0.000, 0.000, 15:43:45.773
56, 96893.60, 69565.98, -187500.02, -187500.02, -187500.02, -187500.02, -187500.02, -187500.02, 0.000, 0.000, 0.000, 15:43:45.773
57, 96217.69, 68830.27, -187500.02, -187500.02, -187500.02, -187500.02, -187500.02, -187500.02, 0.000, 0.000, 0.000, 15:43:45.773
58, 97451.21, 70322.03, -187500.02, -187500.02, -187500.02, -187500.02, -187500.02, -187500.02, 0.000, 0.000, 0.000, 15:43:45.773
59, 98064.97, 70995.02, -187500.02, -187500.02, -187500.02, -187500.02, -187500.02, -187500.02, 0.000, 0.000, 0.000, 15:43:45.773
60, 97760.05, 70604.64, -187500.02, -187500.02, -187500.02, -187500.02, -187500.02, -187500.02, 0.024, 0.052, -1.030, 15:43:45.773
61, 96897.70, 69576.82, -187500.02, -187500.02, -187500.02, -187500.02, -187500.02, -187500.02, 0.000, 0.000, 0.000, 15:43:45.774
62, 96226.20, 68840.15, -187500.02, -187500.02, -187500.02, -187500.02, -187500.02, -187500.02, 0.000, 0.000, 0.000, 15:43:45.774
63, 97451.57, 70319.21, -187500.02, -187500.02, -187500.02, -187500.02, -187500.02, -187500.02, 0.000, 0.000, 0.000, 15:43:45.774
64, 98083.67, 71001.68, -187500.02, -187500.02, -187500.02, -187500.02, -187500.02, -187500.02, 0.000, 0.000, 0.000, 15:43:45.774
65, 97771.96, 70603.01, -187500.02, -187500.02, -187500.02, -187500.02, -187500.02, -187500.02, 0.000, 0.000, 0.000, 15:43:45.774
66, 96901.38, 69570.80, -187500.02, -187500.02, -187500.02, -187500.02, -187500.02, -187500.02, 0.000, 0.000, 0.000, 15:43:45.774
67, 96205.91, 68816.33, -187500.02, -187500.02, -187500.02, -187500.02, -187500.02, -187500.02, 0.000, 0.000, 0.000, 15:43:45.774
68, 97429.84, 70295.32, -187500.02, -187500.02, -187500.02, -187500.02, -187500.02, -187500.02, 0.000, 0.000, 0.000, 15:43:45.774
69, 98052.96, 70979.26, -187500.02, -187500.02, -187500.02, -187500.02, -187500.02, -187500.02, 0.000, 0.000, 0.000, 15:43:45.775
70, 97750.63, 70590.83, -187500.02, -187500.02, -187500.02, -187500.02, -187500.02, -187500.02, 0.022, 0.046, -1.026, 15:43:45.775
71, 96895.93, 69574.92, -187500.02, -187500.02, -187500.02, -187500.02, -187500.02, -187500.02, 0.000, 0.000, 0.000, 15:43:45.775
72, 96206.04, 68816.64, -187500.02, -187500.02, -187500.02, -187500.02, -187500.02, -187500.02, 0.000, 0.000, 0.000, 15:43:45.775
73, 97423.18, 70288.63, -187500.02, -187500.02, -187500.02, -187500.02, -187500.02, -187500.02, 0.000, 0.000, 0.000, 15:43:45.775
74, 98060.34, 70988.53, -187500.02, -187500.02, -187500.02, -187500.02, -187500.02, -187500.02, 0.000, 0.000, 0.000, 15:43:45.775
75, 97758.05, 70595.14, -187500.02, -187500.02, -187500.02, -187500.02, -187500.02, -187500.02, 0.000, 0.000, 0.000, 15:43:45.775
76, 96895.68, 69572.55, -187500.02, -187500.02, -187500.02, -187500.02, -187500.02, -187500.02, 0.000, 0.000, 0.000, 15:43:45.775
77, 96204.01, 68814.07, -187500.02, -187500.02, -187500.02, -187500.02, -187500.02, -187500.02, 0.000, 0.000, 0.000, 15:43:45.776
78, 97423.38, 70284.03, -187500.02, -187500.02, -187500.02, -187500.02, -187500.02, -187500.02, 0.000, 0.000, 0.000, 15:43:45.776
79, 98073.62, 70993.01, -187500.02, -187500.02, -187500.02, -187500.02, -187500.02, -187500.02, 0.000, 0.000, 0.000, 15:43:45.776
80, 97774.57, 70606.16, -187500.02, -187500.02, -187500.02, -187500.02, -187500.02, -187500.02, 0.020, 0.052, -1.024, 15:43:45.776
81, 96916.52, 69582.79, -187500.02, -187500.02, -187500.02, -187500.02, -187500.02, -187500.02, 0.000, 0.000, 0.000, 15:43:45.776
82, 96222.27, 68821.17, -187500.02, -187500.02, -187500.02, -187500.02, -187500.02, -187500.02, 0.000, 0.000, 0.000, 15:43:45.776
83, 97436.37, 70291.00, -187500.02, -187500.02, -187500.02, -187500.02, -187500.02, -187500.02, 0.000, 0.000, 0.000, 15:43:45.776
84, 98074.89, 70994.81, -187500.02, -187500.02, -187500.02, -187500.02, -187500.02, -187500.02, 0.000, 0.000, 0.000, 15:43:45.776
85, 97770.80, 70601.40, -187500.02, -187500.02, -187500.02, -187500.02, -187500.02, -187500.02, 0.000, 0.000, 0.000, 15:43:45.777
86, 96921.34, 69582.23, -187500.02, -187500.02, -187500.02, -187500.02, -187500.02, -187500.02, 0.000, 0.000, 0.000, 15:43:45.777
87, 96219.02, 68814.38, -187500.02, -187500.02, -187500.02, -187500.02, -187500.02, -187500.02, 0.000, 0.000, 0.000, 15:43:45.777
88, 97432.28, 70281.48, -187500.02, -187500.02, -187500.02, -187500.02, -187500.02, -187500.02, 0.000, 0.000, 0.000, 15:43:45.777
89, 98073.86, 70983.30, -187500.02, -187500.02, -187500.02, -187500.02, -187500.02, -187500.02, 0.000, 0.000, 0.000, 15:43:46.243
90, 97769.16, 70594.27, -187500.02, -187500.02, -187500.02, -187500.02, -187500.02, -187500.02, 0.020, 0.056, -1.024, 15:43:46.243
91, 96922.88, 69585.07, -187500.02, -187500.02, -187500.02, -187500.02, -187500.02, -187500.02, 0.000, 0.000, 0.000, 15:43:46.244
92, 96210.27, 68804.73, -187500.02, -187500.02, -187500.02, -187500.02, -187500.02, -187500.02, 0.000, 0.000, 0.000, 15:43:46.244
93, 97405.61, 70254.50, -187500.02, -187500.02, -187500.02, -187500.02, -187500.02, -187500.02, 0.000, 0.000, 0.000, 15:43:46.244
94, 98059.73, 70971.62, -187500.02, -187500.02, -187500.02, -187500.02, -187500.02, -187500.02, 0.000, 0.000, 0.000, 15:43:46.244
95, 97768.56, 70593.24, -187500.02, -187500.02, -187500.02, -187500.02, -187500.02, -187500.02, 0.000, 0.000, 0.000, 15:43:46.244
96, 96919.80, 69574.98, -187500.02, -187500.02, -187500.02, -187500.02, -187500.02, -187500.02, 0.000, 0.000, 0.000, 15:43:46.245
97, 96204.61, 68792.45, -187500.02, -187500.02, -187500.02, -187500.02, -187500.02, -187500.02, 0.000, 0.000, 0.000, 15:43:46.245
98, 97412.23, 70256.31, -187500.02, -187500.02, -187500.02, -187500.02, -187500.02, -187500.02, 0.000, 0.000, 0.000, 15:43:46.245
99, 98067.29, 70976.60, -187500.02, -187500.02, -187500.02, -187500.02, -187500.02, -187500.02, 0.000, 0.000, 0.000, 15:43:46.245
100, 97771.66, 70587.95, -187500.02, -187500.02, -187500.02, -187500.02, -187500.02, -187500.02, 0.022, 0.054, -1.028, 15:43:46.245
101, 96918.79, 69573.47, -187500.02, -187500.02, -187500.02, -187500.02, -187500.02, -187500.02, 0.000, 0.000, 0.000, 15:43:46.245
102, 96202.59, 68790.35, -187500.02, -187500.02, -187500.02, -187500.02, -187500.02, -187500.02, 0.000, 0.000, 0.000, 15:43:46.246
103, 97418.20, 70254.21, -187500.02, -187500.02, -187500.02, -187500.02, -187500.02, -187500.02, 0.000, 0.000, 0.000, 15:43:46.246
104, 98080.21, 70979.59, -187500.02, -187500.02, -187500.02, -187500.02, -187500.02, -187500.02, 0.000, 0.000, 0.000, 15:43:46.246
105, 97778.66, 70596.09, -187500.02, -187500.02, -187500.02, -187500.02, -187500.02, -187500.02, 0.000, 0.000, 0.000, 15:43:46.246
106, 96933.95, 69588.35, -187500.02, -187500.02, -187500.02, -187500.02, -187500.02, -187500.02, 0.000, 0.000, 0.000, 15:43:46.246
107, 96220.48, 68799.70, -187500.02, -187500.02, -187500.02, -187500.02, -187500.02, -187500.02, 0.000, 0.000, 0.000, 15:43:46.246
108, 97418.80, 70258.70, -187500.02, -187500.02, -187500.02, -187500.02, -187500.02, -187500.02, 0.000, 0.000, 0.000, 15:43:46.247
109, 98086.91, 70988.71, -187500.02, -187500.02, -187500.02, -187500.02, -187500.02, -187500.02, 0.000, 0.000, 0.000, 15:43:46.247
110, 97792.55, 70605.20, -187500.02, -187500.02, -187500.02, -187500.02, -187500.02, -187500.02, 0.020, 0.058, -1.030, 15:43:46.247
111, 96941.55, 69594.84, -187500.02, -187500.02, -187500.02, -187500.02, -187500.02, -187500.02, 0.000, 0.000, 0.000, 15:43:46.247
112, 96217.38, 68800.63, -187500.02, -187500.02, -187500.02, -187500.02, -187500.02, -187500.02, 0.000, 0.000, 0.000, 15:43:46.247
113, 97409.97, 70244.67, -187500.02, -187500.02, -187500.02, -187500.02, -187500.02, -187500.02, 0.000, 0.000, 0.000, 15:43:46.248
114, 98071.77, 70972.27, -187500.02, -187500.02, -187500.02, -187500.02, -187500.02, -187500.02, 0.000, 0.000, 0.000, 15:43:46.248
115, 97780.30, 70595.77, -187500.02, -187500.02, -187500.02, -187500.02, -187500.02, -187500.02, 0.000, 0.000, 0.000, 15:43:46.248
116, 96930.64, 69583.28, -187500.02, -187500.02, -187500.02, -187500.02, -187500.02, -187500.02, 0.000, 0.000, 0.000, 15:43:46.248
117, 96199.65, 68779.09, -187500.02, -187500.02, -187500.02, -187500.02, -187500.02, -187500.02, 0.000, 0.000, 0.000, 15:43:46.248
118, 97396.25, 70226.09, -187500.02, -187500.02, -187500.02, -187500.02, -187500.02, -187500.02, 0.000, 0.000, 0.000, 15:43:46.248
119, 98061.21, 70961.00, -187500.02, -187500.02, -187500.02, -187500.02, -187500.02, -187500.02, 0.000, 0.000, 0.000, 15:43:46.249
120, 97770.20, 70585.82, -187500.02, -187500.02, -187500.02, -187500.02, -187500.02, -187500.02, 0.018, 0.056, -1.032, 15:43:46.249
121, 96934.41, 69582.23, -187500.02, -187500.02, -187500.02, -187500.02, -187500.02, -187500.02, 0.000, 0.000, 0.000, 15:43:46.249
122, 96197.55, 68767.51, -187500.02, -187500.02, -187500.02, -187500.02, -187500.02, -187500.02, 0.000, 0.000, 0.000, 15:43:46.249
123, 97379.98, 70205.55, -187500.02, -187500.02, -187500.02, -187500.02, -187500.02, -187500.02, 0.000, 0.000, 0.000, 15:43:46.249
124, 98060.54, 70956.19, -187500.02, -187500.02, -187500.02, -187500.02, -187500.02, -187500.02, 0.000, 0.000, 0.000, 15:43:46.249
125, 97764.34, 70579.48, -187500.02, -187500.02, -187500.02, -187500.02, -187500.02, -187500.02, 0.000, 0.000, 0.000, 15:43:46.250
126, 96915.41, 69594.75, -187500.02, -187500.02, -187500.02, -187500.02, -187500.02, -187500.02, 0.000, 0.000, 0.000, 15:43:46.250
127, 96177.81, 68782.93, -187500.02, -187500.02, -187500.02, -187500.02, -187500.02, -187500.02, 0.000, 0.000, 0.000, 15:43:46.250
128, 97368.95, 70225.83, -187500.02, -187500.02, -187500.02, -187500.02, -187500.02, -187500.02, 0.000, 0.000, 0.000, 15:43:46.250
129, 98049.63, 70974.79, -187500.02, -187500.02, -187500.02, -187500.02, -187500.02, -187500.02, 0.000, 0.000, 0.000, 15:43:46.250
130, 97755.17, 70589.42, -187500.02, -187500.02, -187500.02, -187500.02, -187500.02, -187500.02, 0.016, 0.054, -1.032, 15:43:46.250
131, 96928.65, 69607.30, -187500.02, -187500.02, -187500.02, -187500.02, -187500.02, -187500.02, 0.000, 0.000, 0.000, 15:43:46.251
132, 96187.27, 68790.51, -187500.02, -187500.02, -187500.02, -187500.02, -187500.02, -187500.02, 0.000, 0.000, 0.000, 15:43:46.251
133, 97365.58, 70223.01, -187500.02, -187500.02, -187500.02, -187500.02, -187500.02, -187500.02, 0.000, 0.000, 0.000, 15:43:46.251
134, 98054.44, 70979.03, -187500.02, -187500.02, -187500.02, -187500.02, -187500.02, -187500.02, 0.000, 0.000, 0.000, 15:43:46.251
135, 97757.95, 70593.00, -187500.02, -187500.02, -187500.02, -187500.02, -187500.02, -187500.02, 0.000, 0.000, 0.000, 15:43:46.251
136, 96915.80, 69597.07, -187500.02, -187500.02, -187500.02, -187500.02, -187500.02, -187500.02, 0.000, 0.000, 0.000, 15:43:46.251
137, 96169.59, 68776.94, -187500.02, -187500.02, -187500.02, -187500.02, -187500.02, -187500.02, 0.000, 0.000, 0.000, 15:43:46.252
138, 97348.02, 70207.85, -187500.02, -187500.02, -187500.02, -187500.02, -187500.02, -187500.02, 0.000, 0.000, 0.000, 15:43:46.252
139, 98040.13, 70968.75, -187500.02, -187500.02, -187500.02, -187500.02, -187500.02, -187500.02, 0.014, 0.054, -1.026, 15:43:46.252
140, 97745.70, 70588.33, -187500.02, -187500.02, -187500.02, -187500.02, -187500.02, -187500.02, 0.000, 0.000, 0.000, 15:43:46.252
141, 96919.58, 69601.50, -187500.02, -187500.02, -187500.02, -187500.02, -187500.02, -187500.02, 0.000, 0.000, 0.000, 15:43:46.252
142, 96157.47, 68760.18, -187500.02, -187500.02, -187500.02, -187500.02, -187500.02, -187500.02, 0.000, 0.000, 0.000, 15:43:46.252
143, 97342.45, 70198.80, -187500.02, -187500.02, -187500.02, -187500.02, -187500.02, -187500.02, 0.000, 0.000, 0.000, 15:43:46.253
144, 98036.65, 70966.65, -187500.02, -187500.02, -187500.02, -187500.02, -187500.02, -187500.02, 0.000, 0.000, 0.000, 15:43:46.253
145, 97748.24, 70589.35, -187500.02, -187500.02, -187500.02, -187500.02, -187500.02, -187500.02, 0.000, 0.000, 0.000, 15:43:46.253
146, 96916.98, 69594.03, -187500.02, -187500.02, -187500.02, -187500.02, -187500.02, -187500.02, 0.000, 0.000, 0.000, 15:43:46.253
147, 96164.17, 68763.59, -187500.02, -187500.02, -187500.02, -187500.02, -187500.02, -187500.02, 0.000, 0.000, 0.000, 15:43:46.253
148, 97341.09, 70190.13, -187500.02, -187500.02, -187500.02, -187500.02, -187500.02, -187500.02, 0.000, 0.000, 0.000, 15:43:46.254
149, 98035.84, 70957.98, -187500.02, -187500.02, -187500.02, -187500.02, -187500.02, -187500.02, 0.018, 0.058, -1.022, 15:43:46.254
150, 97754.55, 70587.90, -187500.02, -187500.02, -187500.02, -187500.02, -187500.02, -187500.02, 0.000, 0.000, 0.000, 15:43:46.254
151, 96936.02, 69612.02, -187500.02, -187500.02, -187500.02, -187500.02, -187500.02, -187500.02, 0.000, 0.000, 0.000, 15:43:46.254
152, 96173.00, 68768.85, -187500.02, -187500.02, -187500.02, -187500.02, -187500.02, -187500.02, 0.000, 0.000, 0.000, 15:43:46.254
153, 97346.11, 70193.62, -187500.02, -187500.02, -187500.02, -187500.02, -187500.02, -187500.02, 0.000, 0.000, 0.000, 15:43:46.254
154, 98052.49, 70972.22, -187500.02, -187500.02, -187500.02, -187500.02, -187500.02, -187500.02, 0.000, 0.000, 0.000, 15:43:46.255
155, 97766.05, 70596.17, -187500.02, -187500.02, -187500.02, -187500.02, -187500.02, -187500.02, 0.000, 0.000, 0.000, 15:43:46.255
156, 96935.91, 69607.51, -187500.02, -187500.02, -187500.02, -187500.02, -187500.02, -187500.02, 0.000, 0.000, 0.000, 15:43:46.255
157, 96169.43, 68764.94, -187500.02, -187500.02, -187500.02, -187500.02, -187500.02, -187500.02, 0.000, 0.000, 0.000, 15:43:46.255
158, 97341.91, 70187.63, -187500.02, -187500.02, -187500.02, -187500.02, -187500.02, -187500.02, 0.000, 0.000, 0.000, 15:43:46.255
159, 98042.88, 70965.31, -187500.02, -187500.02, -187500.02, -187500.02, -187500.02, -187500.02, 0.016, 0.056, -1.026, 15:43:46.255
160, 97752.31, 70579.48, -187500.02, -187500.02, -187500.02, -187500.02, -187500.02, -187500.02, 0.000, 0.000, 0.000, 15:43:46.255
161, 96926.39, 69592.00, -187500.02, -187500.02, -187500.02, -187500.02, -187500.02, -187500.02, 0.000, 0.000, 0.000, 15:43:46.256
162, 96158.68, 68745.78, -187500.02, -187500.02, -187500.02, -187500.02, -187500.02, -187500.02, 0.000, 0.000, 0.000, 15:43:46.256
163, 97324.41, 70162.66, -187500.02, -187500.02, -187500.02, -187500.02, -187500.02, -187500.02, 0.000, 0.000, 0.000, 15:43:46.256
164, 98025.77, 70936.37, -187500.02, -187500.02, -187500.02, -187500.02, -187500.02, -187500.02, 0.000, 0.000, 0.000, 15:43:46.256
165, 97738.09, 70561.21, -187500.02, -187500.02, -187500.02, -187500.02, -187500.02, -187500.02, 0.000, 0.000, 0.000, 15:43:46.256
166, 96918.97, 69576.48, -187500.02, -187500.02, -187500.02, -187500.02, -187500.02, -187500.02, 0.000, 0.000, 0.000, 15:43:46.256
167, 96145.65, 68724.30, -187500.02, -187500.02, -187500.02, -187500.02, -187500.02, -187500.02, 0.000, 0.000, 0.000, 15:43:46.256
168, 97306.82, 70133.65, -187500.02, -187500.02, -187500.02, -187500.02, -187500.02, -187500.02, 0.000, 0.000, 0.000, 15:43:46.256
169, 98016.82, 70913.84, -187500.02, -187500.02, -187500.02, -187500.02, -187500.02, -187500.02, 0.018, 0.052, -1.026, 15:43:46.257
170, 97729.42, 70545.23, -187500.02, -187500.02, -187500.02, -187500.02, -187500.02, -187500.02, 0.000, 0.000, 0.000, 15:43:46.257
171, 96918.23, 69575.59, -187500.02, -187500.02, -187500.02, -187500.02, -187500.02, -187500.02, 0.000, 0.000, 0.000, 15:43:46.257
172, 96153.20, 68732.02, -187500.02, -187500.02, -187500.02, -187500.02, -187500.02, -187500.02, 0.000, 0.000, 0.000, 15:43:46.257
173, 97320.85, 70150.73, -187500.02, -187500.02, -187500.02, -187500.02, -187500.02, -187500.02, 0.000, 0.000, 0.000, 15:43:46.257
174, 98044.34, 70945.30, -187500.02, -187500.02, -187500.02, -187500.02, -187500.02, -187500.02, 0.000, 0.000, 0.000, 15:43:46.257
175, 97758.46, 70572.48, -187500.02, -187500.02, -187500.02, -187500.02, -187500.02, -187500.02, 0.000, 0.000, 0.000, 15:43:46.257
176, 96940.16, 69594.10, -187500.02, -187500.02, -187500.02, -187500.02, -187500.02, -187500.02, 0.000, 0.000, 0.000, 15:43:46.257
177, 96160.95, 68732.30, -187500.02, -187500.02, -187500.02, -187500.02, -187500.02, -187500.02, 0.000, 0.000, 0.000, 15:43:46.258
178, 97320.41, 70143.77, -187500.02, -187500.02, -187500.02, -187500.02, -187500.02, -187500.02, 0.000, 0.000, 0.000, 15:43:46.258
179, 98033.12, 70938.55, -187500.02, -187500.02, -187500.02, -187500.02, -187500.02, -187500.02, 0.018, 0.052, -1.030, 15:43:46.258
180, 97743.98, 70563.78, -187500.02, -187500.02, -187500.02, -187500.02, -187500.02, -187500.02, 0.000, 0.000, 0.000, 15:43:46.258
181, 96935.63, 69593.07, -187500.02, -187500.02, -187500.02, -187500.02, -187500.02, -187500.02, 0.000, 0.000, 0.000, 15:43:46.258
182, 96156.27, 68731.81, -187500.02, -187500.02, -187500.02, -187500.02, -187500.02, -187500.02, 0.000, 0.000, 0.000, 15:43:46.258
183, 97305.25, 70124.30, -187500.02, -187500.02, -187500.02, -187500.02, -187500.02, -187500.02, 0.000, 0.000, 0.000, 15:43:46.258
184, 98032.06, 70933.05, -187500.02, -187500.02, -187500.02, -187500.02, -187500.02, -187500.02, 0.000, 0.000, 0.000, 15:43:46.258
185, 97747.93, 70567.27, -187500.02, -187500.02, -187500.02, -187500.02, -187500.02, -187500.02, 0.000, 0.000, 0.000, 15:43:46.259
186, 96928.18, 69586.37, -187500.02, -187500.02, -187500.02, -187500.02, -187500.02, -187500.02, 0.000, 0.000, 0.000, 15:43:46.259
187, 96142.63, 68710.83, -187500.02, -187500.02, -187500.02, -187500.02, -187500.02, -187500.02, 0.000, 0.000, 0.000, 15:43:46.259
188, 97291.24, 70111.81, -187500.02, -187500.02, -187500.02, -187500.02, -187500.02, -187500.02, 0.000, 0.000, 0.000, 15:43:46.259
189, 98009.52, 70907.95, -187500.02, -187500.02, -187500.02, -187500.02, -187500.02, -187500.02, 0.022, 0.054, -1.024, 15:43:46.259
190, 97723.25, 70531.89, -187500.02, -187500.02, -187500.02, -187500.02, -187500.02, -187500.02, 0.000, 0.000, 0.000, 15:43:46.259
191, 96912.58, 69568.04, -187500.02, -187500.02, -187500.02, -187500.02, -187500.02, -187500.02, 0.000, 0.000, 0.000, 15:43:46.259
192, 96119.25, 68691.47, -187500.02, -187500.02, -187500.02, -187500.02, -187500.02, -187500.02, 0.000, 0.000, 0.000, 15:43:46.259
193, 97264.46, 70086.73, -187500.02, -187500.02, -187500.02, -187500.02, -187500.02, -187500.02, 0.000, 0.000, 0.000, 15:43:46.260
194, 98001.76, 70902.84, -187500.02, -187500.02, -187500.02, -187500.02, -187500.02, -187500.02, 0.000, 0.000, 0.000, 15:43:46.260
195, 97718.72, 70537.84, -187500.02, -187500.02, -187500.02, -187500.02, -187500.02, -187500.02, 0.000, 0.000, 0.000, 15:43:46.260
196, 96917.56, 69578.25, -187500.02, -187500.02, -187500.02, -187500.02, -187500.02, -187500.02, 0.000, 0.000, 0.000, 15:43:46.260
197, 96131.92, 68703.41, -187500.02, -187500.02, -187500.02, -187500.02, -187500.02, -187500.02, 0.000, 0.000, 0.000, 15:43:46.260
198, 97272.53, 70093.77, -187500.02, -187500.02, -187500.02, -187500.02, -187500.02, -187500.02, 0.000, 0.000, 0.000, 15:43:46.260
199, 98012.15, 70914.04, -187500.02, -187500.02, -187500.02, -187500.02, -187500.02, -187500.02, 0.022, 0.056, -1.024, 15:43:46.260
200, 97735.81, 70556.14, -187500.02, -187500.02, -187500.02, -187500.02, -187500.02, -187500.02, 0.000, 0.000, 0.000, 15:43:46.260
201, 96934.66, 69596.76, -187500.02, -187500.02, -187500.02, -187500.02, -187500.02, -187500.02, 0.000, 0.000, 0.000, 15:43:46.261
202, 96143.48, 68716.62, -187500.02, -187500.02, -187500.02, -187500.02, -187500.02, -187500.02, 0.000, 0.000, 0.000, 15:43:46.261
203, 97278.56, 70105.77, -187500.02, -187500.02, -187500.02, -187500.02, -187500.02, -187500.02, 0.000, 0.000, 0.000, 15:43:46.261
204, 98021.76, 70926.38, -187500.02, -187500.02, -187500.02, -187500.02, -187500.02, -187500.02, 0.000, 0.000, 0.000, 15:43:46.261
205, 97737.96, 70555.73, -187500.02, -187500.02, -187500.02, -187500.02, -187500.02, -187500.02, 0.000, 0.000, 0.000, 15:43:46.261
206, 96932.18, 69595.20, -187500.02, -187500.02, -187500.02, -187500.02, -187500.02, -187500.02, 0.000, 0.000, 0.000, 15:43:46.261
207, 96128.32, 68703.38, -187500.02, -187500.02, -187500.02, -187500.02, -187500.02, -187500.02, 0.000, 0.000, 0.000, 15:43:46.261
208, 97262.25, 70087.27, -187500.02, -187500.02, -187500.02, -187500.02, -187500.02, -187500.02, 0.000, 0.000, 0.000, 15:43:46.261
209, 98000.37, 70904.58, -187500.02, -187500.02, -187500.02, -187500.02, -187500.02, -187500.02, 0.026, 0.054, -1.028, 15:43:46.722
210, 97720.46, 70535.48, -187500.02, -187500.02, -187500.02, -187500.02, -187500.02, -187500.02, 0.000, 0.000, 0.000, 15:43:46.722
211, 96919.20, 69575.57, -187500.02, -187500.02, -187500.02, -187500.02, -187500.02, -187500.02, 0.000, 0.000, 0.000, 15:43:46.723
212, 96113.23, 68683.69, -187500.02, -187500.02, -187500.02, -187500.02, -187500.02, -187500.02, 0.000, 0.000, 0.000, 15:43:46.723
213, 97238.49, 70059.77, -187500.02, -187500.02, -187500.02, -187500.02, -187500.02, -187500.02, 0.000, 0.000, 0.000, 15:43:46.723
214, 97990.45, 70898.37, -187500.02, -187500.02, -187500.02, -187500.02, -187500.02, -187500.02, 0.000, 0.000, 0.000, 15:43:46.723
215, 97720.02, 70533.68, -187500.02, -187500.02, -187500.02, -187500.02, -187500.02, -187500.02, 0.000, 0.000, 0.000, 15:43:46.723
216, 96912.16, 69562.23, -187500.02, -187500.02, -187500.02, -187500.02, -187500.02, -187500.02, 0.000, 0.000, 0.000, 15:43:46.723
217, 96108.54, 68665.14, -187500.02, -187500.02, -187500.02, -187500.02, -187500.02, -187500.02, 0.000, 0.000, 0.000, 15:43:46.724
218, 97248.13, 70060.27, -187500.02, -187500.02, -187500.02, -187500.02, -187500.02, -187500.02, 0.000, 0.000, 0.000, 15:43:46.724
219, 97997.15, 70894.23, -187500.02, -187500.02, -187500.02, -187500.02, -187500.02, -187500.02, 0.020, 0.056, -1.032, 15:43:46.724
220, 97720.86, 70524.02, -187500.02, -187500.02, -187500.02, -187500.02, -187500.02, -187500.02, 0.000, 0.000, 0.000, 15:43:46.724
221, 96942.15, 69586.90, -187500.02, -187500.02, -187500.02, -187500.02, -187500.02, -187500.02, 0.000, 0.000, 0.000, 15:43:46.724
222, 96138.16, 68689.05, -187500.02, -187500.02, -187500.02, -187500.02, -187500.02, -187500.02, 0.000, 0.000, 0.000, 15:43:46.724
223, 97273.13, 70073.95, -187500.02, -187500.02, -187500.02, -187500.02, -187500.02, -187500.02, 0.000, 0.000, 0.000, 15:43:46.724
224, 98038.21, 70919.87, -187500.02, -187500.02, -187500.02, -187500.02, -187500.02, -187500.02, 0.000, 0.000, 0.000, 15:43:46.725
225, 97771.29, 70561.26, -187500.02, -187500.02, -187500.02, -187500.02, -187500.02, -187500.02, 0.000, 0.000, 0.000, 15:43:46.725
226, 96977.47, 69610.62, -187500.02, -187500.02, -187500.02, -187500.02, -187500.02, -187500.02, 0.000, 0.000, 0.000, 15:43:46.725
227, 96159.44, 68699.11, -187500.02, -187500.02, -187500.02, -187500.02, -187500.02, -187500.02, 0.000, 0.000, 0.000, 15:43:46.725
228, 97300.23, 70079.49, -187500.02, -187500.02, -187500.02, -187500.02, -187500.02, -187500.02, 0.000, 0.000, 0.000, 15:43:46.725
229, 98063.83, 70928.90, -187500.02, -187500.02, -187500.02, -187500.02, -187500.02, -187500.02, 0.020, 0.058, -1.026, 15:43:46.725
230, 97782.66, 70567.49, -187500.02, -187500.02, -187500.02, -187500.02, -187500.02, -187500.02, 0.000, 0.000, 0.000, 15:43:46.725
231, 96983.95, 69609.84, -187500.02, -187500.02, -187500.02, -187500.02, -187500.02, -187500.02, 0.000, 0.000, 0.000, 15:43:46.725
232, 96173.80, 68708.66, -187500.02, -187500.02, -187500.02, -187500.02, -187500.02, -187500.02, 0.000, 0.000, 0.000, 15:43:46.726
233, 97285.61, 70065.63, -187500.02, -187500.02, -187500.02, -187500.02, -187500.02, -187500.02, 0.000, 0.000, 0.000, 15:43:46.726
234, 98048.67, 70912.41, -187500.02, -187500.02, -187500.02, -187500.02, -187500.02, -187500.02, 0.000, 0.000, 0.000, 15:43:46.726
235, 97772.80, 70549.97, -187500.02, -187500.02, -187500.02, -187500.02, -187500.02, -187500.02, 0.000, 0.000, 0.000, 15:43:46.726
236, 96987.30, 69609.95, -187500.02, -187500.02, -187500.02, -187500.02, -187500.02, -187500.02, 0.000, 0.000, 0.000, 15:43:46.726
237, 96168.78, 68690.51, -187500.02, -187500.02, -187500.02, -187500.02, -187500.02, -187500.02, 0.000, 0.000, 0.000, 15:43:46.726
238, 97284.16, 70049.45, -187500.02, -187500.02, -187500.02, -187500.02, -187500.02, -187500.02, 0.000, 0.000, 0.000, 15:43:46.726
239, 98047.45, 70901.59, -187500.02, -187500.02, -187500.02, -187500.02, -187500.02, -187500.02, 0.022, 0.058, -1.032, 15:43:46.727
240, 97777.79, 70543.58, -187500.02, -187500.02, -187500.02, -187500.02, -187500.02, -187500.02, 0.000, 0.000, 0.000, 15:43:46.727
241, 96986.56, 69597.36, -187500.02, -187500.02, -187500.02, -187500.02, -187500.02, -187500.02, 0.000, 0.000, 0.000, 15:43:46.727
242, 96153.60, 68668.11, -187500.02, -187500.02, -187500.02, -187500.02, -187500.02, -187500.02, 0.000, 0.000, 0.000, 15:43:46.727
243, 97264.91, 70024.66, -187500.02, -187500.02, -187500.02, -187500.02, -187500.02, -187500.02, 0.000, 0.000, 0.000, 15:43:46.727
244, 98035.38, 70883.05, -187500.02, -187500.02, -187500.02, -187500.02, -187500.02, -187500.02, 0.000, 0.000, 0.000, 15:43:46.727
245, 97783.96, 70549.79, -187500.02, -187500.02, -187500.02, -187500.02, -187500.02, -187500.02, 0.000, 0.000, 0.000, 15:43:46.727
246, 97003.86, 69612.65, -187500.02, -187500.02, -187500.02, -187500.02, -187500.02, -187500.02, 0.000, 0.000, 0.000, 15:43:46.727
247, 96178.84, 68693.68, -187500.02, -187500.02, -187500.02, -187500.02, -187500.02, -187500.02, 0.000, 0.000, 0.000, 15:43:46.727
248, 97296.11, 70052.78, -187500.02, -187500.02, -187500.02, -187500.02, -187500.02, -187500.02, 0.000, 0.000, 0.000, 15:43:46.728
249, 98086.45, 70928.43, -187500.02, -187500.02, -187500.02, -187500.02, -187500.02, -187500.02, 0.016, 0.058, -1.028, 15:43:46.728
250, 97817.66, 70572.23, -187500.02, -187500.02, -187500.02, -187500.02, -187500.02, -187500.02, 0.000, 0.000, 0.000, 15:43:46.728
251, 97033.32, 69634.29, -187500.02, -187500.02, -187500.02, -187500.02, -187500.02, -187500.02, 0.000, 0.000, 0.000, 15:43:46.728
252, 96200.90, 68706.66, -187500.02, -187500.02, -187500.02, -187500.02, -187500.02, -187500.02, 0.000, 0.000, 0.000, 15:43:46.728
253, 97308.63, 70059.08, -187500.02, -187500.02, -187500.02, -187500.02, -187500.02, -187500.02, 0.000, 0.000, 0.000, 15:43:46.728
254, 98084.50, 70920.05, -187500.02, -187500.02, -187500.02, -187500.02, -187500.02, -187500.02, 0.000, 0.000, 0.000, 15:43:46.728
255, 97821.00, 70566.58, -187500.02, -187500.02, -187500.02, -187500.02, -187500.02, -187500.02, 0.000, 0.000, 0.000, 15:43:46.728
0, 97048.55, 69641.95, -187500.02, -187500.02, -187500.02, -187500.02, -187500.02, -187500.02, 0.000, 0.000, 0.000, 15:43:46.729
1, 96206.51, 68703.07, -187500.02, -187500.02, -187500.02, -187500.02, -187500.02, -187500.02, 0.000, 0.000, 0.000, 15:43:46.729
2, 97304.38, 70045.73, -187500.02, -187500.02, -187500.02, -187500.02, -187500.02, -187500.02, 0.000, 0.000, 0.000, 15:43:46.729
3, 98083.12, 70912.49, -187500.02, -187500.02, -187500.02, -187500.02, -187500.02, -187500.02, 0.018, 0.060, -1.026, 15:43:46.729
4, 97812.82, 70561.08, -187500.02, -187500.02, -187500.02, -187500.02, -187500.02, -187500.02, 0.000, 0.000, 0.000, 15:43:46.729
5, 97037.79, 69626.02, -187500.02, -187500.02, -187500.02, -187500.02, -187500.02, -187500.02, 0.000, 0.000, 0.000, 15:43:46.729
6, 96200.19, 68689.37, -187500.02, -187500.02, -187500.02, -187500.02, -187500.02, -187500.02, 0.000, 0.000, 0.000, 15:43:46.729
7, 97296.45, 70028.73, -187500.02, -187500.02, -187500.02, -187500.02, -187500.02, -187500.02, 0.000, 0.000, 0.000, 15:43:46.729
8, 98084.95, 70902.63, -187500.02, -187500.02, -187500.02, -187500.02, -187500.02, -187500.02, 0.000, 0.000, 0.000, 15:43:46.730
9, 97826.36, 70557.88, -187500.02, -187500.02, -187500.02, -187500.02, -187500.02, -187500.02, 0.000, 0.000, 0.000, 15:43:46.730
10, 97051.61, 69633.93, -187500.02, -187500.02, -187500.02, -187500.02, -187500.02, -187500.02, 0.000, 0.000, 0.000, 15:43:46.730
11, 96193.84, 68675.93, -187500.02, -187500.02, -187500.02, -187500.02, -187500.02, -187500.02, 0.000, 0.000, 0.000, 15:43:46.730
12, 97291.40, 70013.84, -187500.02, -187500.02, -187500.02, -187500.02, -187500.02, -187500.02, 0.020, 0.056, -1.030, 15:43:46.730
13, 98092.86, 70906.17, -187500.02, -187500.02, -187500.02, -187500.02, -187500.02, -187500.02, 0.000, 0.000, 0.000, 15:43:46.730
14, 97831.05, 70555.96, -187500.02, -187500.02, -187500.02, -187500.02, -187500.02, -187500.02, 0.000, 0.000, 0.000, 15:43:46.730
15, 97065.71, 69632.84, -187500.02, -187500.02, -187500.02, -187500.02, -187500.02, -187500.02, 0.000, 0.000, 0.000, 15:43:46.730
16, 96226.63, 68691.52, -187500.02, -187500.02, -187500.02, -187500.02, -187500.02, -187500.02, 0.000, 0.000, 0.000, 15:43:46.731
17, 97315.16, 70024.08, -187500.02, -187500.02, -187500.02, -187500.02, -187500.02, -187500.02, 0.000, 0.000, 0.000, 15:43:46.731
18, 98119.38, 70917.63, -187500.02, -187500.02, -187500.02, -187500.02, -187500.02, -187500.02, 0.000, 0.000, 0.000, 15:43:46.731
19, 97862.69, 70583.52, -187500.02, -187500.02, -187500.02, -187500.02, -187500.02, -187500.02, 0.000, 0.000, 0.000, 15:43:46.731
20, 97085.63, 69648.97, -187500.02, -187500.02, -187500.02, -187500.02, -187500.02, -187500.02, 0.000, 0.000, 0.000, 15:43:46.731
21, 96242.38, 68705.33, -187500.02, -187500.02, -187500.02, -187500.02, -187500.02, -187500.02, 0.000, 0.000, 0.000, 15:43:46.731
22, 97333.38, 70037.47, -187500.02, -187500.02, -187500.02, -187500.02, -187500.02, -187500.02, 0.020, 0.054, -1.028, 15:43:46.731
23, 98137.74, 70935.65, -187500.02, -187500.02, -187500.02, -187500.02, -187500.02, -187500.02, 0.000, 0.000, 0.000, 15:43:46.731
24, 97877.75, 70590.14, -187500.02, -187500.02, -187500.02, -187500.02, -187500.02, -187500.02, 0.000, 0.000, 0.000, 15:43:46.731
25, 97103.33, 69661.55, -187500.02, -187500.02, -187500.02, -187500.02, -187500.02, -187500.02, 0.000, 0.000, 0.000, 15:43:46.732
26, 96247.41, 68703.20, -187500.02, -187500.02, -187500.02, -187500.02, -187500.02, -187500.02, 0.000, 0.000, 0.000, 15:43:46.732
27, 97339.32, 70035.61, -187500.02, -187500.02, -187500.02, -187500.02, -187500.02, -187500.02, 0.000, 0.000, 0.000, 15:43:46.732
28, 98142.28, 70931.09, -187500.02, -187500.02, -187500.02, -187500.02, -187500.02, -187500.02, 0.000, 0.000, 0.000, 15:43:46.732
29, 97878.64, 70580.26, -187500.02, -187500.02, -187500.02, -187500.02, -187500.02, -187500.02, 0.000, 0.000, 0.000, 15:43:46.732
30, 97108.34, 69651.56, -187500.02, -187500.02, -187500.02, -187500.02, -187500.02, -187500.02, 0.000, 0.000, 0.000, 15:43:46.732
31, 96259.86, 68698.93, -187500.02, -187500.02, -187500.02, -187500.02, -187500.02, -187500.02, 0.000, 0.000, 0.000, 15:43:46.732
32, 97344.33, 70028.13, -187500.02, -187500.02, -187500.02, -187500.02, -187500.02, -187500.02, 0.018, 0.046, -1.018, 15:43:46.732
33, 98144.52, 70920.36, -187500.02, -187500.02, -187500.02, -187500.02, -187500.02, -187500.02, 0.000, 0.000, 0.000, 15:43:46.733
34, 97889.88, 70579.32, -187500.02, -187500.02, -187500.02, -187500.02, -187500.02, -187500.02, 0.000, 0.000, 0.000, 15:43:46.733
35, 97128.02, 69661.34, -187500.02, -187500.02, -187500.02, -187500.02, -187500.02, -187500.02, 0.000, 0.000, 0.000, 15:43:46.733
36, 96271.40, 68704.21, -187500.02, -187500.02, -187500.02, -187500.02, -187500.02, -187500.02, 0.000, 0.000, 0.000, 15:43:46.733
37, 97351.97, 70021.45, -187500.02, -187500.02, -187500.02, -187500.02, -187500.02, -187500.02, 0.000, 0.000, 0.000, 15:43:46.733
38, 98175.97, 70937.17, -187500.02, -187500.02, -187500.02, -187500.02, -187500.02, -187500.02, 0.000, 0.000, 0.000, 15:43:46.733
39, 97921.89, 70598.27, -187500.02, -187500.02, -187500.02, -187500.02, -187500.02, -187500.02, 0.000, 0.000, 0.000, 15:43:46.733
40, 97153.30, 69679.02, -187500.02, -187500.02, -187500.02, -187500.02, -187500.02, -187500.02, 0.000, 0.000, 0.000, 15:43:46.733
41, 96300.07, 68723.54, -187500.02, -187500.02, -187500.02, -187500.02, -187500.02, -187500.02, 0.000, 0.000, 0.000, 15:43:46.734
42, 97388.07, 70046.77, -187500.02, -187500.02, -187500.02, -187500.02, -187500.02, -187500.02, 0.024, 0.050, -1.020, 15:43:46.734
43, 98206.77, 70957.53, -187500.02, -187500.02, -187500.02, -187500.02, -187500.02, -187500.02, 0.000, 0.000, 0.000, 15:43:46.734
44, 97952.41, 70621.50, -187500.02, -187500.02, -187500.02, -187500.02, -187500.02, -187500.02, 0.000, 0.000, 0.000, 15:43:46.734
45, 97192.94, 69711.36, -187500.02, -187500.02, -187500.02, -187500.02, -187500.02, -187500.02, 0.000, 0.000, 0.000, 15:43:46.734
46, 96333.52, 68743.66, -187500.02, -187500.02, -187500.02, -187500.02, -187500.02, -187500.02, 0.000, 0.000, 0.000, 15:43:46.734
47, 97407.18, 70054.30, -187500.02, -187500.02, -187500.02, -187500.02, -187500.02, -187500.02, 0.000, 0.000, 0.000, 15:43:46.734
48, 98224.42, 70971.52, -187500.02, -187500.02, -187500.02, -187500.02, -187500.02, -187500.02, 0.000, 0.000, 0.000, 15:43:46.734
49, 97976.39, 70637.57, -187500.02, -187500.02, -187500.02, -187500.02, -187500.02, -187500.02, 0.000, 0.000, 0.000, 15:43:46.735
50, 97217.12, 69727.36, -187500.02, -187500.02, -187500.02, -187500.02, -187500.02, -187500.02, 0.000, 0.000, 0.000, 15:43:46.735
51, 96351.82, 68751.04, -187500.02, -187500.02, -187500.02, -187500.02, -187500.02, -187500.02, 0.000, 0.000, 0.000, 15:43:46.735
52, 97421.66, 70060.22, -187500.02, -187500.02, -187500.02, -187500.02, -187500.02, -187500.02, 0.024, 0.052, -1.018, 15:43:46.735
53, 98243.70, 70978.19, -187500.02, -187500.02, -187500.02, -187500.02, -187500.02, -187500.02, 0.000, 0.000, 0.000, 15:43:46.735
54, 97993.29, 70637.23, -187500.02, -187500.02, -187500.02, -187500.02, -187500.02, -187500.02, 0.000, 0.000, 0.000, 15:43:46.735
55, 97232.16, 69727.36, -187500.02, -187500.02, -187500.02, -187500.02, -187500.02, -187500.02, 0.000, 0.000, 0.000, 15:43:46.735
56, 96362.91, 68757.38, -187500.02, -187500.02, -187500.02, -187500.02, -187500.02, -187500.02, 0.000, 0.000, 0.000, 15:43:46.735
57, 97430.67, 70061.92, -187500.02, -187500.02, -187500.02, -187500.02, -187500.02, -187500.02, 0.000, 0.000, 0.000, 15:43:46.736
58, 98257.88, 70982.12, -187500.02, -187500.02, -187500.02, -187500.02, -187500.02, -187500.02, 0.000, 0.000, 0.000, 15:43:46.736
59, 98010.49, 70656.39, -187500.02, -187500.02, -187500.02, -187500.02, -187500.02, -187500.02, 0.000, 0.000, 0.000, 15:43:46.736
60, 97253.35, 69746.11, -187500.02, -187500.02, -187500.02, -187500.02, -187500.02, -187500.02, 0.000, 0.000, 0.000, 15:43:46.736
61, 96383.36, 68768.34, -187500.02, -187500.02, -187500.02, -187500.02, -187500.02, -187500.02, 0.000, 0.000, 0.000, 15:43:46.736
62, 97442.59, 70065.59, -187500.02, -187500.02, -187500.02, -187500.02, -187500.02, -187500.02, 0.022, 0.056, -1.026, 15:43:46.736
63, 98276.82, 70997.54, -187500.02, -187500.02, -187500.02, -187500.02, -187500.02, -187500.02, 0.000, 0.000, 0.000, 15:43:46.736
64, 98033.70, 70674.80, -187500.02, -187500.02, -187500.02, -187500.02, -187500.02, -187500.02, 0.000, 0.000, 0.000, 15:43:46.736
65, 97299.55, 69784.58, -187500.02, -187500.02, -187500.02, -187500.02, -187500.02, -187500.02, 0.000, 0.000, 0.000, 15:43:46.737
66, 96424.38, 68795.76, -187500.02, -187500.02, -187500.02, -187500.02, -187500.02, -187500.02, 0.000, 0.000, 0.000, 15:43:46.737
67, 97475.04, 70085.77, -187500.02, -187500.02, -187500.02, -187500.02, -187500.02, -187500.02, 0.000, 0.000, 0.000, 15:43:46.737
68, 98311.33, 71020.05, -187500.02, -187500.02, -187500.02, -187500.02, -187500.02, -187500.02, 0.000, 0.000, 0.000, 15:43:46.737
69, 98068.66, 70689.80, -187500.02, -187500.02, -187500.02, -187500.02, -187500.02, -187500.02, 0.000, 0.000, 0.000, 15:43:46.737
70, 97327.88, 69799.84, -187500.02, -187500.02, -187500.02, -187500.02, -187500.02, -187500.02, 0.000, 0.000, 0.000, 15:43:46.737
71, 96443.08, 68807.45, -187500.02, -187500.02, -187500.02, -187500.02, -187500.02, -187500.02, 0.000, 0.000, 0.000, 15:43:46.737
72, 97485.63, 70090.95, -187500.02, -187500.02, -187500.02, -187500.02, -187500.02, -187500.02, 0.014, 0.060, -1.024, 15:43:46.738
73, 98328.12, 71033.48, -187500.02, -187500.02, -187500.02, -187500.02, -187500.02, -187500.02, 0.000, 0.000, 0.000, 15:43:47.203
74, 98080.84, 70701.80, -187500.02, -187500.02, -187500.02, -187500.02, -187500.02, -187500.02, 0.000, 0.000, 0.000, 15:43:47.204
75, 97328.84, 69799.45, -187500.02, -187500.02, -187500.02, -187500.02, -187500.02, -187500.02, 0.000, 0.000, 0.000, 15:43:47.204
76, 96442.21, 68797.23, -187500.02, -187500.02, -187500.02, -187500.02, -187500.02, -187500.02, 0.000, 0.000, 0.000, 15:43:47.204
77, 97494.51, 70086.30, -187500.02, -187500.02, -187500.02, -187500.02, -187500.02, -187500.02, 0.000, 0.000, 0.000, 15:43:47.204
78, 98336.72, 71034.47, -187500.02, -187500.02, -187500.02, -187500.02, -187500.02, -187500.02, 0.000, 0.000, 0.000, 15:43:47.205
79, 98089.02, 70702.90, -187500.02, -187500.02, -187500.02, -187500.02, -187500.02, -187500.02, 0.000, 0.000, 0.000, 15:43:47.205
80, 97344.28, 69810.40, -187500.02, -187500.02, -187500.02, -187500.02, -187500.02, -187500.02, 0.000, 0.000, 0.000, 15:43:47.205
81, 96451.08, 68809.77, -187500.02, -187500.02, -187500.02, -187500.02, -187500.02, -187500.02, 0.000, 0.000, 0.000, 15:43:47.205
82, 97493.59, 70089.55, -187500.02, -187500.02, -187500.02, -187500.02, -187500.02, -187500.02, 0.018, 0.052, -1.030, 15:43:47.205
83, 98343.49, 71039.12, -187500.02, -187500.02, -187500.02, -187500.02, -187500.02, -187500.02, 0.000, 0.000, 0.000, 15:43:47.205
84, 98101.00, 70715.38, -187500.02, -187500.02, -187500.02, -187500.02, -187500.02, -187500.02, 0.000, 0.000, 0.000, 15:43:47.206
85, 97361.71, 69824.39, -187500.02, -187500.02, -187500.02, -187500.02, -187500.02, -187500.02, 0.000, 0.000, 0.000, 15:43:47.206
86, 96470.17, 68819.32, -187500.02, -187500.02, -187500.02, -187500.02, -187500.02, -187500.02, 0.000, 0.000, 0.000, 15:43:47.206
87, 97508.19, 70095.67, -187500.02, -187500.02, -187500.02, -187500.02, -187500.02, -187500.02, 0.000, 0.000, 0.000, 15:43:47.206
88, 98368.23, 71059.37, -187500.02, -187500.02, -187500.02, -187500.02, -187500.02, -187500.02, 0.000, 0.000, 0.000, 15:43:47.206
89, 98126.86, 70733.19, -187500.02, -187500.02, -187500.02, -187500.02, -187500.02, -187500.02, 0.000, 0.000, 0.000, 15:43:47.207
90, 97393.61, 69856.46, -187500.02, -187500.02, -187500.02, -187500.02, -187500.02, -187500.02, 0.000, 0.000, 0.000, 15:43:47.207
91, 96502.60, 68854.45, -187500.02, -187500.02, -187500.02, -187500.02, -187500.02, -187500.02, 0.000, 0.000, 0.000, 15:43:47.207
92, 97542.45, 70129.04, -187500.02, -187500.02, -187500.02, -187500.02, -187500.02, -187500.02, 0.018, 0.050, -1.026, 15:43:47.207
93, 98396.11, 71085.54, -187500.02, -187500.02, -187500.02, -187500.02, -187500.02, -187500.02, 0.000, 0.000, 0.000, 15:43:47.207
94, 98160.88, 70765.09, -187500.02, -187500.02, -187500.02, -187500.02, -187500.02, -187500.02, 0.000, 0.000, 0.000, 15:43:47.207
95, 97436.46, 69895.52, -187500.02, -187500.02, -187500.02, -187500.02, -187500.02, -187500.02, 0.000, 0.000, 0.000, 15:43:47.208
96, 96534.66, 68881.86, -187500.02, -187500.02, -187500.02, -187500.02, -187500.02, -187500.02, 0.000, 0.000, 0.000, 15:43:47.208
97, 97568.20, 70149.23, -187500.02, -187500.02, -187500.02, -187500.02, -187500.02, -187500.02, 0.000, 0.000, 0.000, 15:43:47.208
98, 98439.00, 71124.92, -187500.02, -187500.02, -187500.02, -187500.02, -187500.02, -187500.02, 0.000, 0.000, 0.000, 15:43:47.208
99, 98197.27, 70803.71, -187500.02, -187500.02, -187500.02, -187500.02, -187500.02, -187500.02, 0.000, 0.000, 0.000, 15:43:47.208
100, 97456.58, 69910.53, -187500.02, -187500.02, -187500.02, -187500.02, -187500.02, -187500.02, 0.000, 0.000, 0.000, 15:43:47.208
101, 96551.02, 68893.77, -187500.02, -187500.02, -187500.02, -187500.02, -187500.02, -187500.02, 0.000, 0.000, 0.000, 15:43:47.208
102, 97578.52, 70157.30, -187500.02, -187500.02, -187500.02, -187500.02, -187500.02, -187500.02, 0.020, 0.058, -1.024, 15:43:47.209
103, 98445.06, 71125.57, -187500.02, -187500.02, -187500.02, -187500.02, -187500.02, -187500.02, 0.000, 0.000, 0.000, 15:43:47.209
104, 98205.00, 70805.43, -187500.02, -187500.02, -187500.02, -187500.02, -187500.02, -187500.02, 0.000, 0.000, 0.000, 15:43:47.209
105, 97472.35, 69925.91, -187500.02, -187500.02, -187500.02, -187500.02, -187500.02, -187500.02, 0.000, 0.000, 0.000, 15:43:47.209
106, 96562.20, 68898.16, -187500.02, -187500.02, -187500.02, -187500.02, -187500.02, -187500.02, 0.000, 0.000, 0.000, 15:43:47.209
107, 97578.70, 70149.14, -187500.02, -187500.02, -187500.02, -187500.02, -187500.02, -187500.02, 0.000, 0.000, 0.000, 15:43:47.209
108, 98453.35, 71131.63, -187500.02, -187500.02, -187500.02, -187500.02, -187500.02, -187500.02, 0.000, 0.000, 0.000, 15:43:47.209
109, 98214.86, 70811.06, -187500.02, -187500.02, -187500.02, -187500.02, -187500.02, -187500.02, 0.000, 0.000, 0.000, 15:43:47.209
110, 97486.77, 69933.42, -187500.02, -187500.02, -187500.02, -187500.02, -187500.02, -187500.02, 0.000, 0.000, 0.000, 15:43:47.210
111, 96574.98, 68909.11, -187500.02, -187500.02, -187500.02, -187500.02, -187500.02, -187500.02, 0.000, 0.000, 0.000, 15:43:47.210
112, 97592.63, 70160.02, -187500.02, -187500.02, -187500.02, -187500.02, -187500.02, -187500.02, 0.018, 0.058, -1.022, 15:43:47.210
113, 98469.34, 71142.96, -187500.02, -187500.02, -187500.02, -187500.02, -187500.02, -187500.02, 0.000, 0.000, 0.000, 15:43:47.210
114, 98230.57, 70821.21, -187500.02, -187500.02, -187500.02, -187500.02, -187500.02, -187500.02, 0.000, 0.000, 0.000, 15:43:47.210
115, 97505.41, 69951.26, -187500.02, -187500.02, -187500.02, -187500.02, -187500.02, -187500.02, 0.000, 0.000, 0.000, 15:43:47.210
116, 96591.70, 68919.12, -187500.02, -187500.02, -187500.02, -187500.02, -187500.02, -187500.02, 0.000, 0.000, 0.000, 15:43:47.210
117, 97600.81, 70163.94, -187500.02, -187500.02, -187500.02, -187500.02, -187500.02, -187500.02, 0.000, 0.000, 0.000, 15:43:47.210
118, 98472.15, 71147.14, -187500.02, -187500.02, -187500.02, -187500.02, -187500.02, -187500.02, 0.000, 0.000, 0.000, 15:43:47.211
119, 98243.70, 70834.69, -187500.02, -187500.02, -187500.02, -187500.02, -187500.02, -187500.02, 0.000, 0.000, 0.000, 15:43:47.211
120, 97524.59, 69968.87, -187500.02, -187500.02, -187500.02, -187500.02, -187500.02, -187500.02, 0.000, 0.000, 0.000, 15:43:47.211
121, 96610.45, 68940.98, -187500.02, -187500.02, -187500.02, -187500.02, -187500.02, -187500.02, 0.000, 0.000, 0.000, 15:43:47.211
122, 97627.86, 70189.30, -187500.02, -187500.02, -187500.02, -187500.02, -187500.02, -187500.02, 0.022, 0.058, -1.022, 15:43:47.211
123, 98504.52, 71176.18, -187500.02, -187500.02, -187500.02, -187500.02, -187500.02, -187500.02, 0.000, 0.000, 0.000, 15:43:47.211
124, 98278.92, 70869.58, -187500.02, -187500.02, -187500.02, -187500.02, -187500.02, -187500.02, 0.000, 0.000, 0.000, 15:43:47.211
125, 97545.27, 69988.63, -187500.02, -187500.02, -187500.02, -187500.02, -187500.02, -187500.02, 0.000, 0.000, 0.000, 15:43:47.211
126, 96619.30, 68944.09, -187500.02, -187500.02, -187500.02, -187500.02, -187500.02, -187500.02, 0.000, 0.000, 0.000, 15:43:47.212
127, 97623.38, 70179.13, -187500.02, -187500.02, -187500.02, -187500.02, -187500.02, -187500.02, 0.000, 0.000, 0.000, 15:43:47.212
128, 98505.59, 71169.65, -187500.02, -187500.02, -187500.02, -187500.02, -187500.02, -187500.02, 0.000, 0.000, 0.000, 15:43:47.212
129, 98277.66, 70859.70, -187500.02, -187500.02, -187500.02, -187500.02, -187500.02, -187500.02, 0.000, 0.000, 0.000, 15:43:47.212
130, 97552.06, 69986.69, -187500.02, -187500.02, -187500.02, -187500.02, -187500.02, -187500.02, 0.000, 0.000, 0.000, 15:43:47.212
131, 96632.45, 68950.79, -187500.02, -187500.02, -187500.02, -187500.02, -187500.02, -187500.02, 0.000, 0.000, 0.000, 15:43:47.212
132, 97634.56, 70184.66, -187500.02, -187500.02, -187500.02, -187500.02, -187500.02, -187500.02, 0.022, 0.058, -1.028, 15:43:47.212
133, 98521.21, 71183.55, -187500.02, -187500.02, -187500.02, -187500.02, -187500.02, -187500.02, 0.000, 0.000, 0.000, 15:43:47.212
134, 98291.14, 70870.20, -187500.02, -187500.02, -187500.02, -187500.02, -187500.02, -187500.02, 0.000, 0.000, 0.000, 15:43:47.213
135, 97572.49, 70004.50, -187500.02, -187500.02, -187500.02, -187500.02, -187500.02, -187500.02, 0.000, 0.000, 0.000, 15:43:47.213
136, 96642.39, 68957.99, -187500.02, -187500.02, -187500.02, -187500.02, -187500.02, -187500.02, 0.000, 0.000, 0.000, 15:43:47.213
137, 97644.89, 70195.27, -187500.02, -187500.02, -187500.02, -187500.02, -187500.02, -187500.02, 0.000, 0.000, 0.000, 15:43:47.213
138, 98538.27, 71202.33, -187500.02, -187500.02, -187500.02, -187500.02, -187500.02, -187500.02, 0.000, 0.000, 0.000, 15:43:47.213
139, 98306.19, 70883.28, -187500.02, -187500.02, -187500.02, -187500.02, -187500.02, -187500.02, 0.000, 0.000, 0.000, 15:43:47.213
140, 97599.09, 70032.69, -187500.02, -187500.02, -187500.02, -187500.02, -187500.02, -187500.02, 0.000, 0.000, 0.000, 15:43:47.213
141, 96668.97, 68984.84, -187500.02, -187500.02, -187500.02, -187500.02, -187500.02, -187500.02, 0.020, 0.050, -1.028, 15:43:47.213
142, 97665.63, 70217.09, -187500.02, -187500.02, -187500.02, -187500.02, -187500.02, -187500.02, 0.000, 0.000, 0.000, 15:43:47.213
143, 98553.76, 71218.80, -187500.02, -187500.02, -187500.02, -187500.02, -187500.02, -187500.02, 0.000, 0.000, 0.000, 15:43:47.214
144, 98325.66, 70909.25, -187500.02, -187500.02, -187500.02, -187500.02, -187500.02, -187500.02, 0.000, 0.000, 0.000, 15:43:47.214
145, 97608.90, 70050.12, -187500.02, -187500.02, -187500.02, -187500.02, -187500.02, -187500.02, 0.000, 0.000, 0.000, 15:43:47.214
146, 96676.56, 68995.12, -187500.02, -187500.02, -187500.02, -187500.02, -187500.02, -187500.02, 0.000, 0.000, 0.000, 15:43:47.214
147, 97663.46, 70218.47, -187500.02, -187500.02, -187500.02, -187500.02, -187500.02, -187500.02, 0.000, 0.000, 0.000, 15:43:47.214
148, 98559.55, 71228.64, -187500.02, -187500.02, -187500.02, -187500.02, -187500.02, -187500.02, 0.000, 0.000, 0.000, 15:43:47.214
