%OpenBCI Raw EEG Data
%
%Sample Rate = 250.0 Hz
%First Column = SampleIndex
%Last Column = Timestamp 
%Other Columns = EEG data in microvolts followed by Accel Data (in G) interleaved with Aux Data
0, 50931.78, 23935.32, -187500.02, -182564.14, -187500.02, -187500.02, -187500.02, -187500.02, 0.010, -0.036, 0.516, 13:21:03.098
1, 51498.53, 24475.58, -187500.02, -182521.36, -187500.02, -187500.02, -187500.02, -187500.02, 0.000, 0.000, 0.000, 13:21:03.099
2, 51056.93, 24030.83, -187500.02, -182518.89, -187500.02, -187500.02, -187500.02, -187500.02, 0.000, 0.000, 0.000, 13:21:03.099
3, 49514.16, 22470.79, -187500.02, -182614.59, -187500.02, -187500.02, -187500.02, -187500.02, 0.000, 0.000, 0.000, 13:21:03.099
4, 49237.23, 22238.33, -187500.02, -182575.45, -187500.02, -187500.02, -187500.02, -187500.02, 0.000, 0.000, 0.000, 13:21:03.099
5, 50886.54, 23906.06, -187500.02, -182324.58, -187500.02, -187500.02, -187500.02, -187500.02, 0.000, 0.000, 0.000, 13:21:03.100
6, 51453.78, 24444.00, -187500.02, -182242.39, -187500.02, -187500.02, -187500.02, -187500.02, 0.000, 0.000, 0.000, 13:21:03.100
7, 51019.91, 23993.17, -187500.02, -182235.55, -187500.02, -187500.02, -187500.02, -187500.02, 0.028, -0.076, 1.016, 13:21:03.100
8, 49469.53, 22423.22, -187500.02, -182348.86, -187500.02, -187500.02, -187500.02, -187500.02, 0.000, 0.000, 0.000, 13:21:03.100
9, 49167.49, 22166.63, -187500.02, -182313.22, -187500.02, -187500.02, -187500.02, -187500.02, 0.000, 0.000, 0.000, 13:21:03.100
10, 50828.45, 23841.78, -187500.02, -182067.84, -187500.02, -187500.02, -187500.02, -187500.02, 0.000, 0.000, 0.000, 13:21:03.100
11, 51404.41, 24389.60, -187500.02, -182009.88, -187500.02, -187500.02, -187500.02, -187500.02, 0.000, 0.000, 0.000, 13:21:03.101
12, 50975.27, 23951.99, -187500.02, -182037.63, -187500.02, -187500.02, -187500.02, -187500.02, 0.000, 0.000, 0.000, 13:21:03.101
13, 49426.61, 22377.96, -187500.02, -182136.95, -187500.02, -187500.02, -187500.02, -187500.02, 0.000, 0.000, 0.000, 13:21:03.101
14, 49145.63, 22138.33, -187500.02, -182101.83, -187500.02, -187500.02, -187500.02, -187500.02, 0.000, 0.000, 0.000, 13:21:03.101
15, 50821.45, 23831.27, -187500.02, -181854.81, -187500.02, -187500.02, -187500.02, -187500.02, 0.000, 0.000, 0.000, 13:21:03.101
16, 51420.79, 24404.64, -187500.02, -181792.08, -187500.02, -187500.02, -187500.02, -187500.02, 0.024, -0.074, 1.028, 13:21:03.101
17, 50997.83, 23969.76, -187500.02, -181817.95, -187500.02, -187500.02, -187500.02, -187500.02, 0.000, 0.000, 0.000, 13:21:03.102
18, 49463.00, 22416.32, -187500.02, -181920.86, -187500.02, -187500.02, -187500.02, -187500.02, 0.000, 0.000, 0.000, 13:21:03.102
19, 49169.88, 22164.26, -187500.02, -181863.31, -187500.02, -187500.02, -187500.02, -187500.02, 0.000, 0.000, 0.000, 13:21:03.102
20, 50856.41, 23860.49, -187500.02, -181630.31, -187500.02, -187500.02, -187500.02, -187500.02, 0.000, 0.000, 0.000, 13:21:03.102
21, 51439.97, 24413.22, -187500.02, -181549.22, -187500.02, -187500.02, -187500.02, -187500.02, 0.000, 0.000, 0.000, 13:21:03.102
22, 51022.64, 23997.30, -187500.02, -181555.19, -187500.02, -187500.02, -187500.02, -187500.02, 0.000, 0.000, 0.000, 13:21:03.102
23, 49490.70, 22453.09, -187500.02, -181668.45, -187500.02, -187500.02, -187500.02, -187500.02, 0.000, 0.000, 0.000, 13:21:03.103
24, 49181.64, 22184.51, -187500.02, -181639.88, -187500.02, -187500.02, -187500.02, -187500.02, 0.000, 0.000, 0.000, 13:21:03.103
25, 50850.08, 23857.78, -187500.02, -181369.98, -187500.02, -187500.02, -187500.02, -187500.02, 0.000, 0.000, 0.000, 13:21:03.103
26, 51456.95, 24434.28, -187500.02, -181304.84, -187500.02, -187500.02, -187500.02, -187500.02, 0.024, -0.072, 1.028, 13:21:03.103
27, 51037.05, 24004.72, -187500.02, -181319.41, -187500.02, -187500.02, -187500.02, -187500.02, 0.000, 0.000, 0.000, 13:21:03.103
28, 49511.57, 22455.30, -187500.02, -181438.95, -187500.02, -187500.02, -187500.02, -187500.02, 0.000, 0.000, 0.000, 13:21:03.103
29, 49198.49, 22181.13, -187500.02, -181412.98, -187500.02, -187500.02, -187500.02, -187500.02, 0.000, 0.000, 0.000, 13:21:03.104
30, 50865.89, 23864.24, -187500.02, -181172.08, -187500.02, -187500.02, -187500.02, -187500.02, 0.000, 0.000, 0.000, 13:21:03.104
31, 51456.31, 24428.96, -187500.02, -181093.73, -187500.02, -187500.02, -187500.02, -187500.02, 0.000, 0.000, 0.000, 13:21:03.104
32, 51034.30, 23996.27, -187500.02, -181092.38, -187500.02, -187500.02, -187500.02, -187500.02, 0.000, 0.000, 0.000, 13:21:03.104
33, 49502.99, 22445.80, -187500.02, -181200.98, -187500.02, -187500.02, -187500.02, -187500.02, 0.000, 0.000, 0.000, 13:21:03.104
34, 49164.25, 22156.01, -187500.02, -181174.73, -187500.02, -187500.02, -187500.02, -187500.02, 0.000, 0.000, 0.000, 13:21:03.105
35, 50831.31, 23836.64, -187500.02, -180939.80, -187500.02, -187500.02, -187500.02, -187500.02, 0.000, 0.000, 0.000, 13:21:03.105
36, 51448.68, 24425.87, -187500.02, -180881.63, -187500.02, -187500.02, -187500.02, -187500.02, 0.032, -0.080, 1.028, 13:21:03.105
37, 51032.63, 23997.41, -187500.02, -180867.38, -187500.02, -187500.02, -187500.02, -187500.02, 0.000, 0.000, 0.000, 13:21:03.105
38, 49518.97, 22459.10, -187500.02, -180987.70, -187500.02, -187500.02, -187500.02, -187500.02, 0.000, 0.000, 0.000, 13:21:03.105
39, 49182.55, 22162.51, -187500.02, -180953.66, -187500.02, -187500.02, -187500.02, -187500.02, 0.000, 0.000, 0.000, 13:21:03.105
40, 50848.65, 23846.47, -187500.02, -180707.66, -187500.02, -187500.02, -187500.02, -187500.02, 0.000, 0.000, 0.000, 13:21:03.105
41, 51466.43, 24438.03, -187500.02, -180654.17, -187500.02, -187500.02, -187500.02, -187500.02, 0.000, 0.000, 0.000, 13:21:03.105
42, 51056.28, 24024.28, -187500.02, -180690.63, -187500.02, -187500.02, -187500.02, -187500.02, 0.000, 0.000, 0.000, 13:21:03.105
43, 49536.85, 22484.36, -187500.02, -180792.59, -187500.02, -187500.02, -187500.02, -187500.02, 0.000, 0.000, 0.000, 13:21:03.106
44, 49182.20, 22167.48, -187500.02, -180731.55, -187500.02, -187500.02, -187500.02, -187500.02, 0.000, 0.000, 0.000, 13:21:03.106
45, 50846.15, 23846.27, -187500.02, -180473.83, -187500.02, -187500.02, -187500.02, -187500.02, 0.000, 0.000, 0.000, 13:21:03.106
46, 51471.44, 24447.29, -187500.02, -180421.02, -187500.02, -187500.02, -187500.02, -187500.02, 0.030, -0.080, 1.034, 13:21:03.106
47, 51070.58, 24036.89, -187500.02, -180443.17, -187500.02, -187500.02, -187500.02, -187500.02, 0.000, 0.000, 0.000, 13:21:03.106
48, 49543.18, 22480.18, -187500.02, -180532.50, -187500.02, -187500.02, -187500.02, -187500.02, 0.000, 0.000, 0.000, 13:21:03.106
49, 49177.70, 22152.61, -187500.02, -180503.70, -187500.02, -187500.02, -187500.02, -187500.02, 0.000, 0.000, 0.000, 13:21:03.106
50, 50849.46, 23840.06, -187500.02, -180282.23, -187500.02, -187500.02, -187500.02, -187500.02, 0.000, 0.000, 0.000, 13:21:03.106
51, 51465.29, 24432.38, -187500.02, -180224.61, -187500.02, -187500.02, -187500.02, -187500.02, 0.000, 0.000, 0.000, 13:21:03.107
52, 51047.05, 23997.35, -187500.02, -180234.77, -187500.02, -187500.02, -187500.02, -187500.02, 0.000, 0.000, 0.000, 13:21:03.107
53, 49528.94, 22458.21, -187500.02, -180341.17, -187500.02, -187500.02, -187500.02, -187500.02, 0.000, 0.000, 0.000, 13:21:03.107
54, 49162.91, 22133.17, -187500.02, -180306.39, -187500.02, -187500.02, -187500.02, -187500.02, 0.000, 0.000, 0.000, 13:21:03.107
55, 50816.62, 23800.07, -187500.02, -180064.78, -187500.02, -187500.02, -187500.02, -187500.02, 0.000, 0.000, 0.000, 13:21:03.107
56, 51446.45, 24398.87, -187500.02, -180028.67, -187500.02, -187500.02, -187500.02, -187500.02, 0.032, -0.082, 1.036, 13:21:03.107
57, 51037.79, 23980.49, -187500.02, -180045.95, -187500.02, -187500.02, -187500.02, -187500.02, 0.000, 0.000, 0.000, 13:21:03.107
58, 49525.74, 22453.20, -187500.02, -180155.44, -187500.02, -187500.02, -187500.02, -187500.02, 0.000, 0.000, 0.000, 13:21:03.107
59, 49149.72, 22124.67, -187500.02, -180129.02, -187500.02, -187500.02, -187500.02, -187500.02, 0.000, 0.000, 0.000, 13:21:03.107
60, 50803.79, 23796.67, -187500.02, -179865.55, -187500.02, -187500.02, -187500.02, -187500.02, 0.000, 0.000, 0.000, 13:21:03.108
61, 51452.89, 24415.68, -187500.02, -179823.84, -187500.02, -187500.02, -187500.02, -187500.02, 0.000, 0.000, 0.000, 13:21:03.108
62, 51056.32, 24007.85, -187500.02, -179831.53, -187500.02, -187500.02, -187500.02, -187500.02, 0.000, 0.000, 0.000, 13:21:03.108
63, 49543.63, 22476.82, -187500.02, -179934.13, -187500.02, -187500.02, -187500.02, -187500.02, 0.000, 0.000, 0.000, 13:21:03.109
64, 49160.02, 22130.42, -187500.02, -179917.88, -187500.02, -187500.02, -187500.02, -187500.02, 0.000, 0.000, 0.000, 13:21:03.109
65, 50814.16, 23806.82, -187500.02, -179686.72, -187500.02, -187500.02, -187500.02, -187500.02, 0.000, 0.000, 0.000, 13:21:03.109
66, 51448.93, 24425.96, -187500.02, -179635.28, -187500.02, -187500.02, -187500.02, -187500.02, 0.032, -0.076, 1.036, 13:21:03.109
67, 51047.56, 24009.88, -187500.02, -179662.47, -187500.02, -187500.02, -187500.02, -187500.02, 0.000, 0.000, 0.000, 13:21:03.109
68, 49537.03, 22475.91, -187500.02, -179771.44, -187500.02, -187500.02, -187500.02, -187500.02, 0.000, 0.000, 0.000, 13:21:03.109
69, 49140.55, 22120.31, -187500.02, -179763.72, -187500.02, -187500.02, -187500.02, -187500.02, 0.000, 0.000, 0.000, 13:21:03.109
70, 50802.03, 23797.48, -187500.02, -179539.80, -187500.02, -187500.02, -187500.02, -187500.02, 0.000, 0.000, 0.000, 13:21:03.110
71, 51441.82, 24408.84, -187500.02, -179469.38, -187500.02, -187500.02, -187500.02, -187500.02, 0.000, 0.000, 0.000, 13:21:03.110
72, 51055.92, 24009.19, -187500.02, -179465.38, -187500.02, -187500.02, -187500.02, -187500.02, 0.000, 0.000, 0.000, 13:21:03.110
73, 49552.34, 22482.26, -187500.02, -179575.50, -187500.02, -187500.02, -187500.02, -187500.02, 0.000, 0.000, 0.000, 13:21:03.110
74, 49124.93, 22093.60, -187500.02, -179562.42, -187500.02, -187500.02, -187500.02, -187500.02, 0.000, 0.000, 0.000, 13:21:03.110
75, 50799.97, 23789.16, -187500.02, -179356.30, -187500.02, -187500.02, -187500.02, -187500.02, 0.000, 0.000, 0.000, 13:21:03.110
76, 51445.31, 24413.04, -187500.02, -179291.53, -187500.02, -187500.02, -187500.02, -187500.02, 0.028, -0.078, 1.028, 13:21:03.110
77, 51038.35, 23993.77, -187500.02, -179297.69, -187500.02, -187500.02, -187500.02, -187500.02, 0.000, 0.000, 0.000, 13:21:03.110
78, 49528.91, 22461.47, -187500.02, -179384.80, -187500.02, -187500.02, -187500.02, -187500.02, 0.000, 0.000, 0.000, 13:21:03.111
79, 49125.78, 22099.30, -187500.02, -179367.31, -187500.02, -187500.02, -187500.02, -187500.02, 0.000, 0.000, 0.000, 13:21:03.111
80, 50789.62, 23785.00, -187500.02, -179137.06, -187500.02, -187500.02, -187500.02, -187500.02, 0.000, 0.000, 0.000, 13:21:03.111
81, 51448.98, 24427.01, -187500.02, -179112.66, -187500.02, -187500.02, -187500.02, -187500.02, 0.000, 0.000, 0.000, 13:21:03.111
82, 51077.94, 24040.89, -187500.02, -179183.88, -187500.02, -187500.02, -187500.02, -187500.02, 0.000, 0.000, 0.000, 13:21:03.111
83, 49561.26, 22504.47, -187500.02, -179275.00, -187500.02, -187500.02, -187500.02, -187500.02, 0.000, 0.000, 0.000, 13:21:03.111
84, 49117.82, 22103.62, -187500.02, -179253.81, -187500.02, -187500.02, -187500.02, -187500.02, 0.000, 0.000, 0.000, 13:21:03.111
85, 50785.64, 23782.90, -187500.02, -179065.83, -187500.02, -187500.02, -187500.02, -187500.02, 0.000, 0.000, 0.000, 13:21:03.111
86, 51436.35, 24404.48, -187500.02, -178972.22, -187500.02, -187500.02, -187500.02, -187500.02, 0.026, -0.078, 1.024, 13:21:03.112
87, 51064.26, 24025.71, -187500.02, -178999.42, -187500.02, -187500.02, -187500.02, -187500.02, 0.000, 0.000, 0.000, 13:21:03.112
88, 49567.63, 22507.38, -187500.02, -179130.34, -187500.02, -187500.02, -187500.02, -187500.02, 0.000, 0.000, 0.000, 13:21:03.112
89, 49111.27, 22090.12, -187500.02, -179108.77, -187500.02, -187500.02, -187500.02, -187500.02, 0.000, 0.000, 0.000, 13:21:03.112
90, 50762.69, 23759.59, -187500.02, -178887.63, -187500.02, -187500.02, -187500.02, -187500.02, 0.000, 0.000, 0.000, 13:21:03.112
91, 51420.61, 24392.70, -187500.02, -178823.47, -187500.02, -187500.02, -187500.02, -187500.02, 0.000, 0.000, 0.000, 13:21:03.112
92, 51048.66, 24006.91, -187500.02, -178857.41, -187500.02, -187500.02, -187500.02, -187500.02, 0.000, 0.000, 0.000, 13:21:03.112
93, 49560.66, 22490.12, -187500.02, -178973.70, -187500.02, -187500.02, -187500.02, -187500.02, 0.000, 0.000, 0.000, 13:21:03.112
94, 49110.02, 22079.23, -187500.02, -178967.27, -187500.02, -187500.02, -187500.02, -187500.02, 0.000, 0.000, 0.000, 13:21:03.112
95, 50759.71, 23743.43, -187500.02, -178718.47, -187500.02, -187500.02, -187500.02, -187500.02, 0.000, 0.000, 0.000, 13:21:03.113
96, 51438.70, 24401.80, -187500.02, -178669.94, -187500.02, -187500.02, -187500.02, -187500.02, 0.032, -0.080, 1.024, 13:21:03.113
97, 51073.27, 24023.79, -187500.02, -178726.67, -187500.02, -187500.02, -187500.02, -187500.02, 0.000, 0.000, 0.000, 13:21:03.113
98, 49566.04, 22495.51, -187500.02, -178826.28, -187500.02, -187500.02, -187500.02, -187500.02, 0.000, 0.000, 0.000, 13:21:03.113
99, 49089.68, 22066.89, -187500.02, -178788.45, -187500.02, -187500.02, -187500.02, -187500.02, 0.000, 0.000, 0.000, 13:21:03.113
100, 50751.42, 23745.33, -187500.02, -178585.98, -187500.02, -187500.02, -187500.02, -187500.02, 0.000, 0.000, 0.000, 13:21:03.113
101, 51427.70, 24392.41, -187500.02, -178540.47, -187500.02, -187500.02, -187500.02, -187500.02, 0.000, 0.000, 0.000, 13:21:03.114
102, 51061.73, 24019.81, -187500.02, -178570.45, -187500.02, -187500.02, -187500.02, -187500.02, 0.000, 0.000, 0.000, 13:21:03.114
103, 49580.93, 22518.17, -187500.02, -178677.25, -187500.02, -187500.02, -187500.02, -187500.02, 0.000, 0.000, 0.000, 13:21:03.114
104, 49105.73, 22078.56, -187500.02, -178674.27, -187500.02, -187500.02, -187500.02, -187500.02, 0.000, 0.000, 0.000, 13:21:03.114
105, 50751.87, 23742.87, -187500.02, -178455.81, -187500.02, -187500.02, -187500.02, -187500.02, 0.000, 0.000, 0.000, 13:21:03.114
106, 51437.87, 24403.48, -187500.02, -178411.59, -187500.02, -187500.02, -187500.02, -187500.02, 0.026, -0.076, 1.028, 13:21:03.114
107, 51068.35, 24022.34, -187500.02, -178458.41, -187500.02, -187500.02, -187500.02, -187500.02, 0.000, 0.000, 0.000, 13:21:03.115
108, 49576.64, 22510.69, -187500.02, -178555.77, -187500.02, -187500.02, -187500.02, -187500.02, 0.000, 0.000, 0.000, 13:21:03.115
109, 49082.33, 22057.97, -187500.02, -178525.70, -187500.02, -187500.02, -187500.02, -187500.02, 0.000, 0.000, 0.000, 13:21:03.115
110, 50732.60, 23727.07, -187500.02, -178304.42, -187500.02, -187500.02, -187500.02, -187500.02, 0.000, 0.000, 0.000, 13:21:03.115
111, 51428.32, 24396.12, -187500.02, -178296.28, -187500.02, -187500.02, -187500.02, -187500.02, 0.000, 0.000, 0.000, 13:21:03.115
112, 51055.72, 24008.07, -187500.02, -178332.05, -187500.02, -187500.02, -187500.02, -187500.02, 0.000, 0.000, 0.000, 13:21:03.115
113, 49566.98, 22497.21, -187500.02, -178439.88, -187500.02, -187500.02, -187500.02, -187500.02, 0.000, 0.000, 0.000, 13:21:03.116
114, 49070.32, 22043.42, -187500.02, -178432.31, -187500.02, -187500.02, -187500.02, -187500.02, 0.000, 0.000, 0.000, 13:21:03.116
115, 50713.13, 23704.31, -187500.02, -178221.89, -187500.02, -187500.02, -187500.02, -187500.02, 0.000, 0.000, 0.000, 13:21:03.116
116, 51411.34, 24369.39, -187500.02, -178164.47, -187500.02, -187500.02, -187500.02, -187500.02, 0.022, -0.076, 1.032, 13:21:03.116
117, 51055.83, 24001.35, -187500.02, -178175.56, -187500.02, -187500.02, -187500.02, -187500.02, 0.000, 0.000, 0.000, 13:21:03.116
118, 49605.49, 22517.55, -187500.02, -178299.13, -187500.02, -187500.02, -187500.02, -187500.02, 0.000, 0.000, 0.000, 13:21:03.116
119, 49114.76, 22062.38, -187500.02, -178299.34, -187500.02, -187500.02, -187500.02, -187500.02, 0.000, 0.000, 0.000, 13:21:03.116
120, 50752.23, 23724.19, -187500.02, -178092.75, -187500.02, -187500.02, -187500.02, -187500.02, 0.000, 0.000, 0.000, 13:21:03.579
121, 51447.66, 24402.27, -187500.02, -178067.25, -187500.02, -187500.02, -187500.02, -187500.02, 0.000, 0.000, 0.000, 13:21:03.579
122, 51081.29, 24032.91, -187500.02, -178104.55, -187500.02, -187500.02, -187500.02, -187500.02, 0.000, 0.000, 0.000, 13:21:03.579
123, 49602.68, 22538.27, -187500.02, -178208.83, -187500.02, -187500.02, -187500.02, -187500.02, 0.000, 0.000, 0.000, 13:21:03.579
124, 49097.01, 22074.16, -187500.02, -178232.36, -187500.02, -187500.02, -187500.02, -187500.02, 0.000, 0.000, 0.000, 13:21:03.580
125, 50732.87, 23731.61, -187500.02, -178017.88, -187500.02, -187500.02, -187500.02, -187500.02, 0.000, 0.000, 0.000, 13:21:03.580
126, 51431.77, 24409.20, -187500.02, -177941.56, -187500.02, -187500.02, -187500.02, -187500.02, 0.024, -0.076, 1.034, 13:21:03.580
127, 51086.77, 24056.60, -187500.02, -177979.64, -187500.02, -187500.02, -187500.02, -187500.02, 0.000, 0.000, 0.000, 13:21:03.580
128, 49632.63, 22568.89, -187500.02, -178147.42, -187500.02, -187500.02, -187500.02, -187500.02, 0.000, 0.000, 0.000, 13:21:03.580
129, 49104.16, 22070.60, -187500.02, -178151.89, -187500.02, -187500.02, -187500.02, -187500.02, 0.000, 0.000, 0.000, 13:21:03.580
130, 50731.86, 23716.59, -187500.02, -177917.36, -187500.02, -187500.02, -187500.02, -187500.02, 0.000, 0.000, 0.000, 13:21:03.580
131, 51448.80, 24410.63, -187500.02, -177885.84, -187500.02, -187500.02, -187500.02, -187500.02, 0.000, 0.000, 0.000, 13:21:03.581
132, 51096.11, 24050.45, -187500.02, -177927.53, -187500.02, -187500.02, -187500.02, -187500.02, 0.000, 0.000, 0.000, 13:21:03.581
133, 49615.60, 22550.23, -187500.02, -178030.50, -187500.02, -187500.02, -187500.02, -187500.02, 0.000, 0.000, 0.000, 13:21:03.581
134, 49069.70, 22039.45, -187500.02, -178043.58, -187500.02, -187500.02, -187500.02, -187500.02, 0.000, 0.000, 0.000, 13:21:03.581
135, 50700.17, 23685.00, -187500.02, -177814.72, -187500.02, -187500.02, -187500.02, -187500.02, 0.026, -0.074, 1.032, 13:21:03.581
136, 51434.00, 24390.13, -187500.02, -177812.02, -187500.02, -187500.02, -187500.02, -187500.02, 0.000, 0.000, 0.000, 13:21:03.581
137, 51085.98, 24030.65, -187500.02, -177853.25, -187500.02, -187500.02, -187500.02, -187500.02, 0.000, 0.000, 0.000, 13:21:03.581
138, 49625.36, 22545.06, -187500.02, -177993.13, -187500.02, -187500.02, -187500.02, -187500.02, 0.000, 0.000, 0.000, 13:21:03.581
139, 49075.38, 22031.76, -187500.02, -177984.97, -187500.02, -187500.02, -187500.02, -187500.02, 0.000, 0.000, 0.000, 13:21:03.582
140, 50717.78, 23694.57, -187500.02, -177785.19, -187500.02, -187500.02, -187500.02, -187500.02, 0.000, 0.000, 0.000, 13:21:03.582
141, 51442.79, 24390.07, -187500.02, -177726.84, -187500.02, -187500.02, -187500.02, -187500.02, 0.000, 0.000, 0.000, 13:21:03.582
142, 51094.90, 24034.90, -187500.02, -177776.47, -187500.02, -187500.02, -187500.02, -187500.02, 0.000, 0.000, 0.000, 13:21:03.582
143, 49613.14, 22532.81, -187500.02, -177875.17, -187500.02, -187500.02, -187500.02, -187500.02, 0.000, 0.000, 0.000, 13:21:03.582
144, 49065.99, 22018.84, -187500.02, -177877.44, -187500.02, -187500.02, -187500.02, -187500.02, 0.000, 0.000, 0.000, 13:21:03.582
145, 50720.33, 23695.84, -187500.02, -177697.50, -187500.02, -187500.02, -187500.02, -187500.02, 0.028, -0.072, 1.034, 13:21:03.582
146, 51442.83, 24402.67, -187500.02, -177659.53, -187500.02, -187500.02, -187500.02, -187500.02, 0.000, 0.000, 0.000, 13:21:03.582
147, 51094.72, 24050.39, -187500.02, -177670.25, -187500.02, -187500.02, -187500.02, -187500.02, 0.000, 0.000, 0.000, 13:21:03.582
148, 49637.05, 22569.29, -187500.02, -177762.14, -187500.02, -187500.02, -187500.02, -187500.02, 0.000, 0.000, 0.000, 13:21:03.583
149, 49085.28, 22052.52, -187500.02, -177823.05, -187500.02, -187500.02, -187500.02, -187500.02, 0.000, 0.000, 0.000, 13:21:03.583
150, 50715.64, 23698.82, -187500.02, -177637.67, -187500.02, -187500.02, -187500.02, -187500.02, 0.000, 0.000, 0.000, 13:21:03.583
151, 51459.48, 24412.08, -187500.02, -177607.88, -187500.02, -187500.02, -187500.02, -187500.02, 0.000, 0.000, 0.000, 13:21:03.583
152, 51123.20, 24067.62, -187500.02, -177655.73, -187500.02, -187500.02, -187500.02, -187500.02, 0.000, 0.000, 0.000, 13:21:03.583
153, 49675.21, 22596.16, -187500.02, -177784.83, -187500.02, -187500.02, -187500.02, -187500.02, 0.000, 0.000, 0.000, 13:21:03.583
154, 49107.81, 22067.79, -187500.02, -177797.80, -187500.02, -187500.02, -187500.02, -187500.02, 0.000, 0.000, 0.000, 13:21:03.583
155, 50738.28, 23722.64, -187500.02, -177598.31, -187500.02, -187500.02, -187500.02, -187500.02, 0.022, -0.072, 1.040, 13:21:03.583
156, 51477.65, 24440.42, -187500.02, -177543.45, -187500.02, -187500.02, -187500.02, -187500.02, 0.000, 0.000, 0.000, 13:21:03.583
157, 51144.41, 24091.92, -187500.02, -177591.44, -187500.02, -187500.02, -187500.02, -187500.02, 0.000, 0.000, 0.000, 13:21:03.584
158, 49683.07, 22595.45, -187500.02, -177694.33, -187500.02, -187500.02, -187500.02, -187500.02, 0.000, 0.000, 0.000, 13:21:03.584
159, 49101.77, 22053.93, -187500.02, -177740.84, -187500.02, -187500.02, -187500.02, -187500.02, 0.000, 0.000, 0.000, 13:21:03.584
160, 50730.93, 23705.86, -187500.02, -177571.13, -187500.02, -187500.02, -187500.02, -187500.02, 0.000, 0.000, 0.000, 13:21:03.584
161, 51479.73, 24427.17, -187500.02, -177547.44, -187500.02, -187500.02, -187500.02, -187500.02, 0.000, 0.000, 0.000, 13:21:03.584
162, 51132.52, 24072.25, -187500.02, -177569.20, -187500.02, -187500.02, -187500.02, -187500.02, 0.000, 0.000, 0.000, 13:21:03.584
163, 49684.48, 22604.65, -187500.02, -177690.19, -187500.02, -187500.02, -187500.02, -187500.02, 0.000, 0.000, 0.000, 13:21:03.584
164, 49089.84, 22048.97, -187500.02, -177714.16, -187500.02, -187500.02, -187500.02, -187500.02, 0.000, 0.000, 0.000, 13:21:03.584
165, 50726.81, 23703.71, -187500.02, -177507.52, -187500.02, -187500.02, -187500.02, -187500.02, 0.024, -0.076, 1.034, 13:21:03.585
166, 51493.66, 24441.43, -187500.02, -177488.42, -187500.02, -187500.02, -187500.02, -187500.02, 0.000, 0.000, 0.000, 13:21:03.585
167, 51157.42, 24102.91, -187500.02, -177539.30, -187500.02, -187500.02, -187500.02, -187500.02, 0.000, 0.000, 0.000, 13:21:03.585
168, 49716.27, 22639.84, -187500.02, -177681.36, -187500.02, -187500.02, -187500.02, -187500.02, 0.000, 0.000, 0.000, 13:21:03.585
169, 49130.59, 22085.78, -187500.02, -177751.95, -187500.02, -187500.02, -187500.02, -187500.02, 0.000, 0.000, 0.000, 13:21:03.585
170, 50733.56, 23711.42, -187500.02, -177530.06, -187500.02, -187500.02, -187500.02, -187500.02, 0.000, 0.000, 0.000, 13:21:03.585
171, 51498.69, 24451.67, -187500.02, -177503.28, -187500.02, -187500.02, -187500.02, -187500.02, 0.000, 0.000, 0.000, 13:21:03.585
172, 51168.71, 24116.32, -187500.02, -177542.73, -187500.02, -187500.02, -187500.02, -187500.02, 0.000, 0.000, 0.000, 13:21:03.585
173, 49740.57, 22657.47, -187500.02, -177687.33, -187500.02, -187500.02, -187500.02, -187500.02, 0.000, 0.000, 0.000, 13:21:03.585
174, 49136.35, 22092.26, -187500.02, -177724.84, -187500.02, -187500.02, -187500.02, -187500.02, 0.000, 0.000, 0.000, 13:21:03.586
175, 50751.60, 23731.43, -187500.02, -177520.05, -187500.02, -187500.02, -187500.02, -187500.02, 0.022, -0.078, 1.032, 13:21:03.586
176, 51508.83, 24465.30, -187500.02, -177486.02, -187500.02, -187500.02, -187500.02, -187500.02, 0.000, 0.000, 0.000, 13:21:03.586
177, 51184.71, 24134.05, -187500.02, -177545.02, -187500.02, -187500.02, -187500.02, -187500.02, 0.000, 0.000, 0.000, 13:21:03.586
178, 49754.76, 22681.23, -187500.02, -177706.05, -187500.02, -187500.02, -187500.02, -187500.02, 0.000, 0.000, 0.000, 13:21:03.586
179, 49121.29, 22079.48, -187500.02, -177718.42, -187500.02, -187500.02, -187500.02, -187500.02, 0.000, 0.000, 0.000, 13:21:03.586
180, 50736.83, 23713.21, -187500.02, -177505.13, -187500.02, -187500.02, -187500.02, -187500.02, 0.000, 0.000, 0.000, 13:21:03.586
181, 51517.37, 24467.87, -187500.02, -177493.77, -187500.02, -187500.02, -187500.02, -187500.02, 0.000, 0.000, 0.000, 13:21:03.586
182, 51198.82, 24145.63, -187500.02, -177555.59, -187500.02, -187500.02, -187500.02, -187500.02, 0.000, 0.000, 0.000, 13:21:03.587
183, 49752.86, 22674.48, -187500.02, -177696.08, -187500.02, -187500.02, -187500.02, -187500.02, 0.000, 0.000, 0.000, 13:21:03.587
184, 49123.16, 22072.08, -187500.02, -177734.34, -187500.02, -187500.02, -187500.02, -187500.02, 0.000, 0.000, 0.000, 13:21:03.587
185, 50756.52, 23731.76, -187500.02, -177568.02, -187500.02, -187500.02, -187500.02, -187500.02, 0.020, -0.076, 1.030, 13:21:03.587
186, 51516.48, 24466.53, -187500.02, -177518.55, -187500.02, -187500.02, -187500.02, -187500.02, 0.000, 0.000, 0.000, 13:21:03.587
187, 51208.70, 24140.64, -187500.02, -177568.08, -187500.02, -187500.02, -187500.02, -187500.02, 0.000, 0.000, 0.000, 13:21:03.587
188, 49774.63, 22686.55, -187500.02, -177710.25, -187500.02, -187500.02, -187500.02, -187500.02, 0.000, 0.000, 0.000, 13:21:03.587
189, 49134.05, 22083.50, -187500.02, -177745.67, -187500.02, -187500.02, -187500.02, -187500.02, 0.000, 0.000, 0.000, 13:21:03.588
190, 50743.96, 23713.50, -187500.02, -177546.09, -187500.02, -187500.02, -187500.02, -187500.02, 0.000, 0.000, 0.000, 13:21:03.588
191, 51527.72, 24474.44, -187500.02, -177505.28, -187500.02, -187500.02, -187500.02, -187500.02, 0.000, 0.000, 0.000, 13:21:03.588
192, 51219.89, 24161.34, -187500.02, -177576.80, -187500.02, -187500.02, -187500.02, -187500.02, 0.000, 0.000, 0.000, 13:21:03.588
193, 49783.86, 22709.35, -187500.02, -177720.75, -187500.02, -187500.02, -187500.02, -187500.02, 0.000, 0.000, 0.000, 13:21:03.588
194, 49134.63, 22090.03, -187500.02, -177766.14, -187500.02, -187500.02, -187500.02, -187500.02, 0.000, 0.000, 0.000, 13:21:03.588
195, 50724.22, 23706.01, -187500.02, -177559.91, -187500.02, -187500.02, -187500.02, -187500.02, 0.020, -0.076, 1.026, 13:21:03.588
196, 51520.84, 24475.00, -187500.02, -177549.83, -187500.02, -187500.02, -187500.02, -187500.02, 0.000, 0.000, 0.000, 13:21:03.589
197, 51210.93, 24150.16, -187500.02, -177601.48, -187500.02, -187500.02, -187500.02, -187500.02, 0.000, 0.000, 0.000, 13:21:03.589
198, 49789.22, 22703.25, -187500.02, -177742.55, -187500.02, -187500.02, -187500.02, -187500.02, 0.000, 0.000, 0.000, 13:21:03.589
199, 49136.17, 22086.38, -187500.02, -177796.55, -187500.02, -187500.02, -187500.02, -187500.02, 0.000, 0.000, 0.000, 13:21:03.589
200, 50737.48, 23704.05, -187500.02, -177603.72, -187500.02, -187500.02, -187500.02, -187500.02, 0.000, 0.000, 0.000, 13:21:03.589
201, 51538.07, 24475.09, -187500.02, -177596.55, -187500.02, -187500.02, -187500.02, -187500.02, 0.000, 0.000, 0.000, 13:21:03.589
202, 51226.46, 24162.99, -187500.02, -177655.73, -187500.02, -187500.02, -187500.02, -187500.02, 0.000, 0.000, 0.000, 13:21:03.589
203, 49805.56, 22725.58, -187500.02, -177825.02, -187500.02, -187500.02, -187500.02, -187500.02, 0.000, 0.000, 0.000, 13:21:03.589
204, 49125.02, 22084.26, -187500.02, -177882.59, -187500.02, -187500.02, -187500.02, -187500.02, 0.000, 0.000, 0.000, 13:21:03.590
205, 50713.51, 23702.24, -187500.02, -177670.34, -187500.02, -187500.02, -187500.02, -187500.02, 0.020, -0.076, 1.022, 13:21:03.590
206, 51525.06, 24488.17, -187500.02, -177646.23, -187500.02, -187500.02, -187500.02, -187500.02, 0.000, 0.000, 0.000, 13:21:03.590
207, 51229.64, 24173.97, -187500.02, -177725.22, -187500.02, -187500.02, -187500.02, -187500.02, 0.000, 0.000, 0.000, 13:21:03.590
208, 49814.46, 22730.72, -187500.02, -177860.22, -187500.02, -187500.02, -187500.02, -187500.02, 0.000, 0.000, 0.000, 13:21:03.590
209, 49130.56, 22086.12, -187500.02, -177911.94, -187500.02, -187500.02, -187500.02, -187500.02, 0.000, 0.000, 0.000, 13:21:03.590
210, 50733.72, 23716.52, -187500.02, -177726.67, -187500.02, -187500.02, -187500.02, -187500.02, 0.000, 0.000, 0.000, 13:21:03.590
211, 51541.07, 24495.92, -187500.02, -177683.00, -187500.02, -187500.02, -187500.02, -187500.02, 0.000, 0.000, 0.000, 13:21:03.591
212, 51234.36, 24178.98, -187500.02, -177749.48, -187500.02, -187500.02, -187500.02, -187500.02, 0.000, 0.000, 0.000, 13:21:03.591
213, 49813.45, 22732.37, -187500.02, -177904.33, -187500.02, -187500.02, -187500.02, -187500.02, 0.000, 0.000, 0.000, 13:21:03.591
214, 49120.15, 22073.87, -187500.02, -177959.95, -187500.02, -187500.02, -187500.02, -187500.02, 0.000, 0.000, 0.000, 13:21:03.591
215, 50706.68, 23683.26, -187500.02, -177760.44, -187500.02, -187500.02, -187500.02, -187500.02, 0.022, -0.078, 1.030, 13:21:03.591
216, 51500.07, 24448.18, -187500.02, -177717.34, -187500.02, -187500.02, -187500.02, -187500.02, 0.000, 0.000, 0.000, 13:21:03.592
217, 51200.07, 24137.20, -187500.02, -177780.56, -187500.02, -187500.02, -187500.02, -187500.02, 0.000, 0.000, 0.000, 13:21:03.592
218, 49793.72, 22709.73, -187500.02, -177933.31, -187500.02, -187500.02, -187500.02, -187500.02, 0.000, 0.000, 0.000, 13:21:03.592
219, 49104.84, 22053.48, -187500.02, -178015.80, -187500.02, -187500.02, -187500.02, -187500.02, 0.000, 0.000, 0.000, 13:21:03.592
220, 50689.38, 23663.63, -187500.02, -177815.61, -187500.02, -187500.02, -187500.02, -187500.02, 0.000, 0.000, 0.000, 13:21:03.592
221, 51503.85, 24455.06, -187500.02, -177758.86, -187500.02, -187500.02, -187500.02, -187500.02, 0.000, 0.000, 0.000, 13:21:03.592
222, 51203.13, 24141.45, -187500.02, -177829.59, -187500.02, -187500.02, -187500.02, -187500.02, 0.000, 0.000, 0.000, 13:21:03.593
223, 49795.50, 22707.27, -187500.02, -177962.70, -187500.02, -187500.02, -187500.02, -187500.02, 0.000, 0.000, 0.000, 13:21:03.593
224, 49097.55, 22048.79, -187500.02, -178068.39, -187500.02, -187500.02, -187500.02, -187500.02, 0.000, 0.000, 0.000, 13:21:03.593
225, 50694.52, 23664.78, -187500.02, -177932.17, -187500.02, -187500.02, -187500.02, -187500.02, 0.024, -0.074, 1.026, 13:21:03.593
226, 51506.33, 24444.74, -187500.02, -177907.88, -187500.02, -187500.02, -187500.02, -187500.02, 0.000, 0.000, 0.000, 13:21:03.593
227, 51219.40, 24148.11, -187500.02, -177969.52, -187500.02, -187500.02, -187500.02, -187500.02, 0.000, 0.000, 0.000, 13:21:03.593
228, 49804.25, 22719.43, -187500.02, -178122.55, -187500.02, -187500.02, -187500.02, -187500.02, 0.000, 0.000, 0.000, 13:21:03.593
229, 49081.10, 22028.74, -187500.02, -178184.06, -187500.02, -187500.02, -187500.02, -187500.02, 0.000, 0.000, 0.000, 13:21:03.593
230, 50658.73, 23631.07, -187500.02, -177968.06, -187500.02, -187500.02, -187500.02, -187500.02, 0.000, 0.000, 0.000, 13:21:03.594
231, 51480.54, 24428.73, -187500.02, -177940.13, -187500.02, -187500.02, -187500.02, -187500.02, 0.000, 0.000, 0.000, 13:21:03.594
232, 51207.09, 24157.68, -187500.02, -178034.70, -187500.02, -187500.02, -187500.02, -187500.02, 0.000, 0.000, 0.000, 13:21:03.594
233, 49814.55, 22738.52, -187500.02, -178168.45, -187500.02, -187500.02, -187500.02, -187500.02, 0.000, 0.000, 0.000, 13:21:03.594
234, 49104.14, 22058.49, -187500.02, -178291.48, -187500.02, -187500.02, -187500.02, -187500.02, 0.000, 0.000, 0.000, 13:21:03.594
235, 50670.91, 23648.73, -187500.02, -178112.91, -187500.02, -187500.02, -187500.02, -187500.02, 0.020, -0.070, 1.024, 13:21:03.594
236, 51496.88, 24444.34, -187500.02, -178041.88, -187500.02, -187500.02, -187500.02, -187500.02, 0.000, 0.000, 0.000, 13:21:03.594
237, 51221.77, 24154.48, -187500.02, -178134.70, -187500.02, -187500.02, -187500.02, -187500.02, 0.000, 0.000, 0.000, 13:21:03.594
238, 49828.47, 22737.15, -187500.02, -178293.22, -187500.02, -187500.02, -187500.02, -187500.02, 0.000, 0.000, 0.000, 13:21:03.595
239, 49094.44, 22036.45, -187500.02, -178359.84, -187500.02, -187500.02, -187500.02, -187500.02, 0.000, 0.000, 0.000, 13:21:03.595
240, 50674.38, 23644.63, -187500.02, -178177.19, -187500.02, -187500.02, -187500.02, -187500.02, 0.000, 0.000, 0.000, 13:21:04.058
241, 51515.34, 24463.27, -187500.02, -178149.64, -187500.02, -187500.02, -187500.02, -187500.02, 0.000, 0.000, 0.000, 13:21:04.058
242, 51221.21, 24154.08, -187500.02, -178225.45, -187500.02, -187500.02, -187500.02, -187500.02, 0.000, 0.000, 0.000, 13:21:04.058
243, 49818.39, 22732.62, -187500.02, -178357.81, -187500.02, -187500.02, -187500.02, -187500.02, 0.000, 0.000, 0.000, 13:21:04.058
244, 49081.61, 22033.52, -187500.02, -178438.48, -187500.02, -187500.02, -187500.02, -187500.02, 0.000, 0.000, 0.000, 13:21:04.059
245, 50649.86, 23631.00, -187500.02, -178266.06, -187500.02, -187500.02, -187500.02, -187500.02, 0.018, -0.072, 1.020, 13:21:04.059
246, 51487.89, 24434.90, -187500.02, -178220.72, -187500.02, -187500.02, -187500.02, -187500.02, 0.000, 0.000, 0.000, 13:21:04.059
247, 51209.68, 24148.89, -187500.02, -178300.44, -187500.02, -187500.02, -187500.02, -187500.02, 0.000, 0.000, 0.000, 13:21:04.059
248, 49827.29, 22750.81, -187500.02, -178471.52, -187500.02, -187500.02, -187500.02, -187500.02, 0.000, 0.000, 0.000, 13:21:04.059
249, 49070.21, 22029.45, -187500.02, -178549.17, -187500.02, -187500.02, -187500.02, -187500.02, 0.000, 0.000, 0.000, 13:21:04.059
250, 50625.09, 23609.21, -187500.02, -178357.13, -187500.02, -187500.02, -187500.02, -187500.02, 0.000, 0.000, 0.000, 13:21:04.059
251, 51465.76, 24426.75, -187500.02, -178315.45, -187500.02, -187500.02, -187500.02, -187500.02, 0.000, 0.000, 0.000, 13:21:04.059
252, 51189.98, 24139.77, -187500.02, -178377.67, -187500.02, -187500.02, -187500.02, -187500.02, 0.000, 0.000, 0.000, 13:21:04.060
253, 49813.74, 22739.23, -187500.02, -178530.22, -187500.02, -187500.02, -187500.02, -187500.02, 0.000, 0.000, 0.000, 13:21:04.060
254, 49054.93, 22010.07, -187500.02, -178607.73, -187500.02, -187500.02, -187500.02, -187500.02, 0.000, 0.000, 0.000, 13:21:04.060
255, 50627.44, 23613.03, -187500.02, -178452.72, -187500.02, -187500.02, -187500.02, -187500.02, 0.020, -0.078, 1.020, 13:21:04.060
0, 51482.95, 24441.83, -187500.02, -178435.42, -187500.02, -187500.02, -187500.02, -187500.02, 0.000, 0.000, 0.000, 13:21:04.060
1, 51225.91, 24167.67, -187500.02, -178511.17, -187500.02, -187500.02, -187500.02, -187500.02, 0.000, 0.000, 0.000, 13:21:04.060
2, 49843.23, 22764.76, -187500.02, -178661.38, -187500.02, -187500.02, -187500.02, -187500.02, 0.000, 0.000, 0.000, 13:21:04.060
3, 49076.47, 22032.40, -187500.02, -178728.47, -187500.02, -187500.02, -187500.02, -187500.02, 0.000, 0.000, 0.000, 13:21:04.060
4, 50636.51, 23618.44, -187500.02, -178545.19, -187500.02, -187500.02, -187500.02, -187500.02, 0.000, 0.000, 0.000, 13:21:04.061
5, 51496.74, 24452.94, -187500.02, -178515.91, -187500.02, -187500.02, -187500.02, -187500.02, 0.000, 0.000, 0.000, 13:21:04.061
6, 51231.43, 24176.67, -187500.02, -178564.38, -187500.02, -187500.02, -187500.02, -187500.02, 0.000, 0.000, 0.000, 13:21:04.061
7, 49863.68, 22780.76, -187500.02, -178712.63, -187500.02, -187500.02, -187500.02, -187500.02, 0.000, 0.000, 0.000, 13:21:04.061
8, 49089.86, 22036.07, -187500.02, -178816.91, -187500.02, -187500.02, -187500.02, -187500.02, 0.022, -0.078, 1.028, 13:21:04.061
9, 50642.64, 23620.90, -187500.02, -178631.98, -187500.02, -187500.02, -187500.02, -187500.02, 0.000, 0.000, 0.000, 13:21:04.061
10, 51507.61, 24463.29, -187500.02, -178619.67, -187500.02, -187500.02, -187500.02, -187500.02, 0.000, 0.000, 0.000, 13:21:04.061
11, 51239.11, 24175.40, -187500.02, -178700.78, -187500.02, -187500.02, -187500.02, -187500.02, 0.000, 0.000, 0.000, 13:21:04.061
12, 49845.37, 22758.10, -187500.02, -178832.03, -187500.02, -187500.02, -187500.02, -187500.02, 0.000, 0.000, 0.000, 13:21:04.062
13, 49057.92, 22013.18, -187500.02, -178910.38, -187500.02, -187500.02, -187500.02, -187500.02, 0.000, 0.000, 0.000, 13:21:04.062
14, 50612.48, 23599.04, -187500.02, -178746.72, -187500.02, -187500.02, -187500.02, -187500.02, 0.000, 0.000, 0.000, 13:21:04.062
15, 51479.84, 24429.25, -187500.02, -178693.98, -187500.02, -187500.02, -187500.02, -187500.02, 0.000, 0.000, 0.000, 13:21:04.062
16, 51216.96, 24155.78, -187500.02, -178743.88, -187500.02, -187500.02, -187500.02, -187500.02, 0.000, 0.000, 0.000, 13:21:04.062
17, 49865.15, 22781.52, -187500.02, -178928.48, -187500.02, -187500.02, -187500.02, -187500.02, 0.000, 0.000, 0.000, 13:21:04.062
18, 49064.27, 22015.46, -187500.02, -179027.55, -187500.02, -187500.02, -187500.02, -187500.02, 0.022, -0.078, 1.030, 13:21:04.062
19, 50597.93, 23576.08, -187500.02, -178865.33, -187500.02, -187500.02, -187500.02, -187500.02, 0.000, 0.000, 0.000, 13:21:04.062
20, 51463.53, 24415.26, -187500.02, -178829.58, -187500.02, -187500.02, -187500.02, -187500.02, 0.000, 0.000, 0.000, 13:21:04.062
21, 51213.63, 24161.45, -187500.02, -178931.86, -187500.02, -187500.02, -187500.02, -187500.02, 0.000, 0.000, 0.000, 13:21:04.063
22, 49852.34, 22781.19, -187500.02, -179104.59, -187500.02, -187500.02, -187500.02, -187500.02, 0.000, 0.000, 0.000, 13:21:04.063
23, 49044.91, 21998.74, -187500.02, -179187.20, -187500.02, -187500.02, -187500.02, -187500.02, 0.000, 0.000, 0.000, 13:21:04.063
24, 50595.21, 23574.07, -187500.02, -179010.02, -187500.02, -187500.02, -187500.02, -187500.02, 0.000, 0.000, 0.000, 13:21:04.063
25, 51475.53, 24428.02, -187500.02, -178980.14, -187500.02, -187500.02, -187500.02, -187500.02, 0.000, 0.000, 0.000, 13:21:04.063
26, 51220.65, 24162.41, -187500.02, -179057.94, -187500.02, -187500.02, -187500.02, -187500.02, 0.000, 0.000, 0.000, 13:21:04.063
27, 49860.84, 22773.03, -187500.02, -179216.69, -187500.02, -187500.02, -187500.02, -187500.02, 0.000, 0.000, 0.000, 13:21:04.063
28, 49042.56, 21985.53, -187500.02, -179286.94, -187500.02, -187500.02, -187500.02, -187500.02, 0.022, -0.074, 1.028, 13:21:04.063
29, 50594.82, 23562.94, -187500.02, -179116.61, -187500.02, -187500.02, -187500.02, -187500.02, 0.000, 0.000, 0.000, 13:21:04.064
30, 51490.80, 24443.38, -187500.02, -179078.64, -187500.02, -187500.02, -187500.02, -187500.02, 0.000, 0.000, 0.000, 13:21:04.064
31, 51241.46, 24192.10, -187500.02, -179165.36, -187500.02, -187500.02, -187500.02, -187500.02, 0.000, 0.000, 0.000, 13:21:04.064
32, 49895.71, 22812.81, -187500.02, -179332.08, -187500.02, -187500.02, -187500.02, -187500.02, 0.000, 0.000, 0.000, 13:21:04.064
33, 49065.18, 22011.06, -187500.02, -179421.22, -187500.02, -187500.02, -187500.02, -187500.02, 0.000, 0.000, 0.000, 13:21:04.064
34, 50593.29, 23572.75, -187500.02, -179264.22, -187500.02, -187500.02, -187500.02, -187500.02, 0.000, 0.000, 0.000, 13:21:04.064
35, 51479.24, 24431.51, -187500.02, -179226.50, -187500.02, -187500.02, -187500.02, -187500.02, 0.000, 0.000, 0.000, 13:21:04.064
36, 51219.31, 24167.22, -187500.02, -179268.98, -187500.02, -187500.02, -187500.02, -187500.02, 0.000, 0.000, 0.000, 13:21:04.064
37, 49867.21, 22797.13, -187500.02, -179412.53, -187500.02, -187500.02, -187500.02, -187500.02, 0.000, 0.000, 0.000, 13:21:04.064
38, 49042.56, 21990.36, -187500.02, -179497.48, -187500.02, -187500.02, -187500.02, -187500.02, 0.026, -0.072, 1.026, 13:21:04.065
39, 50574.06, 23548.25, -187500.02, -179311.30, -187500.02, -187500.02, -187500.02, -187500.02, 0.000, 0.000, 0.000, 13:21:04.065
40, 51472.91, 24425.07, -187500.02, -179304.89, -187500.02, -187500.02, -187500.02, -187500.02, 0.000, 0.000, 0.000, 13:21:04.065
41, 51222.53, 24168.58, -187500.02, -179384.45, -187500.02, -187500.02, -187500.02, -187500.02, 0.000, 0.000, 0.000, 13:21:04.065
42, 49877.60, 22796.65, -187500.02, -179554.03, -187500.02, -187500.02, -187500.02, -187500.02, 0.000, 0.000, 0.000, 13:21:04.065
43, 49030.92, 21985.49, -187500.02, -179656.50, -187500.02, -187500.02, -187500.02, -187500.02, 0.000, 0.000, 0.000, 13:21:04.065
44, 50553.07, 23535.07, -187500.02, -179456.19, -187500.02, -187500.02, -187500.02, -187500.02, 0.000, 0.000, 0.000, 13:21:04.065
45, 51464.31, 24416.78, -187500.02, -179421.16, -187500.02, -187500.02, -187500.02, -187500.02, 0.000, 0.000, 0.000, 13:21:04.065
46, 51214.53, 24158.79, -187500.02, -179487.34, -187500.02, -187500.02, -187500.02, -187500.02, 0.000, 0.000, 0.000, 13:21:04.066
47, 49855.88, 22776.65, -187500.02, -179589.02, -187500.02, -187500.02, -187500.02, -187500.02, 0.000, 0.000, 0.000, 13:21:04.066
48, 49006.78, 21960.68, -187500.02, -179666.92, -187500.02, -187500.02, -187500.02, -187500.02, 0.028, -0.070, 1.026, 13:21:04.066
49, 50545.09, 23525.75, -187500.02, -179533.56, -187500.02, -187500.02, -187500.02, -187500.02, 0.000, 0.000, 0.000, 13:21:04.066
50, 51462.10, 24409.58, -187500.02, -179526.13, -187500.02, -187500.02, -187500.02, -187500.02, 0.000, 0.000, 0.000, 13:21:04.066
51, 51219.04, 24160.85, -187500.02, -179604.89, -187500.02, -187500.02, -187500.02, -187500.02, 0.000, 0.000, 0.000, 13:21:04.066
52, 49880.87, 22796.88, -187500.02, -179738.84, -187500.02, -187500.02, -187500.02, -187500.02, 0.000, 0.000, 0.000, 13:21:04.066
53, 49034.61, 21978.54, -187500.02, -179810.44, -187500.02, -187500.02, -187500.02, -187500.02, 0.000, 0.000, 0.000, 13:21:04.066
54, 50560.67, 23540.07, -187500.02, -179635.72, -187500.02, -187500.02, -187500.02, -187500.02, 0.000, 0.000, 0.000, 13:21:04.066
55, 51467.46, 24424.44, -187500.02, -179609.98, -187500.02, -187500.02, -187500.02, -187500.02, 0.000, 0.000, 0.000, 13:21:04.067
56, 51234.15, 24179.98, -187500.02, -179679.44, -187500.02, -187500.02, -187500.02, -187500.02, 0.000, 0.000, 0.000, 13:21:04.067
57, 49916.25, 22825.09, -187500.02, -179852.50, -187500.02, -187500.02, -187500.02, -187500.02, 0.000, 0.000, 0.000, 13:21:04.067
58, 49025.06, 21965.77, -187500.02, -179920.41, -187500.02, -187500.02, -187500.02, -187500.02, 0.020, -0.068, 1.022, 13:21:04.067
59, 50539.10, 23504.60, -187500.02, -179737.45, -187500.02, -187500.02, -187500.02, -187500.02, 0.000, 0.000, 0.000, 13:21:04.067
60, 51468.27, 24409.51, -187500.02, -179686.14, -187500.02, -187500.02, -187500.02, -187500.02, 0.000, 0.000, 0.000, 13:21:04.068
61, 51256.55, 24185.17, -187500.02, -179784.50, -187500.02, -187500.02, -187500.02, -187500.02, 0.000, 0.000, 0.000, 13:21:04.068
62, 49932.57, 22834.07, -187500.02, -179942.73, -187500.02, -187500.02, -187500.02, -187500.02, 0.000, 0.000, 0.000, 13:21:04.068
63, 49040.22, 21982.07, -187500.02, -180037.03, -187500.02, -187500.02, -187500.02, -187500.02, 0.000, 0.000, 0.000, 13:21:04.068
64, 50550.97, 23524.18, -187500.02, -179877.38, -187500.02, -187500.02, -187500.02, -187500.02, 0.000, 0.000, 0.000, 13:21:04.068
65, 51479.02, 24425.43, -187500.02, -179839.69, -187500.02, -187500.02, -187500.02, -187500.02, 0.000, 0.000, 0.000, 13:21:04.068
66, 51229.48, 24164.92, -187500.02, -179893.38, -187500.02, -187500.02, -187500.02, -187500.02, 0.000, 0.000, 0.000, 13:21:04.068
67, 49900.31, 22812.05, -187500.02, -180008.78, -187500.02, -187500.02, -187500.02, -187500.02, 0.000, 0.000, 0.000, 13:21:04.068
68, 49023.21, 21963.90, -187500.02, -180139.56, -187500.02, -187500.02, -187500.02, -187500.02, 0.026, -0.070, 1.022, 13:21:04.068
69, 50531.13, 23502.88, -187500.02, -179975.09, -187500.02, -187500.02, -187500.02, -187500.02, 0.000, 0.000, 0.000, 13:21:04.069
70, 51461.49, 24404.04, -187500.02, -179910.92, -187500.02, -187500.02, -187500.02, -187500.02, 0.000, 0.000, 0.000, 13:21:04.069
71, 51234.13, 24165.21, -187500.02, -179972.19, -187500.02, -187500.02, -187500.02, -187500.02, 0.000, 0.000, 0.000, 13:21:04.069
72, 49921.52, 22826.81, -187500.02, -180136.55, -187500.02, -187500.02, -187500.02, -187500.02, 0.000, 0.000, 0.000, 13:21:04.069
73, 49020.05, 21959.98, -187500.02, -180244.06, -187500.02, -187500.02, -187500.02, -187500.02, 0.000, 0.000, 0.000, 13:21:04.069
74, 50522.72, 23499.88, -187500.02, -180084.80, -187500.02, -187500.02, -187500.02, -187500.02, 0.000, 0.000, 0.000, 13:21:04.069
75, 51475.20, 24417.09, -187500.02, -180046.02, -187500.02, -187500.02, -187500.02, -187500.02, 0.000, 0.000, 0.000, 13:21:04.069
76, 51248.55, 24173.88, -187500.02, -180115.89, -187500.02, -187500.02, -187500.02, -187500.02, 0.000, 0.000, 0.000, 13:21:04.069
77, 49919.80, 22823.25, -187500.02, -180241.78, -187500.02, -187500.02, -187500.02, -187500.02, 0.000, 0.000, 0.000, 13:21:04.070
78, 49024.26, 21957.30, -187500.02, -180324.28, -187500.02, -187500.02, -187500.02, -187500.02, 0.022, -0.072, 1.020, 13:21:04.070
79, 50527.55, 23485.56, -187500.02, -180162.75, -187500.02, -187500.02, -187500.02, -187500.02, 0.000, 0.000, 0.000, 13:21:04.070
80, 51468.09, 24397.11, -187500.02, -180104.70, -187500.02, -187500.02, -187500.02, -187500.02, 0.000, 0.000, 0.000, 13:21:04.070
81, 51251.18, 24167.58, -187500.02, -180175.27, -187500.02, -187500.02, -187500.02, -187500.02, 0.000, 0.000, 0.000, 13:21:04.070
82, 49938.89, 22835.26, -187500.02, -180328.30, -187500.02, -187500.02, -187500.02, -187500.02, 0.000, 0.000, 0.000, 13:21:04.070
83, 49015.30, 21942.57, -187500.02, -180406.11, -187500.02, -187500.02, -187500.02, -187500.02, 0.000, 0.000, 0.000, 13:21:04.070
84, 50509.20, 23473.94, -187500.02, -180262.34, -187500.02, -187500.02, -187500.02, -187500.02, 0.000, 0.000, 0.000, 13:21:04.071
85, 51455.97, 24396.46, -187500.02, -180227.11, -187500.02, -187500.02, -187500.02, -187500.02, 0.000, 0.000, 0.000, 13:21:04.071
86, 51230.35, 24155.71, -187500.02, -180246.11, -187500.02, -187500.02, -187500.02, -187500.02, 0.000, 0.000, 0.000, 13:21:04.071
87, 49937.06, 22841.00, -187500.02, -180429.44, -187500.02, -187500.02, -187500.02, -187500.02, 0.000, 0.000, 0.000, 13:21:04.071
88, 49028.95, 21958.58, -187500.02, -180566.33, -187500.02, -187500.02, -187500.02, -187500.02, 0.026, -0.074, 1.022, 13:21:04.071
89, 50497.68, 23454.78, -187500.02, -180362.39, -187500.02, -187500.02, -187500.02, -187500.02, 0.000, 0.000, 0.000, 13:21:04.071
90, 51449.31, 24385.42, -187500.02, -180284.42, -187500.02, -187500.02, -187500.02, -187500.02, 0.000, 0.000, 0.000, 13:21:04.071
91, 51237.75, 24166.95, -187500.02, -180354.47, -187500.02, -187500.02, -187500.02, -187500.02, 0.000, 0.000, 0.000, 13:21:04.072
92, 49938.91, 22845.00, -187500.02, -180508.61, -187500.02, -187500.02, -187500.02, -187500.02, 0.000, 0.000, 0.000, 13:21:04.072
93, 49012.77, 21950.13, -187500.02, -180620.80, -187500.02, -187500.02, -187500.02, -187500.02, 0.000, 0.000, 0.000, 13:21:04.072
94, 50494.13, 23467.63, -187500.02, -180454.20, -187500.02, -187500.02, -187500.02, -187500.02, 0.000, 0.000, 0.000, 13:21:04.072
95, 51463.64, 24414.77, -187500.02, -180403.73, -187500.02, -187500.02, -187500.02, -187500.02, 0.000, 0.000, 0.000, 13:21:04.072
96, 51252.32, 24197.08, -187500.02, -180474.34, -187500.02, -187500.02, -187500.02, -187500.02, 0.000, 0.000, 0.000, 13:21:04.072
97, 49940.90, 22856.65, -187500.02, -180601.17, -187500.02, -187500.02, -187500.02, -187500.02, 0.000, 0.000, 0.000, 13:21:04.072
98, 49006.18, 21947.98, -187500.02, -180731.11, -187500.02, -187500.02, -187500.02, -187500.02, 0.022, -0.072, 1.022, 13:21:04.073
99, 50485.97, 23457.10, -187500.02, -180585.08, -187500.02, -187500.02, -187500.02, -187500.02, 0.000, 0.000, 0.000, 13:21:04.073
100, 51452.51, 24403.79, -187500.02, -180509.64, -187500.02, -187500.02, -187500.02, -187500.02, 0.000, 0.000, 0.000, 13:21:04.073
101, 51248.08, 24177.99, -187500.02, -180545.22, -187500.02, -187500.02, -187500.02, -187500.02, 0.000, 0.000, 0.000, 13:21:04.073
102, 49932.41, 22835.61, -187500.02, -180675.63, -187500.02, -187500.02, -187500.02, -187500.02, 0.000, 0.000, 0.000, 13:21:04.073
103, 48981.75, 21913.74, -187500.02, -180774.98, -187500.02, -187500.02, -187500.02, -187500.02, 0.000, 0.000, 0.000, 13:21:04.073
104, 50463.87, 23429.75, -187500.02, -180630.14, -187500.02, -187500.02, -187500.02, -187500.02, 0.000, 0.000, 0.000, 13:21:04.539
105, 51433.51, 24371.16, -187500.02, -180594.89, -187500.02, -187500.02, -187500.02, -187500.02, 0.000, 0.000, 0.000, 13:21:04.539
106, 51226.20, 24151.28, -187500.02, -180662.48, -187500.02, -187500.02, -187500.02, -187500.02, 0.000, 0.000, 0.000, 13:21:04.539
107, 49921.93, 22821.40, -187500.02, -180780.64, -187500.02, -187500.02, -187500.02, -187500.02, 0.000, 0.000, 0.000, 13:21:04.539
108, 48976.89, 21907.68, -187500.02, -180875.30, -187500.02, -187500.02, -187500.02, -187500.02, 0.022, -0.068, 1.018, 13:21:04.540
109, 50448.54, 23410.46, -187500.02, -180735.42, -187500.02, -187500.02, -187500.02, -187500.02, 0.000, 0.000, 0.000, 13:21:04.540
110, 51435.12, 24369.39, -187500.02, -180675.42, -187500.02, -187500.02, -187500.02, -187500.02, 0.000, 0.000, 0.000, 13:21:04.540
111, 51235.29, 24168.70, -187500.02, -180746.50, -187500.02, -187500.02, -187500.02, -187500.02, 0.000, 0.000, 0.000, 13:21:04.540
112, 49969.20, 22880.90, -187500.02, -180918.95, -187500.02, -187500.02, -187500.02, -187500.02, 0.000, 0.000, 0.000, 13:21:04.540
113, 48988.27, 21923.35, -187500.02, -181009.61, -187500.02, -187500.02, -187500.02, -187500.02, 0.000, 0.000, 0.000, 13:21:04.540
114, 50432.53, 23400.67, -187500.02, -180810.94, -187500.02, -187500.02, -187500.02, -187500.02, 0.000, 0.000, 0.000, 13:21:04.540
115, 51435.59, 24370.91, -187500.02, -180760.09, -187500.02, -187500.02, -187500.02, -187500.02, 0.000, 0.000, 0.000, 13:21:04.541
116, 51221.66, 24147.93, -187500.02, -180817.09, -187500.02, -187500.02, -187500.02, -187500.02, 0.000, 0.000, 0.000, 13:21:04.541
117, 49933.24, 22838.86, -187500.02, -180954.02, -187500.02, -187500.02, -187500.02, -187500.02, 0.000, 0.000, 0.000, 13:21:04.541
118, 48986.55, 21919.91, -187500.02, -181072.06, -187500.02, -187500.02, -187500.02, -187500.02, 0.020, -0.066, 1.024, 13:21:04.541
119, 50440.18, 23400.13, -187500.02, -180909.36, -187500.02, -187500.02, -187500.02, -187500.02, 0.000, 0.000, 0.000, 13:21:04.541
120, 51429.11, 24356.03, -187500.02, -180838.53, -187500.02, -187500.02, -187500.02, -187500.02, 0.000, 0.000, 0.000, 13:21:04.542
121, 51235.70, 24153.88, -187500.02, -180908.02, -187500.02, -187500.02, -187500.02, -187500.02, 0.000, 0.000, 0.000, 13:21:04.542
122, 49978.41, 22880.05, -187500.02, -181083.34, -187500.02, -187500.02, -187500.02, -187500.02, 0.000, 0.000, 0.000, 13:21:04.542
123, 48998.06, 21918.61, -187500.02, -181186.66, -187500.02, -187500.02, -187500.02, -187500.02, 0.000, 0.000, 0.000, 13:21:04.542
124, 50426.07, 23386.16, -187500.02, -180995.95, -187500.02, -187500.02, -187500.02, -187500.02, 0.000, 0.000, 0.000, 13:21:04.542
125, 51433.84, 24365.46, -187500.02, -180939.84, -187500.02, -187500.02, -187500.02, -187500.02, 0.000, 0.000, 0.000, 13:21:04.542
126, 51248.03, 24165.32, -187500.02, -181006.34, -187500.02, -187500.02, -187500.02, -187500.02, 0.000, 0.000, 0.000, 13:21:04.543
127, 49989.81, 22888.99, -187500.02, -181159.61, -187500.02, -187500.02, -187500.02, -187500.02, 0.026, -0.072, 1.028, 13:21:04.543
128, 48992.41, 21929.34, -187500.02, -181292.13, -187500.02, -187500.02, -187500.02, -187500.02, 0.000, 0.000, 0.000, 13:21:04.543
129, 50434.79, 23401.98, -187500.02, -181120.16, -187500.02, -187500.02, -187500.02, -187500.02, 0.000, 0.000, 0.000, 13:21:04.543
130, 51440.93, 24378.87, -187500.02, -181057.58, -187500.02, -187500.02, -187500.02, -187500.02, 0.000, 0.000, 0.000, 13:21:04.543
131, 51248.17, 24179.85, -187500.02, -181129.83, -187500.02, -187500.02, -187500.02, -187500.02, 0.000, 0.000, 0.000, 13:21:04.543
132, 49961.36, 22870.75, -187500.02, -181243.67, -187500.02, -187500.02, -187500.02, -187500.02, 0.000, 0.000, 0.000, 13:21:04.544
133, 48949.45, 21883.61, -187500.02, -181295.86, -187500.02, -187500.02, -187500.02, -187500.02, 0.000, 0.000, 0.000, 13:21:04.544
134, 50415.43, 23387.75, -187500.02, -181168.39, -187500.02, -187500.02, -187500.02, -187500.02, 0.000, 0.000, 0.000, 13:21:04.544
135, 51426.87, 24374.40, -187500.02, -181150.02, -187500.02, -187500.02, -187500.02, -187500.02, 0.000, 0.000, 0.000, 13:21:04.544
136, 51246.76, 24173.25, -187500.02, -181211.42, -187500.02, -187500.02, -187500.02, -187500.02, 0.000, 0.000, 0.000, 13:21:04.544
137, 49999.09, 22905.24, -187500.02, -181319.13, -187500.02, -187500.02, -187500.02, -187500.02, 0.028, -0.080, 1.028, 13:21:04.544
138, 48995.31, 21930.59, -187500.02, -181431.66, -187500.02, -187500.02, -187500.02, -187500.02, 0.000, 0.000, 0.000, 13:21:04.545
139, 50415.12, 23387.39, -187500.02, -181265.53, -187500.02, -187500.02, -187500.02, -187500.02, 0.000, 0.000, 0.000, 13:21:04.545
140, 51435.00, 24381.28, -187500.02, -181199.50, -187500.02, -187500.02, -187500.02, -187500.02, 0.000, 0.000, 0.000, 13:21:04.545
141, 51260.37, 24201.93, -187500.02, -181287.27, -187500.02, -187500.02, -187500.02, -187500.02, 0.000, 0.000, 0.000, 13:21:04.545
142, 49997.41, 22914.52, -187500.02, -181427.34, -187500.02, -187500.02, -187500.02, -187500.02, 0.000, 0.000, 0.000, 13:21:04.545
143, 48980.74, 21927.20, -187500.02, -181558.59, -187500.02, -187500.02, -187500.02, -187500.02, 0.000, 0.000, 0.000, 13:21:04.545
144, 50417.64, 23393.33, -187500.02, -181411.69, -187500.02, -187500.02, -187500.02, -187500.02, 0.000, 0.000, 0.000, 13:21:04.546
145, 51444.68, 24382.58, -187500.02, -181342.00, -187500.02, -187500.02, -187500.02, -187500.02, 0.000, 0.000, 0.000, 13:21:04.546
146, 51279.23, 24205.35, -187500.02, -181407.95, -187500.02, -187500.02, -187500.02, -187500.02, 0.000, 0.000, 0.000, 13:21:04.546
147, 50012.56, 22917.04, -187500.02, -181536.91, -187500.02, -187500.02, -187500.02, -187500.02, 0.030, -0.084, 1.020, 13:21:04.546
148, 48987.49, 21916.13, -187500.02, -181651.53, -187500.02, -187500.02, -187500.02, -187500.02, 0.000, 0.000, 0.000, 13:21:04.546
149, 50417.06, 23384.24, -187500.02, -181476.17, -187500.02, -187500.02, -187500.02, -187500.02, 0.000, 0.000, 0.000, 13:21:04.546
150, 51466.75, 24411.41, -187500.02, -181442.31, -187500.02, -187500.02, -187500.02, -187500.02, 0.000, 0.000, 0.000, 13:21:04.547
151, 51279.39, 24215.07, -187500.02, -181505.14, -187500.02, -187500.02, -187500.02, -187500.02, 0.000, 0.000, 0.000, 13:21:04.547
152, 50029.33, 22940.94, -187500.02, -181631.83, -187500.02, -187500.02, -187500.02, -187500.02, 0.000, 0.000, 0.000, 13:21:04.547
153, 49012.30, 21936.02, -187500.02, -181750.09, -187500.02, -187500.02, -187500.02, -187500.02, 0.000, 0.000, 0.000, 13:21:04.547
154, 50436.62, 23392.69, -187500.02, -181596.31, -187500.02, -187500.02, -187500.02, -187500.02, 0.000, 0.000, 0.000, 13:21:04.547
155, 51466.10, 24400.82, -187500.02, -181566.48, -187500.02, -187500.02, -187500.02, -187500.02, 0.000, 0.000, 0.000, 13:21:04.548
156, 51280.09, 24211.95, -187500.02, -181641.58, -187500.02, -187500.02, -187500.02, -187500.02, 0.000, 0.000, 0.000, 13:21:04.548
157, 50021.13, 22932.40, -187500.02, -181760.67, -187500.02, -187500.02, -187500.02, -187500.02, 0.030, -0.080, 1.026, 13:21:04.548
158, 48965.99, 21901.87, -187500.02, -181847.70, -187500.02, -187500.02, -187500.02, -187500.02, 0.000, 0.000, 0.000, 13:21:04.548
159, 50391.67, 23356.37, -187500.02, -181720.06, -187500.02, -187500.02, -187500.02, -187500.02, 0.000, 0.000, 0.000, 13:21:04.548
160, 51432.52, 24368.23, -187500.02, -181664.67, -187500.02, -187500.02, -187500.02, -187500.02, 0.000, 0.000, 0.000, 13:21:04.548
161, 51251.97, 24177.14, -187500.02, -181712.09, -187500.02, -187500.02, -187500.02, -187500.02, 0.000, 0.000, 0.000, 13:21:04.549
162, 50004.18, 22911.14, -187500.02, -181861.08, -187500.02, -187500.02, -187500.02, -187500.02, 0.000, 0.000, 0.000, 13:21:04.549
163, 48947.91, 21875.99, -187500.02, -181952.05, -187500.02, -187500.02, -187500.02, -187500.02, 0.000, 0.000, 0.000, 13:21:04.549
164, 50362.03, 23320.87, -187500.02, -181786.83, -187500.02, -187500.02, -187500.02, -187500.02, 0.000, 0.000, 0.000, 13:21:04.549
165, 51420.84, 24357.07, -187500.02, -181764.16, -187500.02, -187500.02, -187500.02, -187500.02, 0.000, 0.000, 0.000, 13:21:04.549
166, 51240.12, 24170.04, -187500.02, -181827.03, -187500.02, -187500.02, -187500.02, -187500.02, 0.000, 0.000, 0.000, 13:21:04.549
167, 49990.57, 22904.90, -187500.02, -181932.16, -187500.02, -187500.02, -187500.02, -187500.02, 0.028, -0.076, 1.016, 13:21:04.550
168, 48942.63, 21886.45, -187500.02, -182065.50, -187500.02, -187500.02, -187500.02, -187500.02, 0.000, 0.000, 0.000, 13:21:04.550
169, 50369.81, 23345.01, -187500.02, -181939.22, -187500.02, -187500.02, -187500.02, -187500.02, 0.000, 0.000, 0.000, 13:21:04.550
170, 51425.46, 24367.83, -187500.02, -181899.92, -187500.02, -187500.02, -187500.02, -187500.02, 0.000, 0.000, 0.000, 13:21:04.550
171, 51249.51, 24182.15, -187500.02, -181955.98, -187500.02, -187500.02, -187500.02, -187500.02, 0.000, 0.000, 0.000, 13:21:04.550
172, 49992.89, 22895.29, -187500.02, -182061.45, -187500.02, -187500.02, -187500.02, -187500.02, 0.000, 0.000, 0.000, 13:21:04.551
173, 48922.34, 21850.80, -187500.02, -182160.39, -187500.02, -187500.02, -187500.02, -187500.02, 0.000, 0.000, 0.000, 13:21:04.551
174, 50334.83, 23303.59, -187500.02, -182013.92, -187500.02, -187500.02, -187500.02, -187500.02, 0.000, 0.000, 0.000, 13:21:04.551
175, 51405.25, 24343.44, -187500.02, -181992.45, -187500.02, -187500.02, -187500.02, -187500.02, 0.000, 0.000, 0.000, 13:21:04.551
176, 51239.45, 24156.74, -187500.02, -182068.91, -187500.02, -187500.02, -187500.02, -187500.02, 0.000, 0.000, 0.000, 13:21:04.551
177, 50009.07, 22902.38, -187500.02, -182193.27, -187500.02, -187500.02, -187500.02, -187500.02, 0.022, -0.078, 1.024, 13:21:04.551
178, 48941.63, 21858.73, -187500.02, -182314.23, -187500.02, -187500.02, -187500.02, -187500.02, 0.000, 0.000, 0.000, 13:21:04.552
179, 50347.41, 23300.73, -187500.02, -182143.84, -187500.02, -187500.02, -187500.02, -187500.02, 0.000, 0.000, 0.000, 13:21:04.552
180, 51407.29, 24337.61, -187500.02, -182077.38, -187500.02, -187500.02, -187500.02, -187500.02, 0.000, 0.000, 0.000, 13:21:04.552
181, 51253.42, 24175.76, -187500.02, -182158.03, -187500.02, -187500.02, -187500.02, -187500.02, 0.000, 0.000, 0.000, 13:21:04.552
182, 50028.01, 22929.60, -187500.02, -182311.91, -187500.02, -187500.02, -187500.02, -187500.02, 0.000, 0.000, 0.000, 13:21:04.552
183, 48941.71, 21859.56, -187500.02, -182427.20, -187500.02, -187500.02, -187500.02, -187500.02, 0.000, 0.000, 0.000, 13:21:04.553
184, 50340.17, 23291.41, -187500.02, -182266.27, -187500.02, -187500.02, -187500.02, -187500.02, 0.000, 0.000, 0.000, 13:21:04.553
185, 51416.05, 24340.60, -187500.02, -182211.06, -187500.02, -187500.02, -187500.02, -187500.02, 0.000, 0.000, 0.000, 13:21:04.553
186, 51253.62, 24169.12, -187500.02, -182281.06, -187500.02, -187500.02, -187500.02, -187500.02, 0.000, 0.000, 0.000, 13:21:04.553
187, 50041.84, 22938.46, -187500.02, -182436.88, -187500.02, -187500.02, -187500.02, -187500.02, 0.022, -0.072, 1.018, 13:21:04.553
188, 48958.61, 21881.69, -187500.02, -182566.11, -187500.02, -187500.02, -187500.02, -187500.02, 0.000, 0.000, 0.000, 13:21:04.553
189, 50353.49, 23308.91, -187500.02, -182405.25, -187500.02, -187500.02, -187500.02, -187500.02, 0.000, 0.000, 0.000, 13:21:04.554
190, 51436.86, 24364.27, -187500.02, -182364.02, -187500.02, -187500.02, -187500.02, -187500.02, 0.000, 0.000, 0.000, 13:21:04.554
191, 51273.80, 24186.02, -187500.02, -182415.00, -187500.02, -187500.02, -187500.02, -187500.02, 0.000, 0.000, 0.000, 13:21:04.554
192, 50049.20, 22945.23, -187500.02, -182548.75, -187500.02, -187500.02, -187500.02, -187500.02, 0.000, 0.000, 0.000, 13:21:04.554
193, 48962.81, 21882.56, -187500.02, -182682.45, -187500.02, -187500.02, -187500.02, -187500.02, 0.000, 0.000, 0.000, 13:21:04.555
194, 50338.88, 23298.14, -187500.02, -182542.47, -187500.02, -187500.02, -187500.02, -187500.02, 0.000, 0.000, 0.000, 13:21:04.555
195, 51401.57, 24332.58, -187500.02, -182464.69, -187500.02, -187500.02, -187500.02, -187500.02, 0.000, 0.000, 0.000, 13:21:04.555
196, 51250.29, 24166.10, -187500.02, -182526.48, -187500.02, -187500.02, -187500.02, -187500.02, 0.000, 0.000, 0.000, 13:21:04.555
197, 50032.68, 22927.14, -187500.02, -182676.20, -187500.02, -187500.02, -187500.02, -187500.02, 0.028, -0.070, 1.016, 13:21:04.555
198, 48929.73, 21847.67, -187500.02, -182829.48, -187500.02, -187500.02, -187500.02, -187500.02, 0.000, 0.000, 0.000, 13:21:04.555
199, 50300.16, 23257.95, -187500.02, -182665.09, -187500.02, -187500.02, -187500.02, -187500.02, 0.000, 0.000, 0.000, 13:21:04.555
200, 51392.94, 24320.33, -187500.02, -182585.19, -187500.02, -187500.02, -187500.02, -187500.02, 0.000, 0.000, 0.000, 13:21:04.556
201, 51251.86, 24167.49, -187500.02, -182665.31, -187500.02, -187500.02, -187500.02, -187500.02, 0.000, 0.000, 0.000, 13:21:04.556
202, 50043.63, 22939.79, -187500.02, -182820.59, -187500.02, -187500.02, -187500.02, -187500.02, 0.000, 0.000, 0.000, 13:21:04.556
203, 48927.77, 21849.68, -187500.02, -182957.94, -187500.02, -187500.02, -187500.02, -187500.02, 0.000, 0.000, 0.000, 13:21:04.556
204, 50292.72, 23249.01, -187500.02, -182793.63, -187500.02, -187500.02, -187500.02, -187500.02, 0.000, 0.000, 0.000, 13:21:04.556
205, 51386.97, 24318.90, -187500.02, -182701.63, -187500.02, -187500.02, -187500.02, -187500.02, 0.000, 0.000, 0.000, 13:21:04.556
206, 51250.29, 24182.57, -187500.02, -182792.31, -187500.02, -187500.02, -187500.02, -187500.02, 0.000, 0.000, 0.000, 13:21:04.556
207, 50046.09, 22945.05, -187500.02, -182914.36, -187500.02, -187500.02, -187500.02, -187500.02, 0.024, -0.078, 1.024, 13:21:04.556
208, 48939.81, 21850.93, -187500.02, -183029.91, -187500.02, -187500.02, -187500.02, -187500.02, 0.000, 0.000, 0.000, 13:21:04.556
209, 50318.78, 23265.68, -187500.02, -182902.94, -187500.02, -187500.02, -187500.02, -187500.02, 0.000, 0.000, 0.000, 13:21:04.557
210, 51432.88, 24364.09, -187500.02, -182876.61, -187500.02, -187500.02, -187500.02, -187500.02, 0.000, 0.000, 0.000, 13:21:04.557
211, 51275.23, 24197.97, -187500.02, -182942.67, -187500.02, -187500.02, -187500.02, -187500.02, 0.000, 0.000, 0.000, 13:21:04.557
212, 50075.37, 22968.16, -187500.02, -183045.72, -187500.02, -187500.02, -187500.02, -187500.02, 0.000, 0.000, 0.000, 13:21:04.557
213, 48951.53, 21859.96, -187500.02, -183175.16, -187500.02, -187500.02, -187500.02, -187500.02, 0.000, 0.000, 0.000, 13:21:04.557
214, 50306.13, 23250.84, -187500.02, -183036.91, -187500.02, -187500.02, -187500.02, -187500.02, 0.000, 0.000, 0.000, 13:21:04.557
215, 51403.11, 24327.35, -187500.02, -182969.27, -187500.02, -187500.02, -187500.02, -187500.02, 0.000, 0.000, 0.000, 13:21:04.557
216, 51269.49, 24187.72, -187500.02, -183063.95, -187500.02, -187500.02, -187500.02, -187500.02, 0.000, 0.000, 0.000, 13:21:04.557
217, 50063.52, 22961.66, -187500.02, -183206.80, -187500.02, -187500.02, -187500.02, -187500.02, 0.024, -0.072, 1.028, 13:21:04.558
218, 48934.47, 21848.94, -187500.02, -183335.34, -187500.02, -187500.02, -187500.02, -187500.02, 0.000, 0.000, 0.000, 13:21:04.558
219, 50282.35, 23234.12, -187500.02, -183180.00, -187500.02, -187500.02, -187500.02, -187500.02, 0.000, 0.000, 0.000, 13:21:04.558
220, 51387.13, 24311.70, -187500.02, -183108.70, -187500.02, -187500.02, -187500.02, -187500.02, 0.000, 0.000, 0.000, 13:21:04.558
221, 51248.70, 24158.57, -187500.02, -183147.42, -187500.02, -187500.02, -187500.02, -187500.02, 0.000, 0.000, 0.000, 13:21:04.558
222, 50065.56, 22948.40, -187500.02, -183279.36, -187500.02, -187500.02, -187500.02, -187500.02, 0.000, 0.000, 0.000, 13:21:04.558
223, 48918.09, 21825.81, -187500.02, -183422.81, -187500.02, -187500.02, -187500.02, -187500.02, 0.000, 0.000, 0.000, 13:21:04.558
224, 50272.40, 23219.86, -187500.02, -183304.33, -187500.02, -187500.02, -187500.02, -187500.02, 0.000, 0.000, 0.000, 13:21:05.020
225, 51392.83, 24316.33, -187500.02, -183242.67, -187500.02, -187500.02, -187500.02, -187500.02, 0.000, 0.000, 0.000, 13:21:05.020
226, 51252.50, 24165.03, -187500.02, -183283.50, -187500.02, -187500.02, -187500.02, -187500.02, 0.000, 0.000, 0.000, 13:21:05.020
227, 50062.34, 22947.19, -187500.02, -183429.19, -187500.02, -187500.02, -187500.02, -187500.02, 0.018, -0.074, 1.022, 13:21:05.020
228, 48908.34, 21819.62, -187500.02, -183567.97, -187500.02, -187500.02, -187500.02, -187500.02, 0.000, 0.000, 0.000, 13:21:05.020
229, 50233.15, 23182.36, -187500.02, -183416.55, -187500.02, -187500.02, -187500.02, -187500.02, 0.000, 0.000, 0.000, 13:21:05.020
230, 51365.29, 24293.57, -187500.02, -183373.66, -187500.02, -187500.02, -187500.02, -187500.02, 0.000, 0.000, 0.000, 13:21:05.021
231, 51243.59, 24161.92, -187500.02, -183452.14, -187500.02, -187500.02, -187500.02, -187500.02, 0.000, 0.000, 0.000, 13:21:05.021
232, 50052.24, 22950.90, -187500.02, -183554.67, -187500.02, -187500.02, -187500.02, -187500.02, 0.000, 0.000, 0.000, 13:21:05.021
233, 48890.73, 21810.74, -187500.02, -183678.22, -187500.02, -187500.02, -187500.02, -187500.02, 0.000, 0.000, 0.000, 13:21:05.021
234, 50225.02, 23181.31, -187500.02, -183543.89, -187500.02, -187500.02, -187500.02, -187500.02, 0.000, 0.000, 0.000, 13:21:05.021
235, 51356.21, 24289.93, -187500.02, -183477.17, -187500.02, -187500.02, -187500.02, -187500.02, 0.000, 0.000, 0.000, 13:21:05.021
236, 51245.08, 24161.01, -187500.02, -183571.86, -187500.02, -187500.02, -187500.02, -187500.02, 0.000, 0.000, 0.000, 13:21:05.021
237, 50066.86, 22951.96, -187500.02, -183692.75, -187500.02, -187500.02, -187500.02, -187500.02, 0.024, -0.066, 1.020, 13:21:05.021
238, 48906.26, 21805.71, -187500.02, -183812.09, -187500.02, -187500.02, -187500.02, -187500.02, 0.000, 0.000, 0.000, 13:21:05.022
239, 50220.88, 23164.01, -187500.02, -183652.59, -187500.02, -187500.02, -187500.02, -187500.02, 0.000, 0.000, 0.000, 13:21:05.022
240, 51359.05, 24284.74, -187500.02, -183586.09, -187500.02, -187500.02, -187500.02, -187500.02, 0.000, 0.000, 0.000, 13:21:05.022
241, 51255.66, 24164.56, -187500.02, -183676.06, -187500.02, -187500.02, -187500.02, -187500.02, 0.000, 0.000, 0.000, 13:21:05.022
242, 50102.46, 22987.23, -187500.02, -183816.88, -187500.02, -187500.02, -187500.02, -187500.02, 0.000, 0.000, 0.000, 13:21:05.022
243, 48915.94, 21816.84, -187500.02, -183934.48, -187500.02, -187500.02, -187500.02, -187500.02, 0.000, 0.000, 0.000, 13:21:05.022
244, 50234.58, 23170.58, -187500.02, -183798.08, -187500.02, -187500.02, -187500.02, -187500.02, 0.000, 0.000, 0.000, 13:21:05.022
245, 51364.26, 24284.30, -187500.02, -183695.41, -187500.02, -187500.02, -187500.02, -187500.02, 0.000, 0.000, 0.000, 13:21:05.022
246, 51252.91, 24163.80, -187500.02, -183764.17, -187500.02, -187500.02, -187500.02, -187500.02, 0.000, 0.000, 0.000, 13:21:05.023
247, 50096.85, 22983.13, -187500.02, -183909.63, -187500.02, -187500.02, -187500.02, -187500.02, 0.028, -0.072, 1.022, 13:21:05.023
248, 48919.00, 21824.98, -187500.02, -184057.41, -187500.02, -187500.02, -187500.02, -187500.02, 0.000, 0.000, 0.000, 13:21:05.023
249, 50227.18, 23177.89, -187500.02, -183921.19, -187500.02, -187500.02, -187500.02, -187500.02, 0.000, 0.000, 0.000, 13:21:05.023
250, 51367.77, 24294.91, -187500.02, -183838.98, -187500.02, -187500.02, -187500.02, -187500.02, 0.000, 0.000, 0.000, 13:21:05.023
251, 51254.29, 24168.25, -187500.02, -183895.19, -187500.02, -187500.02, -187500.02, -187500.02, 0.000, 0.000, 0.000, 13:21:05.023
252, 50107.34, 22996.61, -187500.02, -184047.66, -187500.02, -187500.02, -187500.02, -187500.02, 0.000, 0.000, 0.000, 13:21:05.023
253, 48924.91, 21838.06, -187500.02, -184183.16, -187500.02, -187500.02, -187500.02, -187500.02, 0.000, 0.000, 0.000, 13:21:05.023
254, 50221.37, 23174.51, -187500.02, -184020.97, -187500.02, -187500.02, -187500.02, -187500.02, 0.000, 0.000, 0.000, 13:21:05.024
255, 51361.02, 24291.34, -187500.02, -183936.34, -187500.02, -187500.02, -187500.02, -187500.02, 0.000, 0.000, 0.000, 13:21:05.024
0, 51237.37, 24163.87, -187500.02, -184006.45, -187500.02, -187500.02, -187500.02, -187500.02, 0.028, -0.078, 1.020, 13:21:05.024
1, 50087.66, 22991.81, -187500.02, -184174.61, -187500.02, -187500.02, -187500.02, -187500.02, 0.000, 0.000, 0.000, 13:21:05.024
2, 48911.07, 21823.44, -187500.02, -184329.56, -187500.02, -187500.02, -187500.02, -187500.02, 0.000, 0.000, 0.000, 13:21:05.024
3, 50214.51, 23160.45, -187500.02, -184188.88, -187500.02, -187500.02, -187500.02, -187500.02, 0.000, 0.000, 0.000, 13:21:05.024
4, 51367.10, 24295.74, -187500.02, -184113.84, -187500.02, -187500.02, -187500.02, -187500.02, 0.000, 0.000, 0.000, 13:21:05.024
5, 51254.40, 24177.79, -187500.02, -184171.14, -187500.02, -187500.02, -187500.02, -187500.02, 0.000, 0.000, 0.000, 13:21:05.024
6, 50109.55, 23016.55, -187500.02, -184288.36, -187500.02, -187500.02, -187500.02, -187500.02, 0.000, 0.000, 0.000, 13:21:05.025
7, 48920.05, 21841.52, -187500.02, -184430.98, -187500.02, -187500.02, -187500.02, -187500.02, 0.000, 0.000, 0.000, 13:21:05.025
8, 50219.61, 23165.57, -187500.02, -184295.58, -187500.02, -187500.02, -187500.02, -187500.02, 0.000, 0.000, 0.000, 13:21:05.025
9, 51388.20, 24307.23, -187500.02, -184235.00, -187500.02, -187500.02, -187500.02, -187500.02, 0.000, 0.000, 0.000, 13:21:05.025
10, 51271.23, 24181.08, -187500.02, -184296.81, -187500.02, -187500.02, -187500.02, -187500.02, 0.026, -0.074, 1.026, 13:21:05.025
11, 50123.00, 23009.73, -187500.02, -184433.64, -187500.02, -187500.02, -187500.02, -187500.02, 0.000, 0.000, 0.000, 13:21:05.025
12, 48922.58, 21829.67, -187500.02, -184582.95, -187500.02, -187500.02, -187500.02, -187500.02, 0.000, 0.000, 0.000, 13:21:05.025
13, 50205.66, 23151.80, -187500.02, -184441.02, -187500.02, -187500.02, -187500.02, -187500.02, 0.000, 0.000, 0.000, 13:21:05.025
14, 51369.52, 24292.21, -187500.02, -184337.67, -187500.02, -187500.02, -187500.02, -187500.02, 0.000, 0.000, 0.000, 13:21:05.025
15, 51278.61, 24184.61, -187500.02, -184399.73, -187500.02, -187500.02, -187500.02, -187500.02, 0.000, 0.000, 0.000, 13:21:05.026
16, 50152.11, 23037.88, -187500.02, -184553.81, -187500.02, -187500.02, -187500.02, -187500.02, 0.000, 0.000, 0.000, 13:21:05.026
17, 48933.62, 21840.51, -187500.02, -184698.27, -187500.02, -187500.02, -187500.02, -187500.02, 0.000, 0.000, 0.000, 13:21:05.026
18, 50198.08, 23143.13, -187500.02, -184555.63, -187500.02, -187500.02, -187500.02, -187500.02, 0.000, 0.000, 0.000, 13:21:05.026
19, 51375.37, 24297.78, -187500.02, -184492.23, -187500.02, -187500.02, -187500.02, -187500.02, 0.000, 0.000, 0.000, 13:21:05.026
20, 51278.14, 24184.81, -187500.02, -184560.67, -187500.02, -187500.02, -187500.02, -187500.02, 0.026, -0.078, 1.024, 13:21:05.026
21, 50129.11, 23012.08, -187500.02, -184689.58, -187500.02, -187500.02, -187500.02, -187500.02, 0.000, 0.000, 0.000, 13:21:05.026
22, 48923.03, 21820.91, -187500.02, -184845.05, -187500.02, -187500.02, -187500.02, -187500.02, 0.000, 0.000, 0.000, 13:21:05.026
23, 50183.64, 23121.81, -187500.02, -184710.86, -187500.02, -187500.02, -187500.02, -187500.02, 0.000, 0.000, 0.000, 13:21:05.027
24, 51357.51, 24275.31, -187500.02, -184644.61, -187500.02, -187500.02, -187500.02, -187500.02, 0.000, 0.000, 0.000, 13:21:05.027
25, 51253.22, 24161.01, -187500.02, -184703.52, -187500.02, -187500.02, -187500.02, -187500.02, 0.000, 0.000, 0.000, 13:21:05.027
26, 50117.91, 23004.73, -187500.02, -184840.19, -187500.02, -187500.02, -187500.02, -187500.02, 0.000, 0.000, 0.000, 13:21:05.027
27, 48892.38, 21797.38, -187500.02, -184967.05, -187500.02, -187500.02, -187500.02, -187500.02, 0.000, 0.000, 0.000, 13:21:05.027
28, 50155.70, 23096.24, -187500.02, -184806.05, -187500.02, -187500.02, -187500.02, -187500.02, 0.000, 0.000, 0.000, 13:21:05.027
29, 51355.63, 24273.95, -187500.02, -184748.88, -187500.02, -187500.02, -187500.02, -187500.02, 0.000, 0.000, 0.000, 13:21:05.027
30, 51265.58, 24175.20, -187500.02, -184835.48, -187500.02, -187500.02, -187500.02, -187500.02, 0.022, -0.072, 1.020, 13:21:05.027
31, 50124.75, 23010.29, -187500.02, -184950.64, -187500.02, -187500.02, -187500.02, -187500.02, 0.000, 0.000, 0.000, 13:21:05.028
32, 48893.81, 21791.63, -187500.02, -185081.88, -187500.02, -187500.02, -187500.02, -187500.02, 0.000, 0.000, 0.000, 13:21:05.028
33, 50177.14, 23106.05, -187500.02, -184958.27, -187500.02, -187500.02, -187500.02, -187500.02, 0.000, 0.000, 0.000, 13:21:05.028
34, 51377.11, 24281.32, -187500.02, -184913.66, -187500.02, -187500.02, -187500.02, -187500.02, 0.000, 0.000, 0.000, 13:21:05.028
35, 51276.60, 24178.35, -187500.02, -184983.56, -187500.02, -187500.02, -187500.02, -187500.02, 0.000, 0.000, 0.000, 13:21:05.028
36, 50163.32, 23035.06, -187500.02, -185094.88, -187500.02, -187500.02, -187500.02, -187500.02, 0.000, 0.000, 0.000, 13:21:05.028
37, 48931.27, 21819.06, -187500.02, -185208.88, -187500.02, -187500.02, -187500.02, -187500.02, 0.000, 0.000, 0.000, 13:21:05.028
38, 50176.29, 23113.18, -187500.02, -185100.31, -187500.02, -187500.02, -187500.02, -187500.02, 0.000, 0.000, 0.000, 13:21:05.028
39, 51365.89, 24284.34, -187500.02, -185013.97, -187500.02, -187500.02, -187500.02, -187500.02, 0.000, 0.000, 0.000, 13:21:05.028
40, 51290.08, 24185.66, -187500.02, -185082.25, -187500.02, -187500.02, -187500.02, -187500.02, 0.022, -0.076, 1.022, 13:21:05.029
41, 50161.74, 23039.17, -187500.02, -185211.78, -187500.02, -187500.02, -187500.02, -187500.02, 0.000, 0.000, 0.000, 13:21:05.029
42, 48918.76, 21816.40, -187500.02, -185335.47, -187500.02, -187500.02, -187500.02, -187500.02, 0.000, 0.000, 0.000, 13:21:05.029
43, 50158.00, 23095.63, -187500.02, -185192.75, -187500.02, -187500.02, -187500.02, -187500.02, 0.000, 0.000, 0.000, 13:21:05.029
44, 51364.29, 24287.36, -187500.02, -185152.41, -187500.02, -187500.02, -187500.02, -187500.02, 0.000, 0.000, 0.000, 13:21:05.029
45, 51270.21, 24180.09, -187500.02, -185223.22, -187500.02, -187500.02, -187500.02, -187500.02, 0.000, 0.000, 0.000, 13:21:05.029
46, 50161.98, 23049.10, -187500.02, -185359.23, -187500.02, -187500.02, -187500.02, -187500.02, 0.000, 0.000, 0.000, 13:21:05.029
47, 48911.16, 21812.98, -187500.02, -185499.72, -187500.02, -187500.02, -187500.02, -187500.02, 0.000, 0.000, 0.000, 13:21:05.029
48, 50128.84, 23064.23, -187500.02, -185338.48, -187500.02, -187500.02, -187500.02, -187500.02, 0.000, 0.000, 0.000, 13:21:05.030
49, 51334.45, 24244.18, -187500.02, -185236.08, -187500.02, -187500.02, -187500.02, -187500.02, 0.000, 0.000, 0.000, 13:21:05.030
50, 51262.34, 24162.37, -187500.02, -185331.25, -187500.02, -187500.02, -187500.02, -187500.02, 0.026, -0.080, 1.026, 13:21:05.030
51, 50148.66, 23022.92, -187500.02, -185468.91, -187500.02, -187500.02, -187500.02, -187500.02, 0.000, 0.000, 0.000, 13:21:05.030
52, 48882.39, 21770.69, -187500.02, -185614.44, -187500.02, -187500.02, -187500.02, -187500.02, 0.000, 0.000, 0.000, 13:21:05.030
53, 50097.50, 23025.87, -187500.02, -185479.34, -187500.02, -187500.02, -187500.02, -187500.02, 0.000, 0.000, 0.000, 13:21:05.030
54, 51335.56, 24230.99, -187500.02, -185420.16, -187500.02, -187500.02, -187500.02, -187500.02, 0.000, 0.000, 0.000, 13:21:05.030
55, 51254.02, 24136.02, -187500.02, -185498.95, -187500.02, -187500.02, -187500.02, -187500.02, 0.000, 0.000, 0.000, 13:21:05.030
56, 50144.39, 23004.86, -187500.02, -185613.03, -187500.02, -187500.02, -187500.02, -187500.02, 0.000, 0.000, 0.000, 13:21:05.031
57, 48891.29, 21776.34, -187500.02, -185752.84, -187500.02, -187500.02, -187500.02, -187500.02, 0.000, 0.000, 0.000, 13:21:05.031
58, 50110.02, 23038.95, -187500.02, -185615.47, -187500.02, -187500.02, -187500.02, -187500.02, 0.000, 0.000, 0.000, 13:21:05.031
59, 51332.88, 24238.92, -187500.02, -185551.02, -187500.02, -187500.02, -187500.02, -187500.02, 0.000, 0.000, 0.000, 13:21:05.031
60, 51269.56, 24164.04, -187500.02, -185627.72, -187500.02, -187500.02, -187500.02, -187500.02, 0.026, -0.078, 1.024, 13:21:05.031
61, 50170.75, 23038.66, -187500.02, -185722.34, -187500.02, -187500.02, -187500.02, -187500.02, 0.000, 0.000, 0.000, 13:21:05.031
62, 48917.59, 21800.73, -187500.02, -185897.58, -187500.02, -187500.02, -187500.02, -187500.02, 0.000, 0.000, 0.000, 13:21:05.031
63, 50121.04, 23042.81, -187500.02, -185761.03, -187500.02, -187500.02, -187500.02, -187500.02, 0.000, 0.000, 0.000, 13:21:05.031
64, 51330.60, 24228.26, -187500.02, -185641.20, -187500.02, -187500.02, -187500.02, -187500.02, 0.000, 0.000, 0.000, 13:21:05.031
65, 51270.50, 24154.63, -187500.02, -185685.45, -187500.02, -187500.02, -187500.02, -187500.02, 0.000, 0.000, 0.000, 13:21:05.032
66, 50210.13, 23061.90, -187500.02, -185853.30, -187500.02, -187500.02, -187500.02, -187500.02, 0.000, 0.000, 0.000, 13:21:05.032
67, 48941.51, 21812.44, -187500.02, -186036.30, -187500.02, -187500.02, -187500.02, -187500.02, 0.000, 0.000, 0.000, 13:21:05.032
68, 50126.20, 23045.30, -187500.02, -185871.95, -187500.02, -187500.02, -187500.02, -187500.02, 0.000, 0.000, 0.000, 13:21:05.032
69, 51362.54, 24264.34, -187500.02, -185792.19, -187500.02, -187500.02, -187500.02, -187500.02, 0.000, 0.000, 0.000, 13:21:05.032
70, 51293.99, 24181.81, -187500.02, -185862.59, -187500.02, -187500.02, -187500.02, -187500.02, 0.024, -0.076, 1.024, 13:21:05.032
71, 50193.95, 23062.87, -187500.02, -185983.42, -187500.02, -187500.02, -187500.02, -187500.02, 0.000, 0.000, 0.000, 13:21:05.032
72, 48916.05, 21802.65, -187500.02, -186130.95, -187500.02, -187500.02, -187500.02, -187500.02, 0.000, 0.000, 0.000, 13:21:05.033
73, 50111.78, 23036.18, -187500.02, -185982.38, -187500.02, -187500.02, -187500.02, -187500.02, 0.000, 0.000, 0.000, 13:21:05.033
74, 51361.56, 24255.84, -187500.02, -185929.20, -187500.02, -187500.02, -187500.02, -187500.02, 0.000, 0.000, 0.000, 13:21:05.033
75, 51286.70, 24161.65, -187500.02, -186001.56, -187500.02, -187500.02, -187500.02, -187500.02, 0.000, 0.000, 0.000, 13:21:05.033
76, 50196.90, 23051.69, -187500.02, -186126.02, -187500.02, -187500.02, -187500.02, -187500.02, 0.000, 0.000, 0.000, 13:21:05.033
77, 48915.45, 21790.67, -187500.02, -186266.17, -187500.02, -187500.02, -187500.02, -187500.02, 0.000, 0.000, 0.000, 13:21:05.033
78, 50114.24, 23028.64, -187500.02, -186151.47, -187500.02, -187500.02, -187500.02, -187500.02, 0.000, 0.000, 0.000, 13:21:05.034
79, 51345.06, 24233.45, -187500.02, -186085.11, -187500.02, -187500.02, -187500.02, -187500.02, 0.000, 0.000, 0.000, 13:21:05.034
80, 51277.96, 24156.76, -187500.02, -186133.50, -187500.02, -187500.02, -187500.02, -187500.02, 0.020, -0.076, 1.028, 13:21:05.034
81, 50195.73, 23057.41, -187500.02, -186258.47, -187500.02, -187500.02, -187500.02, -187500.02, 0.000, 0.000, 0.000, 13:21:05.034
82, 48916.59, 21783.36, -187500.02, -186444.56, -187500.02, -187500.02, -187500.02, -187500.02, 0.000, 0.000, 0.000, 13:21:05.034
83, 50091.18, 23001.75, -187500.02, -186313.83, -187500.02, -187500.02, -187500.02, -187500.02, 0.000, 0.000, 0.000, 13:21:05.034
84, 51319.58, 24209.31, -187500.02, -186184.02, -187500.02, -187500.02, -187500.02, -187500.02, 0.000, 0.000, 0.000, 13:21:05.035
85, 51262.38, 24142.25, -187500.02, -186244.09, -187500.02, -187500.02, -187500.02, -187500.02, 0.000, 0.000, 0.000, 13:21:05.035
86, 50205.48, 23073.08, -187500.02, -186384.63, -187500.02, -187500.02, -187500.02, -187500.02, 0.000, 0.000, 0.000, 13:21:05.035
87, 48916.86, 21801.96, -187500.02, -186569.77, -187500.02, -187500.02, -187500.02, -187500.02, 0.000, 0.000, 0.000, 13:21:05.035
88, 50081.00, 22991.63, -187500.02, -186427.80, -187500.02, -187500.02, -187500.02, -187500.02, 0.000, 0.000, 0.000, 13:21:05.035
89, 51312.52, 24204.46, -187500.02, -186304.78, -187500.02, -187500.02, -187500.02, -187500.02, 0.000, 0.000, 0.000, 13:21:05.500
90, 51272.87, 24152.09, -187500.02, -186357.22, -187500.02, -187500.02, -187500.02, -187500.02, 0.024, -0.082, 1.026, 13:21:05.500
91, 50231.18, 23092.50, -187500.02, -186498.95, -187500.02, -187500.02, -187500.02, -187500.02, 0.000, 0.000, 0.000, 13:21:05.500
92, 48932.30, 21808.39, -187500.02, -186645.69, -187500.02, -187500.02, -187500.02, -187500.02, 0.000, 0.000, 0.000, 13:21:05.500
93, 50094.26, 23007.97, -187500.02, -186511.39, -187500.02, -187500.02, -187500.02, -187500.02, 0.000, 0.000, 0.000, 13:21:05.500
94, 51347.68, 24238.46, -187500.02, -186428.05, -187500.02, -187500.02, -187500.02, -187500.02, 0.000, 0.000, 0.000, 13:21:05.501
95, 51300.67, 24181.03, -187500.02, -186490.03, -187500.02, -187500.02, -187500.02, -187500.02, 0.000, 0.000, 0.000, 13:21:05.501
96, 50229.82, 23091.72, -187500.02, -186613.56, -187500.02, -187500.02, -187500.02, -187500.02, 0.000, 0.000, 0.000, 13:21:05.501
97, 48916.37, 21795.07, -187500.02, -186750.86, -187500.02, -187500.02, -187500.02, -187500.02, 0.000, 0.000, 0.000, 13:21:05.501
98, 50071.62, 22989.93, -187500.02, -186618.64, -187500.02, -187500.02, -187500.02, -187500.02, 0.000, 0.000, 0.000, 13:21:05.501
99, 51342.78, 24239.30, -187500.02, -186542.48, -187500.02, -187500.02, -187500.02, -187500.02, 0.000, 0.000, 0.000, 13:21:05.501
100, 51298.01, 24183.31, -187500.02, -186625.75, -187500.02, -187500.02, -187500.02, -187500.02, 0.030, -0.078, 1.022, 13:21:05.501
101, 50235.70, 23097.22, -187500.02, -186736.77, -187500.02, -187500.02, -187500.02, -187500.02, 0.000, 0.000, 0.000, 13:21:05.501
102, 48910.20, 21784.19, -187500.02, -186861.81, -187500.02, -187500.02, -187500.02, -187500.02, 0.000, 0.000, 0.000, 13:21:05.502
103, 50058.54, 22976.45, -187500.02, -186755.13, -187500.02, -187500.02, -187500.02, -187500.02, 0.000, 0.000, 0.000, 13:21:05.502
104, 51327.56, 24224.46, -187500.02, -186695.75, -187500.02, -187500.02, -187500.02, -187500.02, 0.000, 0.000, 0.000, 13:21:05.502
105, 51285.79, 24169.19, -187500.02, -186754.61, -187500.02, -187500.02, -187500.02, -187500.02, 0.000, 0.000, 0.000, 13:21:05.502
106, 50239.70, 23099.61, -187500.02, -186900.41, -187500.02, -187500.02, -187500.02, -187500.02, 0.000, 0.000, 0.000, 13:21:05.502
107, 48911.67, 21786.67, -187500.02, -187064.16, -187500.02, -187500.02, -187500.02, -187500.02, 0.000, 0.000, 0.000, 13:21:05.502
108, 50044.23, 22960.85, -187500.02, -186927.83, -187500.02, -187500.02, -187500.02, -187500.02, 0.000, 0.000, 0.000, 13:21:05.502
109, 51308.81, 24204.81, -187500.02, -186835.03, -187500.02, -187500.02, -187500.02, -187500.02, 0.000, 0.000, 0.000, 13:21:05.502
110, 51260.75, 24150.46, -187500.02, -186869.50, -187500.02, -187500.02, -187500.02, -187500.02, 0.032, -0.078, 1.016, 13:21:05.503
111, 50231.05, 23087.65, -187500.02, -187010.92, -187500.02, -187500.02, -187500.02, -187500.02, 0.000, 0.000, 0.000, 13:21:05.503
112, 48933.60, 21798.29, -187500.02, -187191.25, -187500.02, -187500.02, -187500.02, -187500.02, 0.000, 0.000, 0.000, 13:21:05.503
113, 50068.55, 22976.12, -187500.02, -187072.09, -187500.02, -187500.02, -187500.02, -187500.02, 0.000, 0.000, 0.000, 13:21:05.503
114, 51328.72, 24213.00, -187500.02, -186971.70, -187500.02, -187500.02, -187500.02, -187500.02, 0.000, 0.000, 0.000, 13:21:05.503
115, 51289.74, 24160.63, -187500.02, -187046.20, -187500.02, -187500.02, -187500.02, -187500.02, 0.000, 0.000, 0.000, 13:21:05.503
116, 50249.20, 23097.93, -187500.02, -187170.84, -187500.02, -187500.02, -187500.02, -187500.02, 0.000, 0.000, 0.000, 13:21:05.503
117, 48909.04, 21772.79, -187500.02, -187302.58, -187500.02, -187500.02, -187500.02, -187500.02, 0.000, 0.000, 0.000, 13:21:05.503
118, 50027.81, 22936.60, -187500.02, -187189.77, -187500.02, -187500.02, -187500.02, -187500.02, 0.000, 0.000, 0.000, 13:21:05.504
119, 51312.88, 24199.14, -187500.02, -187109.42, -187500.02, -187500.02, -187500.02, -187500.02, 0.000, 0.000, 0.000, 13:21:05.504
120, 51297.52, 24172.32, -187500.02, -187167.88, -187500.02, -187500.02, -187500.02, -187500.02, 0.028, -0.072, 1.018, 13:21:05.504
121, 50253.38, 23106.36, -187500.02, -187261.95, -187500.02, -187500.02, -187500.02, -187500.02, 0.000, 0.000, 0.000, 13:21:05.504
122, 48922.40, 21792.41, -187500.02, -187431.83, -187500.02, -187500.02, -187500.02, -187500.02, 0.000, 0.000, 0.000, 13:21:05.504
123, 50041.87, 22956.72, -187500.02, -187340.58, -187500.02, -187500.02, -187500.02, -187500.02, 0.000, 0.000, 0.000, 13:21:05.504
124, 51318.64, 24208.19, -187500.02, -187244.52, -187500.02, -187500.02, -187500.02, -187500.02, 0.000, 0.000, 0.000, 13:21:05.505
125, 51285.00, 24161.63, -187500.02, -187301.52, -187500.02, -187500.02, -187500.02, -187500.02, 0.000, 0.000, 0.000, 13:21:05.505
126, 50246.45, 23105.29, -187500.02, -187422.64, -187500.02, -187500.02, -187500.02, -187500.02, 0.000, 0.000, 0.000, 13:21:05.505
127, 48892.05, 21761.68, -187500.02, -187500.02, -187500.02, -187500.02, -187500.02, -187500.02, 0.000, 0.000, 0.000, 13:21:05.505
128, 49998.14, 22903.18, -187500.02, -187432.88, -187500.02, -187500.02, -187500.02, -187500.02, 0.000, 0.000, 0.000, 13:21:05.505
129, 51295.93, 24177.57, -187500.02, -187350.84, -187500.02, -187500.02, -187500.02, -187500.02, 0.018, -0.080, 1.018, 13:21:05.505
130, 51278.34, 24150.90, -187500.02, -187453.13, -187500.02, -187500.02, -187500.02, -187500.02, 0.000, 0.000, 0.000, 13:21:05.506
131, 50248.69, 23104.62, -187500.02, -187500.02, -187500.02, -187500.02, -187500.02, -187500.02, 0.000, 0.000, 0.000, 13:21:05.506
132, 48890.39, 21757.81, -187500.02, -187500.02, -187500.02, -187500.02, -187500.02, -187500.02, 0.000, 0.000, 0.000, 13:21:05.506
133, 49995.46, 22908.71, -187500.02, -187500.02, -187500.02, -187500.02, -187500.02, -187500.02, 0.000, 0.000, 0.000, 13:21:05.506
134, 51300.20, 24194.40, -187500.02, -187487.72, -187500.02, -187500.02, -187500.02, -187500.02, 0.000, 0.000, 0.000, 13:21:05.506
135, 51276.60, 24155.62, -187500.02, -187500.02, -187500.02, -187500.02, -187500.02, -187500.02, 0.000, 0.000, 0.000, 13:21:05.507
136, 50277.83, 23140.29, -187500.02, -187500.02, -187500.02, -187500.02, -187500.02, -187500.02, 0.000, 0.000, 0.000, 13:21:05.508
137, 48932.73, 21806.25, -187500.02, -187500.02, -187500.02, -187500.02, -187500.02, -187500.02, 0.000, 0.000, 0.000, 13:21:05.508
138, 50027.32, 22931.66, -187500.02, -187500.02, -187500.02, -187500.02, -187500.02, -187500.02, 0.000, 0.000, 0.000, 13:21:05.508
139, 51323.92, 24207.41, -187500.02, -187500.02, -187500.02, -187500.02, -187500.02, -187500.02, 0.022, -0.078, 1.018, 13:21:05.508
140, 51300.25, 24174.95, -187500.02, -187500.02, -187500.02, -187500.02, -187500.02, -187500.02, 0.000, 0.000, 0.000, 13:21:05.508
141, 50295.96, 23149.84, -187500.02, -187500.02, -187500.02, -187500.02, -187500.02, -187500.02, 0.000, 0.000, 0.000, 13:21:05.509
142, 48948.53, 21816.26, -187500.02, -187500.02, -187500.02, -187500.02, -187500.02, -187500.02, 0.000, 0.000, 0.000, 13:21:05.509
143, 50012.70, 22925.22, -187500.02, -187500.02, -187500.02, -187500.02, -187500.02, -187500.02, 0.000, 0.000, 0.000, 13:21:05.509
144, 51321.91, 24210.31, -187500.02, -187500.02, -187500.02, -187500.02, -187500.02, -187500.02, 0.000, 0.000, 0.000, 13:21:05.509
145, 51296.00, 24173.39, -187500.02, -187500.02, -187500.02, -187500.02, -187500.02, -187500.02, 0.000, 0.000, 0.000, 13:21:05.509
146, 50280.45, 23134.41, -187500.02, -187500.02, -187500.02, -187500.02, -187500.02, -187500.02, 0.000, 0.000, 0.000, 13:21:05.509
147, 48906.15, 21769.77, -187500.02, -187500.02, -187500.02, -187500.02, -187500.02, -187500.02, 0.000, 0.000, 0.000, 13:21:05.509
148, 49966.68, 22871.44, -187500.02, -187500.02, -187500.02, -187500.02, -187500.02, -187500.02, 0.000, 0.000, 0.000, 13:21:05.509
149, 51289.83, 24174.84, -187500.02, -187500.02, -187500.02, -187500.02, -187500.02, -187500.02, 0.022, -0.080, 1.020, 13:21:05.509
150, 51271.70, 24142.30, -187500.02, -187500.02, -187500.02, -187500.02, -187500.02, -187500.02, 0.000, 0.000, 0.000, 13:21:05.510
151, 50266.81, 23120.62, -187500.02, -187500.02, -187500.02, -187500.02, -187500.02, -187500.02, 0.000, 0.000, 0.000, 13:21:05.510
152, 48907.47, 21772.19, -187500.02, -187500.02, -187500.02, -187500.02, -187500.02, -187500.02, 0.000, 0.000, 0.000, 13:21:05.510
153, 49976.15, 22882.08, -187500.02, -187500.02, -187500.02, -187500.02, -187500.02, -187500.02, 0.000, 0.000, 0.000, 13:21:05.510
154, 51288.63, 24174.91, -187500.02, -187500.02, -187500.02, -187500.02, -187500.02, -187500.02, 0.000, 0.000, 0.000, 13:21:05.510
155, 51277.94, 24152.94, -187500.02, -187500.02, -187500.02, -187500.02, -187500.02, -187500.02, 0.000, 0.000, 0.000, 13:21:05.510
156, 50276.80, 23129.70, -187500.02, -187500.02, -187500.02, -187500.02, -187500.02, -187500.02, 0.000, 0.000, 0.000, 13:21:05.511
157, 48894.37, 21755.29, -187500.02, -187500.02, -187500.02, -187500.02, -187500.02, -187500.02, 0.000, 0.000, 0.000, 13:21:05.511
158, 49938.24, 22840.60, -187500.02, -187500.02, -187500.02, -187500.02, -187500.02, -187500.02, 0.000, 0.000, 0.000, 13:21:05.511
159, 51267.73, 24151.64, -187500.02, -187500.02, -187500.02, -187500.02, -187500.02, -187500.02, 0.028, -0.080, 1.020, 13:21:05.511
160, 51276.26, 24141.27, -187500.02, -187500.02, -187500.02, -187500.02, -187500.02, -187500.02, 0.000, 0.000, 0.000, 13:21:05.511
161, 50265.05, 23105.18, -187500.02, -187500.02, -187500.02, -187500.02, -187500.02, -187500.02, 0.000, 0.000, 0.000, 13:21:05.511
162, 48889.70, 21744.65, -187500.02, -187500.02, -187500.02, -187500.02, -187500.02, -187500.02, 0.000, 0.000, 0.000, 13:21:05.512
163, 49971.82, 22863.62, -187500.02, -187500.02, -187500.02, -187500.02, -187500.02, -187500.02, 0.000, 0.000, 0.000, 13:21:05.512
164, 51303.93, 24172.56, -187500.02, -187500.02, -187500.02, -187500.02, -187500.02, -187500.02, 0.000, 0.000, 0.000, 13:21:05.512
165, 51294.37, 24146.41, -187500.02, -187500.02, -187500.02, -187500.02, -187500.02, -187500.02, 0.000, 0.000, 0.000, 13:21:05.512
166, 50304.36, 23137.09, -187500.02, -187500.02, -187500.02, -187500.02, -187500.02, -187500.02, 0.000, 0.000, 0.000, 13:21:05.512
167, 48912.77, 21757.72, -187500.02, -187500.02, -187500.02, -187500.02, -187500.02, -187500.02, 0.000, 0.000, 0.000, 13:21:05.512
168, 49958.88, 22851.33, -187500.02, -187500.02, -187500.02, -187500.02, -187500.02, -187500.02, 0.000, 0.000, 0.000, 13:21:05.513
169, 51309.86, 24185.41, -187500.02, -187500.02, -187500.02, -187500.02, -187500.02, -187500.02, 0.026, -0.068, 1.022, 13:21:05.513
170, 51321.01, 24182.46, -187500.02, -187500.02, -187500.02, -187500.02, -187500.02, -187500.02, 0.000, 0.000, 0.000, 13:21:05.513
171, 50314.87, 23154.78, -187500.02, -187500.02, -187500.02, -187500.02, -187500.02, -187500.02, 0.000, 0.000, 0.000, 13:21:05.513
172, 48924.75, 21775.74, -187500.02, -187500.02, -187500.02, -187500.02, -187500.02, -187500.02, 0.000, 0.000, 0.000, 13:21:05.513
173, 49961.58, 22850.39, -187500.02, -187500.02, -187500.02, -187500.02, -187500.02, -187500.02, 0.000, 0.000, 0.000, 13:21:05.514
174, 51313.34, 24178.53, -187500.02, -187500.02, -187500.02, -187500.02, -187500.02, -187500.02, 0.000, 0.000, 0.000, 13:21:05.514
175, 51320.92, 24176.88, -187500.02, -187500.02, -187500.02, -187500.02, -187500.02, -187500.02, 0.000, 0.000, 0.000, 13:21:05.514
176, 50324.04, 23163.31, -187500.02, -187500.02, -187500.02, -187500.02, -187500.02, -187500.02, 0.000, 0.000, 0.000, 13:21:05.514
177, 48919.65, 21765.21, -187500.02, -187500.02, -187500.02, -187500.02, -187500.02, -187500.02, 0.000, 0.000, 0.000, 13:21:05.514
178, 49952.57, 22842.34, -187500.02, -187500.02, -187500.02, -187500.02, -187500.02, -187500.02, 0.000, 0.000, 0.000, 13:21:05.514
179, 51300.29, 24171.91, -187500.02, -187500.02, -187500.02, -187500.02, -187500.02, -187500.02, 0.020, -0.068, 1.026, 13:21:05.514
180, 51307.29, 24168.74, -187500.02, -187500.02, -187500.02, -187500.02, -187500.02, -187500.02, 0.000, 0.000, 0.000, 13:21:05.515
181, 50327.59, 23173.19, -187500.02, -187500.02, -187500.02, -187500.02, -187500.02, -187500.02, 0.000, 0.000, 0.000, 13:21:05.515
182, 48938.50, 21786.56, -187500.02, -187500.02, -187500.02, -187500.02, -187500.02, -187500.02, 0.000, 0.000, 0.000, 13:21:05.515
183, 49966.12, 22861.30, -187500.02, -187500.02, -187500.02, -187500.02, -187500.02, -187500.02, 0.000, 0.000, 0.000, 13:21:05.515
184, 51294.61, 24178.87, -187500.02, -187500.02, -187500.02, -187500.02, -187500.02, -187500.02, 0.000, 0.000, 0.000, 13:21:05.515
185, 51303.27, 24164.40, -187500.02, -187500.02, -187500.02, -187500.02, -187500.02, -187500.02, 0.000, 0.000, 0.000, 13:21:05.515
186, 50336.35, 23168.81, -187500.02, -187500.02, -187500.02, -187500.02, -187500.02, -187500.02, 0.000, 0.000, 0.000, 13:21:05.515
187, 48940.62, 21783.63, -187500.02, -187500.02, -187500.02, -187500.02, -187500.02, -187500.02, 0.000, 0.000, 0.000, 13:21:05.515
188, 49936.39, 22823.16, -187500.02, -187500.02, -187500.02, -187500.02, -187500.02, -187500.02, 0.000, 0.000, 0.000, 13:21:05.515
189, 51280.78, 24146.61, -187500.02, -187500.02, -187500.02, -187500.02, -187500.02, -187500.02, 0.026, -0.070, 1.026, 13:21:05.516
190, 51287.89, 24142.23, -187500.02, -187500.02, -187500.02, -187500.02, -187500.02, -187500.02, 0.000, 0.000, 0.000, 13:21:05.516
191, 50320.12, 23155.47, -187500.02, -187500.02, -187500.02, -187500.02, -187500.02, -187500.02, 0.000, 0.000, 0.000, 13:21:05.516
192, 48912.12, 21748.67, -187500.02, -187500.02, -187500.02, -187500.02, -187500.02, -187500.02, 0.000, 0.000, 0.000, 13:21:05.516
193, 49916.03, 22791.78, -187500.02, -187500.02, -187500.02, -187500.02, -187500.02, -187500.02, 0.000, 0.000, 0.000, 13:21:05.516
194, 51261.96, 24126.65, -187500.02, -187500.02, -187500.02, -187500.02, -187500.02, -187500.02, 0.000, 0.000, 0.000, 13:21:05.516
195, 51282.75, 24136.02, -187500.02, -187500.02, -187500.02, -187500.02, -187500.02, -187500.02, 0.000, 0.000, 0.000, 13:21:05.516
196, 50337.04, 23174.47, -187500.02, -187500.02, -187500.02, -187500.02, -187500.02, -187500.02, 0.000, 0.000, 0.000, 13:21:05.516
197, 48922.56, 21771.58, -187500.02, -187500.02, -187500.02, -187500.02, -187500.02, -187500.02, 0.000, 0.000, 0.000, 13:21:05.517
198, 49897.00, 22798.40, -187500.02, -187500.02, -187500.02, -187500.02, -187500.02, -187500.02, 0.000, 0.000, 0.000, 13:21:05.517
199, 51257.33, 24138.95, -187500.02, -187500.02, -187500.02, -187500.02, -187500.02, -187500.02, 0.026, -0.072, 1.026, 13:21:05.517
200, 51285.92, 24148.02, -187500.02, -187500.02, -187500.02, -187500.02, -187500.02, -187500.02, 0.000, 0.000, 0.000, 13:21:05.517
201, 50340.84, 23182.31, -187500.02, -187500.02, -187500.02, -187500.02, -187500.02, -187500.02, 0.000, 0.000, 0.000, 13:21:05.517
202, 48919.23, 21759.02, -187500.02, -187500.02, -187500.02, -187500.02, -187500.02, -187500.02, 0.000, 0.000, 0.000, 13:21:05.517
203, 49905.50, 22777.19, -187500.02, -187500.02, -187500.02, -187500.02, -187500.02, -187500.02, 0.000, 0.000, 0.000, 13:21:05.517
204, 51285.29, 24139.93, -187500.02, -187500.02, -187500.02, -187500.02, -187500.02, -187500.02, 0.000, 0.000, 0.000, 13:21:05.518
205, 51309.28, 24158.86, -187500.02, -187500.02, -187500.02, -187500.02, -187500.02, -187500.02, 0.000, 0.000, 0.000, 13:21:05.518
206, 50356.80, 23190.52, -187500.02, -187500.02, -187500.02, -187500.02, -187500.02, -187500.02, 0.000, 0.000, 0.000, 13:21:05.518
207, 48934.52, 21778.94, -187500.02, -187500.02, -187500.02, -187500.02, -187500.02, -187500.02, 0.000, 0.000, 0.000, 13:21:05.518
208, 49900.29, 22790.46, -187500.02, -187500.02, -187500.02, -187500.02, -187500.02, -187500.02, 0.000, 0.000, 0.000, 13:21:05.518
209, 51292.69, 24160.34, -187500.02, -187500.02, -187500.02, -187500.02, -187500.02, -187500.02, 0.030, -0.080, 1.024, 13:21:05.981
210, 51315.02, 24165.45, -187500.02, -187500.02, -187500.02, -187500.02, -187500.02, -187500.02, 0.000, 0.000, 0.000, 13:21:05.981
211, 50349.56, 23184.82, -187500.02, -187500.02, -187500.02, -187500.02, -187500.02, -187500.02, 0.000, 0.000, 0.000, 13:21:05.982
212, 48900.99, 21735.53, -187500.02, -187500.02, -187500.02, -187500.02, -187500.02, -187500.02, 0.000, 0.000, 0.000, 13:21:05.982
213, 49872.86, 22754.01, -187500.02, -187500.02, -187500.02, -187500.02, -187500.02, -187500.02, 0.000, 0.000, 0.000, 13:21:05.982
214, 51283.71, 24149.05, -187500.02, -187500.02, -187500.02, -187500.02, -187500.02, -187500.02, 0.000, 0.000, 0.000, 13:21:05.982
215, 51313.43, 24164.20, -187500.02, -187500.02, -187500.02, -187500.02, -187500.02, -187500.02, 0.000, 0.000, 0.000, 13:21:05.982
216, 50370.48, 23200.93, -187500.02, -187500.02, -187500.02, -187500.02, -187500.02, -187500.02, 0.000, 0.000, 0.000, 13:21:05.983
217, 48946.56, 21782.85, -187500.02, -187500.02, -187500.02, -187500.02, -187500.02, -187500.02, 0.000, 0.000, 0.000, 13:21:05.983
218, 49903.75, 22783.89, -187500.02, -187500.02, -187500.02, -187500.02, -187500.02, -187500.02, 0.000, 0.000, 0.000, 13:21:05.983
219, 51282.37, 24150.01, -187500.02, -187500.02, -187500.02, -187500.02, -187500.02, -187500.02, 0.028, -0.074, 1.024, 13:21:05.983
220, 51300.83, 24159.29, -187500.02, -187500.02, -187500.02, -187500.02, -187500.02, -187500.02, 0.000, 0.000, 0.000, 13:21:05.983
221, 50361.03, 23192.55, -187500.02, -187500.02, -187500.02, -187500.02, -187500.02, -187500.02, 0.000, 0.000, 0.000, 13:21:05.983
222, 48940.84, 21774.55, -187500.02, -187500.02, -187500.02, -187500.02, -187500.02, -187500.02, 0.000, 0.000, 0.000, 13:21:05.984
223, 49874.23, 22753.25, -187500.02, -187500.02, -187500.02, -187500.02, -187500.02, -187500.02, 0.000, 0.000, 0.000, 13:21:05.984
224, 51264.20, 24132.33, -187500.02, -187500.02, -187500.02, -187500.02, -187500.02, -187500.02, 0.000, 0.000, 0.000, 13:21:05.984
225, 51325.37, 24181.10, -187500.02, -187500.02, -187500.02, -187500.02, -187500.02, -187500.02, 0.000, 0.000, 0.000, 13:21:05.984
226, 50396.19, 23230.03, -187500.02, -187500.02, -187500.02, -187500.02, -187500.02, -187500.02, 0.000, 0.000, 0.000, 13:21:05.984
227, 48953.52, 21796.77, -187500.02, -187500.02, -187500.02, -187500.02, -187500.02, -187500.02, 0.000, 0.000, 0.000, 13:21:05.984
228, 49884.87, 22772.36, -187500.02, -187500.02, -187500.02, -187500.02, -187500.02, -187500.02, 0.000, 0.000, 0.000, 13:21:05.985
229, 51271.93, 24143.46, -187500.02, -187500.02, -187500.02, -187500.02, -187500.02, -187500.02, 0.026, -0.076, 1.020, 13:21:05.985
230, 51319.74, 24182.42, -187500.02, -187500.02, -187500.02, -187500.02, -187500.02, -187500.02, 0.000, 0.000, 0.000, 13:21:05.985
231, 50400.34, 23240.20, -187500.02, -187500.02, -187500.02, -187500.02, -187500.02, -187500.02, 0.000, 0.000, 0.000, 13:21:05.985
232, 48959.89, 21799.41, -187500.02, -187500.02, -187500.02, -187500.02, -187500.02, -187500.02, 0.000, 0.000, 0.000, 13:21:05.985
233, 49877.58, 22761.54, -187500.02, -187500.02, -187500.02, -187500.02, -187500.02, -187500.02, 0.000, 0.000, 0.000, 13:21:05.985
234, 51276.60, 24145.38, -187500.02, -187500.02, -187500.02, -187500.02, -187500.02, -187500.02, 0.000, 0.000, 0.000, 13:21:05.986
235, 51328.93, 24183.18, -187500.02, -187500.02, -187500.02, -187500.02, -187500.02, -187500.02, 0.000, 0.000, 0.000, 13:21:05.986
236, 50407.41, 23242.97, -187500.02, -187500.02, -187500.02, -187500.02, -187500.02, -187500.02, 0.000, 0.000, 0.000, 13:21:05.986
237, 48959.46, 21802.58, -187500.02, -187500.02, -187500.02, -187500.02, -187500.02, -187500.02, 0.000, 0.000, 0.000, 13:21:05.986
238, 49859.88, 22747.06, -187500.02, -187500.02, -187500.02, -187500.02, -187500.02, -187500.02, 0.000, 0.000, 0.000, 13:21:05.986
239, 51272.24, 24148.67, -187500.02, -187500.02, -187500.02, -187500.02, -187500.02, -187500.02, 0.030, -0.076, 1.016, 13:21:05.987
240, 51338.51, 24202.89, -187500.02, -187500.02, -187500.02, -187500.02, -187500.02, -187500.02, 0.000, 0.000, 0.000, 13:21:05.987
241, 50429.80, 23279.59, -187500.02, -187500.02, -187500.02, -187500.02, -187500.02, -187500.02, 0.000, 0.000, 0.000, 13:21:05.987
242, 48972.67, 21828.69, -187500.02, -187500.02, -187500.02, -187500.02, -187500.02, -187500.02, 0.000, 0.000, 0.000, 13:21:05.987
243, 49874.94, 22768.31, -187500.02, -187500.02, -187500.02, -187500.02, -187500.02, -187500.02, 0.000, 0.000, 0.000, 13:21:05.987
244, 51274.54, 24145.22, -187500.02, -187500.02, -187500.02, -187500.02, -187500.02, -187500.02, 0.000, 0.000, 0.000, 13:21:05.988
245, 51322.46, 24181.39, -187500.02, -187500.02, -187500.02, -187500.02, -187500.02, -187500.02, 0.000, 0.000, 0.000, 13:21:05.988
246, 50405.24, 23256.52, -187500.02, -187500.02, -187500.02, -187500.02, -187500.02, -187500.02, 0.000, 0.000, 0.000, 13:21:05.988
247, 48943.30, 21803.43, -187500.02, -187500.02, -187500.02, -187500.02, -187500.02, -187500.02, 0.000, 0.000, 0.000, 13:21:05.988
248, 49847.99, 22747.50, -187500.02, -187500.02, -187500.02, -187500.02, -187500.02, -187500.02, 0.000, 0.000, 0.000, 13:21:05.988
249, 51261.89, 24143.37, -187500.02, -187500.02, -187500.02, -187500.02, -187500.02, -187500.02, 0.026, -0.076, 1.014, 13:21:05.988
250, 51331.70, 24199.52, -187500.02, -187500.02, -187500.02, -187500.02, -187500.02, -187500.02, 0.000, 0.000, 0.000, 13:21:05.988
251, 50425.27, 23277.13, -187500.02, -187500.02, -187500.02, -187500.02, -187500.02, -187500.02, 0.000, 0.000, 0.000, 13:21:05.989
252, 48961.63, 21814.07, -187500.02, -187500.02, -187500.02, -187500.02, -187500.02, -187500.02, 0.000, 0.000, 0.000, 13:21:05.989
253, 49842.64, 22735.72, -187500.02, -187500.02, -187500.02, -187500.02, -187500.02, -187500.02, 0.000, 0.000, 0.000, 13:21:05.989
254, 51264.20, 24142.83, -187500.02, -187500.02, -187500.02, -187500.02, -187500.02, -187500.02, 0.000, 0.000, 0.000, 13:21:05.989
255, 51320.48, 24188.72, -187500.02, -187500.02, -187500.02, -187500.02, -187500.02, -187500.02, 0.000, 0.000, 0.000, 13:21:05.989
0, 50414.16, 23262.04, -187500.02, -187500.02, -187500.02, -187500.02, -187500.02, -187500.02, 0.000, 0.000, 0.000, 13:21:05.989
1, 48955.71, 21803.70, -187500.02, -187500.02, -187500.02, -187500.02, -187500.02, -187500.02, 0.000, 0.000, 0.000, 13:21:05.989
2, 49827.69, 22722.56, -187500.02, -187500.02, -187500.02, -187500.02, -187500.02, -187500.02, 0.026, -0.078, 1.026, 13:21:05.989
3, 51241.64, 24114.56, -187500.02, -187500.02, -187500.02, -187500.02, -187500.02, -187500.02, 0.000, 0.000, 0.000, 13:21:05.990
4, 51297.99, 24157.05, -187500.02, -187500.02, -187500.02, -187500.02, -187500.02, -187500.02, 0.000, 0.000, 0.000, 13:21:05.990
5, 50421.60, 23265.91, -187500.02, -187500.02, -187500.02, -187500.02, -187500.02, -187500.02, 0.000, 0.000, 0.000, 13:21:05.990
6, 48947.95, 21801.20, -187500.02, -187500.02, -187500.02, -187500.02, -187500.02, -187500.02, 0.000, 0.000, 0.000, 13:21:05.990
7, 49816.32, 22716.97, -187500.02, -187500.02, -187500.02, -187500.02, -187500.02, -187500.02, 0.000, 0.000, 0.000, 13:21:05.990
8, 51259.54, 24148.62, -187500.02, -187500.02, -187500.02, -187500.02, -187500.02, -187500.02, 0.000, 0.000, 0.000, 13:21:05.990
9, 51319.27, 24193.77, -187500.02, -187500.02, -187500.02, -187500.02, -187500.02, -187500.02, 0.000, 0.000, 0.000, 13:21:05.990
10, 50430.88, 23273.39, -187500.02, -187500.02, -187500.02, -187500.02, -187500.02, -187500.02, 0.000, 0.000, 0.000, 13:21:05.990
11, 48968.94, 21810.27, -187500.02, -187500.02, -187500.02, -187500.02, -187500.02, -187500.02, 0.000, 0.000, 0.000, 13:21:05.991
12, 49813.32, 22702.58, -187500.02, -187500.02, -187500.02, -187500.02, -187500.02, -187500.02, 0.028, -0.078, 1.024, 13:21:05.991
13, 51237.04, 24116.12, -187500.02, -187500.02, -187500.02, -187500.02, -187500.02, -187500.02, 0.000, 0.000, 0.000, 13:21:05.991
14, 51322.20, 24188.81, -187500.02, -187500.02, -187500.02, -187500.02, -187500.02, -187500.02, 0.000, 0.000, 0.000, 13:21:05.991
15, 50427.37, 23278.31, -187500.02, -187500.02, -187500.02, -187500.02, -187500.02, -187500.02, 0.000, 0.000, 0.000, 13:21:05.991
16, 48940.06, 21790.16, -187500.02, -187500.02, -187500.02, -187500.02, -187500.02, -187500.02, 0.000, 0.000, 0.000, 13:21:05.991
17, 49797.92, 22693.52, -187500.02, -187500.02, -187500.02, -187500.02, -187500.02, -187500.02, 0.000, 0.000, 0.000, 13:21:05.991
18, 51232.90, 24110.60, -187500.02, -187500.02, -187500.02, -187500.02, -187500.02, -187500.02, 0.000, 0.000, 0.000, 13:21:05.991
19, 51317.28, 24180.21, -187500.02, -187500.02, -187500.02, -187500.02, -187500.02, -187500.02, 0.000, 0.000, 0.000, 13:21:05.992
20, 50427.84, 23279.77, -187500.02, -187500.02, -187500.02, -187500.02, -187500.02, -187500.02, 0.000, 0.000, 0.000, 13:21:05.992
21, 48952.06, 21811.37, -187500.02, -187500.02, -187500.02, -187500.02, -187500.02, -187500.02, 0.000, 0.000, 0.000, 13:21:05.992
22, 49782.56, 22690.15, -187500.02, -187500.02, -187500.02, -187500.02, -187500.02, -187500.02, 0.026, -0.078, 1.022, 13:21:05.992
23, 51222.69, 24114.09, -187500.02, -187500.02, -187500.02, -187500.02, -187500.02, -187500.02, 0.000, 0.000, 0.000, 13:21:05.992
24, 51315.34, 24186.02, -187500.02, -187500.02, -187500.02, -187500.02, -187500.02, -187500.02, 0.000, 0.000, 0.000, 13:21:05.992
25, 50426.88, 23281.55, -187500.02, -187500.02, -187500.02, -187500.02, -187500.02, -187500.02, 0.000, 0.000, 0.000, 13:21:05.992
26, 48945.63, 21794.07, -187500.02, -187500.02, -187500.02, -187500.02, -187500.02, -187500.02, 0.000, 0.000, 0.000, 13:21:05.992
27, 49776.57, 22664.27, -187500.02, -187500.02, -187500.02, -187500.02, -187500.02, -187500.02, 0.000, 0.000, 0.000, 13:21:05.993
28, 51217.88, 24097.48, -187500.02, -187500.02, -187500.02, -187500.02, -187500.02, -187500.02, 0.000, 0.000, 0.000, 13:21:05.993
29, 51310.21, 24180.92, -187500.02, -187500.02, -187500.02, -187500.02, -187500.02, -187500.02, 0.000, 0.000, 0.000, 13:21:05.993
30, 50438.97, 23292.95, -187500.02, -187500.02, -187500.02, -187500.02, -187500.02, -187500.02, 0.000, 0.000, 0.000, 13:21:05.993
31, 48954.63, 21813.29, -187500.02, -187500.02, -187500.02, -187500.02, -187500.02, -187500.02, 0.000, 0.000, 0.000, 13:21:05.993
32, 49773.49, 22677.32, -187500.02, -187500.02, -187500.02, -187500.02, -187500.02, -187500.02, 0.028, -0.076, 1.022, 13:21:05.993
33, 51223.85, 24111.29, -187500.02, -187500.02, -187500.02, -187500.02, -187500.02, -187500.02, 0.000, 0.000, 0.000, 13:21:05.993
34, 51313.90, 24191.43, -187500.02, -187500.02, -187500.02, -187500.02, -187500.02, -187500.02, 0.000, 0.000, 0.000, 13:21:05.993
35, 50449.63, 23303.10, -187500.02, -187500.02, -187500.02, -187500.02, -187500.02, -187500.02, 0.000, 0.000, 0.000, 13:21:05.994
36, 48970.12, 21819.26, -187500.02, -187500.02, -187500.02, -187500.02, -187500.02, -187500.02, 0.000, 0.000, 0.000, 13:21:05.994
37, 49781.60, 22676.65, -187500.02, -187500.02, -187500.02, -187500.02, -187500.02, -187500.02, 0.000, 0.000, 0.000, 13:21:05.994
38, 51229.91, 24110.58, -187500.02, -187500.02, -187500.02, -187500.02, -187500.02, -187500.02, 0.000, 0.000, 0.000, 13:21:05.994
39, 51321.41, 24191.20, -187500.02, -187500.02, -187500.02, -187500.02, -187500.02, -187500.02, 0.000, 0.000, 0.000, 13:21:05.994
40, 50452.29, 23302.05, -187500.02, -187500.02, -187500.02, -187500.02, -187500.02, -187500.02, 0.000, 0.000, 0.000, 13:21:05.994
41, 48949.47, 21801.78, -187500.02, -187500.02, -187500.02, -187500.02, -187500.02, -187500.02, 0.000, 0.000, 0.000, 13:21:05.994
42, 49759.88, 22660.87, -187500.02, -187500.02, -187500.02, -187500.02, -187500.02, -187500.02, 0.028, -0.074, 1.026, 13:21:05.994
43, 51219.16, 24101.82, -187500.02, -187500.02, -187500.02, -187500.02, -187500.02, -187500.02, 0.000, 0.000, 0.000, 13:21:05.995
44, 51315.25, 24182.98, -187500.02, -187500.02, -187500.02, -187500.02, -187500.02, -187500.02, 0.000, 0.000, 0.000, 13:21:05.995
45, 50457.41, 23309.43, -187500.02, -187500.02, -187500.02, -187500.02, -187500.02, -187500.02, 0.000, 0.000, 0.000, 13:21:05.995
46, 48949.29, 21802.94, -187500.02, -187500.02, -187500.02, -187500.02, -187500.02, -187500.02, 0.000, 0.000, 0.000, 13:21:05.995
47, 49741.95, 22638.31, -187500.02, -187500.02, -187500.02, -187500.02, -187500.02, -187500.02, 0.000, 0.000, 0.000, 13:21:05.995
48, 51206.26, 24090.35, -187500.02, -187500.02, -187500.02, -187500.02, -187500.02, -187500.02, 0.000, 0.000, 0.000, 13:21:05.995
49, 51297.65, 24160.65, -187500.02, -187500.02, -187500.02, -187500.02, -187500.02, -187500.02, 0.000, 0.000, 0.000, 13:21:05.995
50, 50437.89, 23281.91, -187500.02, -187500.02, -187500.02, -187500.02, -187500.02, -187500.02, 0.000, 0.000, 0.000, 13:21:05.995
51, 48950.95, 21802.25, -187500.02, -187500.02, -187500.02, -187500.02, -187500.02, -187500.02, 0.000, 0.000, 0.000, 13:21:05.995
52, 49725.99, 22632.08, -187500.02, -187500.02, -187500.02, -187500.02, -187500.02, -187500.02, 0.030, -0.076, 1.026, 13:21:05.996
53, 51195.20, 24086.44, -187500.02, -187500.02, -187500.02, -187500.02, -187500.02, -187500.02, 0.000, 0.000, 0.000, 13:21:05.996
54, 51322.75, 24187.22, -187500.02, -187500.02, -187500.02, -187500.02, -187500.02, -187500.02, 0.000, 0.000, 0.000, 13:21:05.996
55, 50460.31, 23310.23, -187500.02, -187500.02, -187500.02, -187500.02, -187500.02, -187500.02, 0.000, 0.000, 0.000, 13:21:05.996
56, 48944.64, 21794.60, -187500.02, -187500.02, -187500.02, -187500.02, -187500.02, -187500.02, 0.000, 0.000, 0.000, 13:21:05.996
57, 49740.97, 22637.91, -187500.02, -187500.02, -187500.02, -187500.02, -187500.02, -187500.02, 0.000, 0.000, 0.000, 13:21:05.996
58, 51211.27, 24091.83, -187500.02, -187500.02, -187500.02, -187500.02, -187500.02, -187500.02, 0.000, 0.000, 0.000, 13:21:05.996
59, 51323.58, 24194.62, -187500.02, -187500.02, -187500.02, -187500.02, -187500.02, -187500.02, 0.000, 0.000, 0.000, 13:21:05.997
60, 50464.87, 23330.97, -187500.02, -187500.02, -187500.02, -187500.02, -187500.02, -187500.02, 0.000, 0.000, 0.000, 13:21:05.997
61, 48949.02, 21826.54, -187500.02, -187500.02, -187500.02, -187500.02, -187500.02, -187500.02, 0.000, 0.000, 0.000, 13:21:05.998
62, 49724.11, 22643.95, -187500.02, -187500.02, -187500.02, -187500.02, -187500.02, -187500.02, 0.030, -0.076, 1.022, 13:21:05.998
63, 51189.09, 24095.38, -187500.02, -187500.02, -187500.02, -187500.02, -187500.02, -187500.02, 0.000, 0.000, 0.000, 13:21:05.998
64, 51304.16, 24197.64, -187500.02, -187500.02, -187500.02, -187500.02, -187500.02, -187500.02, 0.000, 0.000, 0.000, 13:21:05.998
65, 50469.28, 23344.90, -187500.02, -187500.02, -187500.02, -187500.02, -187500.02, -187500.02, 0.000, 0.000, 0.000, 13:21:05.998
66, 48938.76, 21817.96, -187500.02, -187500.02, -187500.02, -187500.02, -187500.02, -187500.02, 0.000, 0.000, 0.000, 13:21:05.998
67, 49690.81, 22618.31, -187500.02, -187500.02, -187500.02, -187500.02, -187500.02, -187500.02, 0.000, 0.000, 0.000, 13:21:05.999
68, 51175.84, 24085.93, -187500.02, -187500.02, -187500.02, -187500.02, -187500.02, -187500.02, 0.000, 0.000, 0.000, 13:21:05.999
69, 51285.23, 24179.69, -187500.02, -187500.02, -187500.02, -187500.02, -187500.02, -187500.02, 0.000, 0.000, 0.000, 13:21:05.999
70, 50443.26, 23323.78, -187500.02, -187500.02, -187500.02, -187500.02, -187500.02, -187500.02, 0.000, 0.000, 0.000, 13:21:05.999
71, 48926.38, 21805.09, -187500.02, -187500.02, -187500.02, -187500.02, -187500.02, -187500.02, 0.000, 0.000, 0.000, 13:21:05.999
72, 49672.28, 22591.76, -187500.02, -187500.02, -187500.02, -187500.02, -187500.02, -187500.02, 0.026, -0.078, 1.024, 13:21:05.999
73, 51166.85, 24072.72, -187500.02, -187500.02, -187500.02, -187500.02, -187500.02, -187500.02, 0.000, 0.000, 0.000, 13:21:06.461
74, 51278.43, 24174.15, -187500.02, -187500.02, -187500.02, -187500.02, -187500.02, -187500.02, 0.000, 0.000, 0.000, 13:21:06.462
75, 50456.27, 23340.90, -187500.02, -187500.02, -187500.02, -187500.02, -187500.02, -187500.02, 0.000, 0.000, 0.000, 13:21:06.462
76, 48946.72, 21825.65, -187500.02, -187500.02, -187500.02, -187500.02, -187500.02, -187500.02, 0.000, 0.000, 0.000, 13:21:06.462
77, 49670.96, 22591.53, -187500.02, -187500.02, -187500.02, -187500.02, -187500.02, -187500.02, 0.000, 0.000, 0.000, 13:21:06.462
78, 51181.71, 24091.71, -187500.02, -187500.02, -187500.02, -187500.02, -187500.02, -187500.02, 0.000, 0.000, 0.000, 13:21:06.462
79, 51315.78, 24206.63, -187500.02, -187500.02, -187500.02, -187500.02, -187500.02, -187500.02, 0.000, 0.000, 0.000, 13:21:06.463
80, 50476.29, 23347.07, -187500.02, -187500.02, -187500.02, -187500.02, -187500.02, -187500.02, 0.000, 0.000, 0.000, 13:21:06.463
81, 48959.66, 21828.06, -187500.02, -187500.02, -187500.02, -187500.02, -187500.02, -187500.02, 0.000, 0.000, 0.000, 13:21:06.463
82, 49705.05, 22619.54, -187500.02, -187500.02, -187500.02, -187500.02, -187500.02, -187500.02, 0.028, -0.074, 1.026, 13:21:06.463
83, 51202.50, 24094.87, -187500.02, -187500.02, -187500.02, -187500.02, -187500.02, -187500.02, 0.000, 0.000, 0.000, 13:21:06.463
84, 51316.50, 24189.71, -187500.02, -187500.02, -187500.02, -187500.02, -187500.02, -187500.02, 0.000, 0.000, 0.000, 13:21:06.464
85, 50492.99, 23353.48, -187500.02, -187500.02, -187500.02, -187500.02, -187500.02, -187500.02, 0.000, 0.000, 0.000, 13:21:06.464
86, 48964.47, 21827.26, -187500.02, -187500.02, -187500.02, -187500.02, -187500.02, -187500.02, 0.000, 0.000, 0.000, 13:21:06.464
87, 49689.65, 22594.69, -187500.02, -187500.02, -187500.02, -187500.02, -187500.02, -187500.02, 0.000, 0.000, 0.000, 13:21:06.464
88, 51196.02, 24096.59, -187500.02, -187500.02, -187500.02, -187500.02, -187500.02, -187500.02, 0.000, 0.000, 0.000, 13:21:06.464
89, 51328.90, 24215.30, -187500.02, -187500.02, -187500.02, -187500.02, -187500.02, -187500.02, 0.000, 0.000, 0.000, 13:21:06.464
90, 50503.96, 23374.11, -187500.02, -187500.02, -187500.02, -187500.02, -187500.02, -187500.02, 0.000, 0.000, 0.000, 13:21:06.465
91, 48969.34, 21838.57, -187500.02, -187500.02, -187500.02, -187500.02, -187500.02, -187500.02, 0.000, 0.000, 0.000, 13:21:06.465
92, 49672.05, 22587.93, -187500.02, -187500.02, -187500.02, -187500.02, -187500.02, -187500.02, 0.022, -0.072, 1.022, 13:21:06.465
93, 51171.95, 24071.08, -187500.02, -187500.02, -187500.02, -187500.02, -187500.02, -187500.02, 0.000, 0.000, 0.000, 13:21:06.465
94, 51312.88, 24188.19, -187500.02, -187500.02, -187500.02, -187500.02, -187500.02, -187500.02, 0.000, 0.000, 0.000, 13:21:06.465
95, 50501.89, 23360.61, -187500.02, -187500.02, -187500.02, -187500.02, -187500.02, -187500.02, 0.000, 0.000, 0.000, 13:21:06.465
96, 48972.45, 21836.33, -187500.02, -187500.02, -187500.02, -187500.02, -187500.02, -187500.02, 0.000, 0.000, 0.000, 13:21:06.466
97, 49661.51, 22572.13, -187500.02, -187500.02, -187500.02, -187500.02, -187500.02, -187500.02, 0.000, 0.000, 0.000, 13:21:06.466
98, 51171.88, 24069.97, -187500.02, -187500.02, -187500.02, -187500.02, -187500.02, -187500.02, 0.000, 0.000, 0.000, 13:21:06.466
99, 51324.50, 24195.49, -187500.02, -187500.02, -187500.02, -187500.02, -187500.02, -187500.02, 0.000, 0.000, 0.000, 13:21:06.466
100, 50513.36, 23371.45, -187500.02, -187500.02, -187500.02, -187500.02, -187500.02, -187500.02, 0.000, 0.000, 0.000, 13:21:06.466
101, 48971.73, 21836.58, -187500.02, -187500.02, -187500.02, -187500.02, -187500.02, -187500.02, 0.000, 0.000, 0.000, 13:21:06.466
102, 49672.44, 22585.03, -187500.02, -187500.02, -187500.02, -187500.02, -187500.02, -187500.02, 0.026, -0.082, 1.024, 13:21:06.466
103, 51186.25, 24089.93, -187500.02, -187500.02, -187500.02, -187500.02, -187500.02, -187500.02, 0.000, 0.000, 0.000, 13:21:06.466
104, 51335.90, 24220.13, -187500.02, -187500.02, -187500.02, -187500.02, -187500.02, -187500.02, 0.000, 0.000, 0.000, 13:21:06.467
105, 50538.66, 23401.78, -187500.02, -187500.02, -187500.02, -187500.02, -187500.02, -187500.02, 0.000, 0.000, 0.000, 13:21:06.467
106, 49003.05, 21862.42, -187500.02, -187500.02, -187500.02, -187500.02, -187500.02, -187500.02, 0.000, 0.000, 0.000, 13:21:06.467
107, 49669.93, 22574.17, -187500.02, -187500.02, -187500.02, -187500.02, -187500.02, -187500.02, 0.000, 0.000, 0.000, 13:21:06.467
108, 51185.79, 24073.83, -187500.02, -187500.02, -187500.02, -187500.02, -187500.02, -187500.02, 0.000, 0.000, 0.000, 13:21:06.467
109, 51341.71, 24212.82, -187500.02, -187500.02, -187500.02, -187500.02, -187500.02, -187500.02, 0.000, 0.000, 0.000, 13:21:06.467
110, 50544.31, 23390.61, -187500.02, -187500.02, -187500.02, -187500.02, -187500.02, -187500.02, 0.000, 0.000, 0.000, 13:21:06.467
111, 48992.74, 21835.96, -187500.02, -187500.02, -187500.02, -187500.02, -187500.02, -187500.02, 0.000, 0.000, 0.000, 13:21:06.467
112, 49652.25, 22545.94, -187500.02, -187500.02, -187500.02, -187500.02, -187500.02, -187500.02, 0.026, -0.080, 1.030, 13:21:06.467
113, 51172.51, 24059.71, -187500.02, -187500.02, -187500.02, -187500.02, -187500.02, -187500.02, 0.000, 0.000, 0.000, 13:21:06.468
114, 51318.13, 24190.87, -187500.02, -187500.02, -187500.02, -187500.02, -187500.02, -187500.02, 0.000, 0.000, 0.000, 13:21:06.468
115, 50521.49, 23378.31, -187500.02, -187500.02, -187500.02, -187500.02, -187500.02, -187500.02, 0.000, 0.000, 0.000, 13:21:06.468
116, 48978.08, 21834.28, -187500.02, -187500.02, -187500.02, -187500.02, -187500.02, -187500.02, 0.000, 0.000, 0.000, 13:21:06.468
117, 49630.66, 22533.31, -187500.02, -187500.02, -187500.02, -187500.02, -187500.02, -187500.02, 0.000, 0.000, 0.000, 13:21:06.468
118, 51179.97, 24071.96, -187500.02, -187500.02, -187500.02, -187500.02, -187500.02, -187500.02, 0.000, 0.000, 0.000, 13:21:06.468
119, 51344.21, 24224.71, -187500.02, -187500.02, -187500.02, -187500.02, -187500.02, -187500.02, 0.000, 0.000, 0.000, 13:21:06.468
120, 50535.19, 23402.25, -187500.02, -187500.02, -187500.02, -187500.02, -187500.02, -187500.02, 0.000, 0.000, 0.000, 13:21:06.468
121, 48988.50, 21845.83, -187500.02, -187500.02, -187500.02, -187500.02, -187500.02, -187500.02, 0.028, -0.074, 1.024, 13:21:06.469
122, 49635.82, 22533.53, -187500.02, -187500.02, -187500.02, -187500.02, -187500.02, -187500.02, 0.000, 0.000, 0.000, 13:21:06.469
123, 51159.99, 24045.96, -187500.02, -187500.02, -187500.02, -187500.02, -187500.02, -187500.02, 0.000, 0.000, 0.000, 13:21:06.469
124, 51321.46, 24187.80, -187500.02, -187500.02, -187500.02, -187500.02, -187500.02, -187500.02, 0.000, 0.000, 0.000, 13:21:06.469
125, 50537.49, 23390.38, -187500.02, -187500.02, -187500.02, -187500.02, -187500.02, -187500.02, 0.000, 0.000, 0.000, 13:21:06.469
126, 48993.23, 21844.81, -187500.02, -187500.02, -187500.02, -187500.02, -187500.02, -187500.02, 0.000, 0.000, 0.000, 13:21:06.469
127, 49628.29, 22522.96, -187500.02, -187500.02, -187500.02, -187500.02, -187500.02, -187500.02, 0.000, 0.000, 0.000, 13:21:06.469
128, 51164.39, 24049.16, -187500.02, -187500.02, -187500.02, -187500.02, -187500.02, -187500.02, 0.000, 0.000, 0.000, 13:21:06.469
129, 51342.13, 24212.55, -187500.02, -187500.02, -187500.02, -187500.02, -187500.02, -187500.02, 0.000, 0.000, 0.000, 13:21:06.469
130, 50570.33, 23424.76, -187500.02, -187500.02, -187500.02, -187500.02, -187500.02, -187500.02, 0.000, 0.000, 0.000, 13:21:06.470
131, 49016.95, 21872.21, -187500.02, -187500.02, -187500.02, -187500.02, -187500.02, -187500.02, 0.024, -0.072, 1.024, 13:21:06.470
132, 49628.23, 22536.03, -187500.02, -187500.02, -187500.02, -187500.02, -187500.02, -187500.02, 0.000, 0.000, 0.000, 13:21:06.470
133, 51167.93, 24055.15, -187500.02, -187500.02, -187500.02, -187500.02, -187500.02, -187500.02, 0.000, 0.000, 0.000, 13:21:06.470
134, 51359.90, 24225.80, -187500.02, -187500.02, -187500.02, -187500.02, -187500.02, -187500.02, 0.000, 0.000, 0.000, 13:21:06.470
135, 50580.86, 23435.45, -187500.02, -187500.02, -187500.02, -187500.02, -187500.02, -187500.02, 0.000, 0.000, 0.000, 13:21:06.470
136, 49020.35, 21878.63, -187500.02, -187500.02, -187500.02, -187500.02, -187500.02, -187500.02, 0.000, 0.000, 0.000, 13:21:06.470
137, 49637.30, 22532.88, -187500.02, -187500.02, -187500.02, -187500.02, -187500.02, -187500.02, 0.000, 0.000, 0.000, 13:21:06.470
138, 51167.34, 24046.23, -187500.02, -187500.02, -187500.02, -187500.02, -187500.02, -187500.02, 0.000, 0.000, 0.000, 13:21:06.470
139, 51328.34, 24193.97, -187500.02, -187500.02, -187500.02, -187500.02, -187500.02, -187500.02, 0.000, 0.000, 0.000, 13:21:06.471
140, 50548.74, 23407.15, -187500.02, -187500.02, -187500.02, -187500.02, -187500.02, -187500.02, 0.000, 0.000, 0.000, 13:21:06.471
141, 48992.96, 21848.09, -187500.02, -187500.02, -187500.02, -187500.02, -187500.02, -187500.02, 0.018, -0.080, 1.022, 13:21:06.471
142, 49604.35, 22501.30, -187500.02, -187500.02, -187500.02, -187500.02, -187500.02, -187500.02, 0.000, 0.000, 0.000, 13:21:06.471
143, 51160.19, 24044.06, -187500.02, -187500.02, -187500.02, -187500.02, -187500.02, -187500.02, 0.000, 0.000, 0.000, 13:21:06.471
144, 51351.07, 24220.24, -187500.02, -187500.02, -187500.02, -187500.02, -187500.02, -187500.02, 0.000, 0.000, 0.000, 13:21:06.471
145, 50590.49, 23448.41, -187500.02, -187500.02, -187500.02, -187500.02, -187500.02, -187500.02, 0.000, 0.000, 0.000, 13:21:06.472
146, 49036.13, 21883.59, -187500.02, -187500.02, -187500.02, -187500.02, -187500.02, -187500.02, 0.000, 0.000, 0.000, 13:21:06.472
147, 49615.39, 22507.38, -187500.02, -187500.02, -187500.02, -187500.02, -187500.02, -187500.02, 0.000, 0.000, 0.000, 13:21:06.472
148, 51166.72, 24046.36, -187500.02, -187500.02, -187500.02, -187500.02, -187500.02, -187500.02, 0.000, 0.000, 0.000, 13:21:06.472
