%OpenBCI Raw EEG Data
%
%Sample Rate = 250.0 Hz
%First Column = SampleIndex
%Last Column = Timestamp 
%Other Columns = EEG data in microvolts followed by Accel Data (in G) interleaved with Aux Data
0, 40903.11, 60830.25, 187500.00, 187500.00, 187500.00, -187500.02, -187500.02, -187500.02, 0.008, -0.016, 1.020, 16:23:20.196
1, 40830.06, 60792.41, 187500.00, 187500.00, 187500.00, -187500.02, -187500.02, -187500.02, 0.000, 0.000, 0.000, 16:23:20.197
2, 40683.10, 60698.51, 187500.00, 187500.00, 187500.00, -187500.02, -187500.02, -187500.02, 0.000, 0.000, 0.000, 16:23:20.198
3, 40662.85, 60673.99, 187500.00, 187500.00, 187500.00, -187500.02, -187500.02, -187500.02, 0.000, 0.000, 0.000, 16:23:20.199
4, 40805.03, 60759.71, 187500.00, 187500.00, 187500.00, -187500.02, -187500.02, -187500.02, 0.000, 0.000, 0.000, 16:23:20.200
5, 40923.90, 60853.29, 187500.00, 187500.00, 187500.00, -187500.02, -187500.02, -187500.02, 0.000, 0.000, 0.000, 16:23:20.200
6, 40857.22, 60824.91, 187500.00, 187500.00, 187500.00, -187500.02, -187500.02, -187500.02, 0.000, 0.000, 0.000, 16:23:20.201
7, 40693.09, 60711.27, 187500.00, 187500.00, 187500.00, -187500.02, -187500.02, -187500.02, 0.000, -0.028, 1.028, 16:23:20.201
8, 40658.22, 60670.32, 187500.00, 187500.00, 187500.00, -187500.02, -187500.02, -187500.02, 0.000, 0.000, 0.000, 16:23:20.202
9, 40826.38, 60780.45, 187500.00, 187500.00, 187500.00, -187500.02, -187500.02, -187500.02, 0.000, 0.000, 0.000, 16:23:20.202
10, 40919.43, 60852.91, 187500.00, 187500.00, 187500.00, -187500.02, -187500.02, -187500.02, 0.000, 0.000, 0.000, 16:23:20.203
11, 40845.24, 60819.16, 187500.00, 187500.00, 187500.00, -187500.02, -187500.02, -187500.02, 0.000, 0.000, 0.000, 16:23:20.203
12, 40688.58, 60711.79, 187500.00, 187500.00, 187500.00, -187500.02, -187500.02, -187500.02, 0.000, 0.000, 0.000, 16:23:20.204
13, 40663.72, 60679.93, 187500.00, 187500.00, 187500.00, -187500.02, -187500.02, -187500.02, 0.000, 0.000, 0.000, 16:23:20.205
14, 40794.08, 60752.08, 187500.00, 187500.00, 187500.00, -187500.02, -187500.02, -187500.02, 0.000, 0.000, 0.000, 16:23:20.205
15, 40887.91, 60821.82, 187500.00, 187500.00, 187500.00, -187500.02, -187500.02, -187500.02, 0.000, 0.000, 0.000, 16:23:20.206
16, 40821.88, 60796.32, 187500.00, 187500.00, 187500.00, -187500.02, -187500.02, -187500.02, 0.002, -0.024, 1.024, 16:23:20.206
17, 40682.12, 60710.02, 187500.00, 187500.00, 187500.00, -187500.02, -187500.02, -187500.02, 0.000, 0.000, 0.000, 16:23:20.207
18, 40668.30, 60694.95, 187500.00, 187500.00, 187500.00, -187500.02, -187500.02, -187500.02, 0.000, 0.000, 0.000, 16:23:20.207
19, 40804.74, 60777.48, 187500.00, 187500.00, 187500.00, -187500.02, -187500.02, -187500.02, 0.000, 0.000, 0.000, 16:23:20.208
20, 40912.95, 60853.76, 187500.00, 187500.00, 187500.00, -187500.02, -187500.02, -187500.02, 0.000, 0.000, 0.000, 16:23:20.208
21, 40853.87, 60826.61, 187500.00, 187500.00, 187500.00, -187500.02, -187500.02, -187500.02, 0.000, 0.000, 0.000, 16:23:20.209
22, 40706.95, 60730.31, 187500.00, 187500.00, 187500.00, -187500.02, -187500.02, -187500.02, 0.000, 0.000, 0.000, 16:23:20.209
23, 40661.58, 60677.92, 187500.00, 187500.00, 187500.00, -187500.02, -187500.02, -187500.02, 0.000, 0.000, 0.000, 16:23:20.210
24, 40791.55, 60750.43, 187500.00, 187500.00, 187500.00, -187500.02, -187500.02, -187500.02, 0.000, 0.000, 0.000, 16:23:20.210
25, 40900.09, 60833.11, 187500.00, 187500.00, 187500.00, -187500.02, -187500.02, -187500.02, 0.000, 0.000, 0.000, 16:23:20.211
26, 40840.55, 60811.11, 187500.00, 187500.00, 187500.00, -187500.02, -187500.02, -187500.02, 0.002, -0.022, 1.022, 16:23:20.211
27, 40693.99, 60717.24, 187500.00, 187500.00, 187500.00, -187500.02, -187500.02, -187500.02, 0.000, 0.000, 0.000, 16:23:20.212
28, 40667.97, 60683.73, 187500.00, 187500.00, 187500.00, -187500.02, -187500.02, -187500.02, 0.000, 0.000, 0.000, 16:23:20.213
29, 40809.84, 60761.94, 187500.00, 187500.00, 187500.00, -187500.02, -187500.02, -187500.02, 0.000, 0.000, 0.000, 16:23:20.213
30, 40920.32, 60847.55, 187500.00, 187500.00, 187500.00, -187500.02, -187500.02, -187500.02, 0.000, 0.000, 0.000, 16:23:20.214
31, 40858.56, 60828.48, 187500.00, 187500.00, 187500.00, -187500.02, -187500.02, -187500.02, 0.000, 0.000, 0.000, 16:23:20.215
32, 40712.79, 60735.77, 187500.00, 187500.00, 187500.00, -187500.02, -187500.02, -187500.02, 0.000, 0.000, 0.000, 16:23:20.216
33, 40670.70, 60688.09, 187500.00, 187500.00, 187500.00, -187500.02, -187500.02, -187500.02, 0.000, 0.000, 0.000, 16:23:20.217
34, 40805.14, 60769.21, 187500.00, 187500.00, 187500.00, -187500.02, -187500.02, -187500.02, 0.000, 0.000, 0.000, 16:23:20.218
35, 40900.92, 60840.89, 187500.00, 187500.00, 187500.00, -187500.02, -187500.02, -187500.02, 0.000, 0.000, 0.000, 16:23:20.218
36, 40854.92, 60832.02, 187500.00, 187500.00, 187500.00, -187500.02, -187500.02, -187500.02, 0.004, -0.020, 1.022, 16:23:20.219
37, 40683.21, 60708.59, 187500.00, 187500.00, 187500.00, -187500.02, -187500.02, -187500.02, 0.000, 0.000, 0.000, 16:23:20.219
38, 40665.85, 60682.64, 187500.00, 187500.00, 187500.00, -187500.02, -187500.02, -187500.02, 0.000, 0.000, 0.000, 16:23:20.220
39, 40808.09, 60770.55, 187500.00, 187500.00, 187500.00, -187500.02, -187500.02, -187500.02, 0.000, 0.000, 0.000, 16:23:20.220
40, 40909.14, 60846.43, 187500.00, 187500.00, 187500.00, -187500.02, -187500.02, -187500.02, 0.000, 0.000, 0.000, 16:23:20.221
41, 40841.60, 60811.56, 187500.00, 187500.00, 187500.00, -187500.02, -187500.02, -187500.02, 0.000, 0.000, 0.000, 16:23:20.222
42, 40694.39, 60716.03, 187500.00, 187500.00, 187500.00, -187500.02, -187500.02, -187500.02, 0.000, 0.000, 0.000, 16:23:20.222
43, 40673.38, 60693.54, 187500.00, 187500.00, 187500.00, -187500.02, -187500.02, -187500.02, 0.000, 0.000, 0.000, 16:23:20.223
44, 40793.81, 60762.84, 187500.00, 187500.00, 187500.00, -187500.02, -187500.02, -187500.02, 0.000, 0.000, 0.000, 16:23:20.223
45, 40896.07, 60843.01, 187500.00, 187500.00, 187500.00, -187500.02, -187500.02, -187500.02, 0.000, 0.000, 0.000, 16:23:20.224
46, 40847.45, 60827.07, 187500.00, 187500.00, 187500.00, -187500.02, -187500.02, -187500.02, 0.004, -0.018, 1.026, 16:23:20.224
47, 40685.54, 60712.88, 187500.00, 187500.00, 187500.00, -187500.02, -187500.02, -187500.02, 0.000, 0.000, 0.000, 16:23:20.225
48, 40650.69, 60670.32, 187500.00, 187500.00, 187500.00, -187500.02, -187500.02, -187500.02, 0.000, 0.000, 0.000, 16:23:20.225
49, 40797.61, 60753.76, 187500.00, 187500.00, 187500.00, -187500.02, -187500.02, -187500.02, 0.000, 0.000, 0.000, 16:23:20.226
50, 40916.95, 60841.36, 187500.00, 187500.00, 187500.00, -187500.02, -187500.02, -187500.02, 0.000, 0.000, 0.000, 16:23:20.226
51, 40845.26, 60810.58, 187500.00, 187500.00, 187500.00, -187500.02, -187500.02, -187500.02, 0.000, 0.000, 0.000, 16:23:20.227
52, 40677.67, 60702.48, 187500.00, 187500.00, 187500.00, -187500.02, -187500.02, -187500.02, 0.000, 0.000, 0.000, 16:23:20.227
53, 40648.43, 60669.65, 187500.00, 187500.00, 187500.00, -187500.02, -187500.02, -187500.02, 0.000, 0.000, 0.000, 16:23:20.228
54, 40791.15, 60751.17, 187500.00, 187500.00, 187500.00, -187500.02, -187500.02, -187500.02, 0.000, 0.000, 0.000, 16:23:20.228
55, 40898.48, 60823.21, 187500.00, 187500.00, 187500.00, -187500.02, -187500.02, -187500.02, 0.000, 0.000, 0.000, 16:23:20.229
56, 40839.39, 60798.33, 187500.00, 187500.00, 187500.00, -187500.02, -187500.02, -187500.02, 0.004, -0.022, 1.026, 16:23:20.230
57, 40688.13, 60705.01, 187500.00, 187500.00, 187500.00, -187500.02, -187500.02, -187500.02, 0.000, 0.000, 0.000, 16:23:20.231
58, 40656.79, 60670.19, 187500.00, 187500.00, 187500.00, -187500.02, -187500.02, -187500.02, 0.000, 0.000, 0.000, 16:23:20.231
59, 40793.14, 60748.42, 187500.00, 187500.00, 187500.00, -187500.02, -187500.02, -187500.02, 0.000, 0.000, 0.000, 16:23:20.232
60, 40898.62, 60826.00, 187500.00, 187500.00, 187500.00, -187500.02, -187500.02, -187500.02, 0.000, 0.000, 0.000, 16:23:20.233
61, 40828.41, 60794.15, 187500.00, 187500.00, 187500.00, -187500.02, -187500.02, -187500.02, 0.000, 0.000, 0.000, 16:23:20.233
62, 40692.38, 60712.77, 187500.00, 187500.00, 187500.00, -187500.02, -187500.02, -187500.02, 0.000, 0.000, 0.000, 16:23:20.234
63, 40666.79, 60682.04, 187500.00, 187500.00, 187500.00, -187500.02, -187500.02, -187500.02, 0.000, 0.000, 0.000, 16:23:20.234
64, 40795.51, 60752.13, 187500.00, 187500.00, 187500.00, -187500.02, -187500.02, -187500.02, 0.000, 0.000, 0.000, 16:23:20.235
65, 40896.02, 60825.53, 187500.00, 187500.00, 187500.00, -187500.02, -187500.02, -187500.02, 0.000, 0.000, 0.000, 16:23:20.236
66, 40836.66, 60800.83, 187500.00, 187500.00, 187500.00, -187500.02, -187500.02, -187500.02, 0.006, -0.020, 1.030, 16:23:20.236
67, 40687.89, 60708.45, 187500.00, 187500.00, 187500.00, -187500.02, -187500.02, -187500.02, 0.000, 0.000, 0.000, 16:23:20.237
68, 40660.06, 60680.38, 187500.00, 187500.00, 187500.00, -187500.02, -187500.02, -187500.02, 0.000, 0.000, 0.000, 16:23:20.238
69, 40805.19, 60763.19, 187500.00, 187500.00, 187500.00, -187500.02, -187500.02, -187500.02, 0.000, 0.000, 0.000, 16:23:20.238
70, 40922.45, 60847.73, 187500.00, 187500.00, 187500.00, -187500.02, -187500.02, -187500.02, 0.000, 0.000, 0.000, 16:23:20.239
71, 40857.96, 60819.00, 187500.00, 187500.00, 187500.00, -187500.02, -187500.02, -187500.02, 0.000, 0.000, 0.000, 16:23:20.239
72, 40709.52, 60723.92, 187500.00, 187500.00, 187500.00, -187500.02, -187500.02, -187500.02, 0.000, 0.000, 0.000, 16:23:20.240
73, 40646.24, 60662.48, 187500.00, 187500.00, 187500.00, -187500.02, -187500.02, -187500.02, 0.000, 0.000, 0.000, 16:23:20.240
74, 40777.40, 60734.74, 187500.00, 187500.00, 187500.00, -187500.02, -187500.02, -187500.02, 0.000, 0.000, 0.000, 16:23:20.241
75, 40899.85, 60828.73, 187500.00, 187500.00, 187500.00, -187500.02, -187500.02, -187500.02, 0.000, 0.000, 0.000, 16:23:20.241
76, 40841.64, 60804.52, 187500.00, 187500.00, 187500.00, -187500.02, -187500.02, -187500.02, 0.008, -0.022, 1.024, 16:23:20.242
77, 40701.61, 60716.70, 187500.00, 187500.00, 187500.00, -187500.02, -187500.02, -187500.02, 0.000, 0.000, 0.000, 16:23:20.242
78, 40657.11, 60669.52, 187500.00, 187500.00, 187500.00, -187500.02, -187500.02, -187500.02, 0.000, 0.000, 0.000, 16:23:20.243
79, 40782.86, 60733.69, 187500.00, 187500.00, 187500.00, -187500.02, -187500.02, -187500.02, 0.000, 0.000, 0.000, 16:23:20.243
80, 40907.36, 60828.28, 187500.00, 187500.00, 187500.00, -187500.02, -187500.02, -187500.02, 0.000, 0.000, 0.000, 16:23:20.244
81, 40850.05, 60809.77, 187500.00, 187500.00, 187500.00, -187500.02, -187500.02, -187500.02, 0.000, 0.000, 0.000, 16:23:20.244
82, 40701.25, 60711.09, 187500.00, 187500.00, 187500.00, -187500.02, -187500.02, -187500.02, 0.000, 0.000, 0.000, 16:23:20.245
83, 40672.71, 60677.99, 187500.00, 187500.00, 187500.00, -187500.02, -187500.02, -187500.02, 0.000, 0.000, 0.000, 16:23:20.245
84, 40799.66, 60746.09, 187500.00, 187500.00, 187500.00, -187500.02, -187500.02, -187500.02, 0.000, 0.000, 0.000, 16:23:20.246
85, 40912.88, 60826.45, 187500.00, 187500.00, 187500.00, -187500.02, -187500.02, -187500.02, 0.000, 0.000, 0.000, 16:23:20.250
86, 40860.46, 60808.88, 187500.00, 187500.00, 187500.00, -187500.02, -187500.02, -187500.02, 0.004, -0.024, 1.024, 16:23:20.251
87, 40695.33, 60702.06, 187500.00, 187500.00, 187500.00, -187500.02, -187500.02, -187500.02, 0.000, 0.000, 0.000, 16:23:20.251
88, 40668.80, 60671.48, 187500.00, 187500.00, 187500.00, -187500.02, -187500.02, -187500.02, 0.000, 0.000, 0.000, 16:23:20.252
89, 40808.94, 60750.25, 187500.00, 187500.00, 187500.00, -187500.02, -187500.02, -187500.02, 0.000, 0.000, 0.000, 16:23:20.252
90, 40914.80, 60829.13, 187500.00, 187500.00, 187500.00, -187500.02, -187500.02, -187500.02, 0.000, 0.000, 0.000, 16:23:20.253
91, 40850.96, 60805.64, 187500.00, 187500.00, 187500.00, -187500.02, -187500.02, -187500.02, 0.000, 0.000, 0.000, 16:23:20.253
92, 40695.35, 60714.18, 187500.00, 187500.00, 187500.00, -187500.02, -187500.02, -187500.02, 0.000, 0.000, 0.000, 16:23:20.254
93, 40668.62, 60688.88, 187500.00, 187500.00, 187500.00, -187500.02, -187500.02, -187500.02, 0.000, 0.000, 0.000, 16:23:20.254
94, 40808.92, 60767.02, 187500.00, 187500.00, 187500.00, -187500.02, -187500.02, -187500.02, 0.000, 0.000, 0.000, 16:23:20.255
95, 40923.27, 60847.05, 187500.00, 187500.00, 187500.00, -187500.02, -187500.02, -187500.02, 0.000, 0.000, 0.000, 16:23:20.255
96, 40857.16, 60815.83, 187500.00, 187500.00, 187500.00, -187500.02, -187500.02, -187500.02, 0.006, -0.022, 1.024, 16:23:20.256
97, 40713.95, 60725.38, 187500.00, 187500.00, 187500.00, -187500.02, -187500.02, -187500.02, 0.000, 0.000, 0.000, 16:23:20.256
98, 40661.38, 60676.29, 187500.00, 187500.00, 187500.00, -187500.02, -187500.02, -187500.02, 0.000, 0.000, 0.000, 16:23:20.257
99, 40789.21, 60748.02, 187500.00, 187500.00, 187500.00, -187500.02, -187500.02, -187500.02, 0.000, 0.000, 0.000, 16:23:20.258
100, 40917.04, 60842.56, 187500.00, 187500.00, 187500.00, -187500.02, -187500.02, -187500.02, 0.000, 0.000, 0.000, 16:23:20.258
101, 40849.55, 60811.03, 187500.00, 187500.00, 187500.00, -187500.02, -187500.02, -187500.02, 0.000, 0.000, 0.000, 16:23:20.259
102, 40693.23, 60704.50, 187500.00, 187500.00, 187500.00, -187500.02, -187500.02, -187500.02, 0.000, 0.000, 0.000, 16:23:20.259
103, 40665.85, 60675.20, 187500.00, 187500.00, 187500.00, -187500.02, -187500.02, -187500.02, 0.000, 0.000, 0.000, 16:23:20.260
104, 40807.46, 60763.73, 187500.00, 187500.00, 187500.00, -187500.02, -187500.02, -187500.02, 0.000, 0.000, 0.000, 16:23:20.260
105, 40906.42, 60836.26, 187500.00, 187500.00, 187500.00, -187500.02, -187500.02, -187500.02, 0.000, 0.000, 0.000, 16:23:20.261
106, 40856.28, 60817.35, 187500.00, 187500.00, 187500.00, -187500.02, -187500.02, -187500.02, 0.010, -0.014, 1.024, 16:23:20.261
107, 40703.17, 60721.62, 187500.00, 187500.00, 187500.00, -187500.02, -187500.02, -187500.02, 0.000, 0.000, 0.000, 16:23:20.262
108, 40657.78, 60673.99, 187500.00, 187500.00, 187500.00, -187500.02, -187500.02, -187500.02, 0.000, 0.000, 0.000, 16:23:20.263
109, 40800.47, 60748.55, 187500.00, 187500.00, 187500.00, -187500.02, -187500.02, -187500.02, 0.000, 0.000, 0.000, 16:23:20.263
110, 40902.82, 60821.98, 187500.00, 187500.00, 187500.00, -187500.02, -187500.02, -187500.02, 0.000, 0.000, 0.000, 16:23:20.264
111, 40846.56, 60809.30, 187500.00, 187500.00, 187500.00, -187500.02, -187500.02, -187500.02, 0.000, 0.000, 0.000, 16:23:20.265
112, 40685.07, 60703.74, 187500.00, 187500.00, 187500.00, -187500.02, -187500.02, -187500.02, 0.000, 0.000, 0.000, 16:23:20.266
113, 40651.74, 60666.19, 187500.00, 187500.00, 187500.00, -187500.02, -187500.02, -187500.02, 0.000, 0.000, 0.000, 16:23:20.266
114, 40794.93, 60749.43, 187500.00, 187500.00, 187500.00, -187500.02, -187500.02, -187500.02, 0.000, 0.000, 0.000, 16:23:20.267
115, 40908.86, 60836.21, 187500.00, 187500.00, 187500.00, -187500.02, -187500.02, -187500.02, 0.000, 0.000, 0.000, 16:23:20.267
116, 40843.92, 60808.01, 187500.00, 187500.00, 187500.00, -187500.02, -187500.02, -187500.02, 0.010, -0.016, 1.028, 16:23:20.268
117, 40690.07, 60706.02, 187500.00, 187500.00, 187500.00, -187500.02, -187500.02, -187500.02, 0.000, 0.000, 0.000, 16:23:20.268
118, 40651.99, 60665.14, 187500.00, 187500.00, 187500.00, -187500.02, -187500.02, -187500.02, 0.000, 0.000, 0.000, 16:23:20.269
119, 40799.51, 60749.94, 187500.00, 187500.00, 187500.00, -187500.02, -187500.02, -187500.02, 0.000, 0.000, 0.000, 16:23:20.270
120, 40923.83, 60840.06, 187500.00, 187500.00, 187500.00, -187500.02, -187500.02, -187500.02, 0.000, 0.000, 0.000, 16:23:20.675
121, 40848.88, 60802.89, 187500.00, 187500.00, 187500.00, -187500.02, -187500.02, -187500.02, 0.000, 0.000, 0.000, 16:23:20.676
122, 40692.80, 60702.48, 187500.00, 187500.00, 187500.00, -187500.02, -187500.02, -187500.02, 0.000, 0.000, 0.000, 16:23:20.677
123, 40653.31, 60663.95, 187500.00, 187500.00, 187500.00, -187500.02, -187500.02, -187500.02, 0.000, 0.000, 0.000, 16:23:20.678
124, 40792.85, 60743.01, 187500.00, 187500.00, 187500.00, -187500.02, -187500.02, -187500.02, 0.000, 0.000, 0.000, 16:23:20.679
125, 40899.62, 60818.09, 187500.00, 187500.00, 187500.00, -187500.02, -187500.02, -187500.02, 0.000, 0.000, 0.000, 16:23:20.679
126, 40842.27, 60797.82, 187500.00, 187500.00, 187500.00, -187500.02, -187500.02, -187500.02, 0.008, -0.010, 1.022, 16:23:20.680
127, 40690.52, 60704.16, 187500.00, 187500.00, 187500.00, -187500.02, -187500.02, -187500.02, 0.000, 0.000, 0.000, 16:23:20.680
128, 40643.98, 60659.13, 187500.00, 187500.00, 187500.00, -187500.02, -187500.02, -187500.02, 0.000, 0.000, 0.000, 16:23:20.681
129, 40790.73, 60742.61, 187500.00, 187500.00, 187500.00, -187500.02, -187500.02, -187500.02, 0.000, 0.000, 0.000, 16:23:20.682
130, 40907.22, 60827.43, 187500.00, 187500.00, 187500.00, -187500.02, -187500.02, -187500.02, 0.000, 0.000, 0.000, 16:23:20.683
131, 40847.45, 60805.64, 187500.00, 187500.00, 187500.00, -187500.02, -187500.02, -187500.02, 0.000, 0.000, 0.000, 16:23:20.684
132, 40697.88, 60711.23, 187500.00, 187500.00, 187500.00, -187500.02, -187500.02, -187500.02, 0.000, 0.000, 0.000, 16:23:20.685
133, 40662.92, 60679.51, 187500.00, 187500.00, 187500.00, -187500.02, -187500.02, -187500.02, 0.000, 0.000, 0.000, 16:23:20.685
134, 40785.74, 60747.41, 187500.00, 187500.00, 187500.00, -187500.02, -187500.02, -187500.02, 0.000, 0.000, 0.000, 16:23:20.686
135, 40912.23, 60838.63, 187500.00, 187500.00, 187500.00, -187500.02, -187500.02, -187500.02, 0.000, 0.000, 0.000, 16:23:20.687
136, 40859.12, 60820.05, 187500.00, 187500.00, 187500.00, -187500.02, -187500.02, -187500.02, 0.004, -0.014, 1.028, 16:23:20.687
137, 40700.40, 60721.15, 187500.00, 187500.00, 187500.00, -187500.02, -187500.02, -187500.02, 0.000, 0.000, 0.000, 16:23:20.688
138, 40641.08, 60665.27, 187500.00, 187500.00, 187500.00, -187500.02, -187500.02, -187500.02, 0.000, 0.000, 0.000, 16:23:20.689
139, 40774.97, 60740.30, 187500.00, 187500.00, 187500.00, -187500.02, -187500.02, -187500.02, 0.000, 0.000, 0.000, 16:23:20.689
140, 40901.19, 60831.30, 187500.00, 187500.00, 187500.00, -187500.02, -187500.02, -187500.02, 0.000, 0.000, 0.000, 16:23:20.690
141, 40835.45, 60803.74, 187500.00, 187500.00, 187500.00, -187500.02, -187500.02, -187500.02, 0.000, 0.000, 0.000, 16:23:20.691
142, 40688.58, 60711.40, 187500.00, 187500.00, 187500.00, -187500.02, -187500.02, -187500.02, 0.000, 0.000, 0.000, 16:23:20.691
143, 40656.97, 60675.93, 187500.00, 187500.00, 187500.00, -187500.02, -187500.02, -187500.02, 0.000, 0.000, 0.000, 16:23:20.692
144, 40787.84, 60746.03, 187500.00, 187500.00, 187500.00, -187500.02, -187500.02, -187500.02, 0.000, 0.000, 0.000, 16:23:20.693
145, 40897.97, 60823.54, 187500.00, 187500.00, 187500.00, -187500.02, -187500.02, -187500.02, 0.004, -0.016, 1.026, 16:23:20.693
146, 40834.85, 60797.77, 187500.00, 187500.00, 187500.00, -187500.02, -187500.02, -187500.02, 0.000, 0.000, 0.000, 16:23:20.694
147, 40686.77, 60701.37, 187500.00, 187500.00, 187500.00, -187500.02, -187500.02, -187500.02, 0.000, 0.000, 0.000, 16:23:20.695
148, 40623.78, 60638.52, 187500.00, 187500.00, 187500.00, -187500.02, -187500.02, -187500.02, 0.000, 0.000, 0.000, 16:23:20.695
149, 40766.32, 60720.34, 187500.00, 187500.00, 187500.00, -187500.02, -187500.02, -187500.02, 0.000, 0.000, 0.000, 16:23:20.696
150, 40897.28, 60818.71, 187500.00, 187500.00, 187500.00, -187500.02, -187500.02, -187500.02, 0.000, 0.000, 0.000, 16:23:20.697
151, 40842.69, 60801.62, 187500.00, 187500.00, 187500.00, -187500.02, -187500.02, -187500.02, 0.000, 0.000, 0.000, 16:23:20.697
152, 40673.25, 60690.17, 187500.00, 187500.00, 187500.00, -187500.02, -187500.02, -187500.02, 0.000, 0.000, 0.000, 16:23:20.698
153, 40654.07, 60675.57, 187500.00, 187500.00, 187500.00, -187500.02, -187500.02, -187500.02, 0.000, 0.000, 0.000, 16:23:20.698
154, 40787.30, 60756.09, 187500.00, 187500.00, 187500.00, -187500.02, -187500.02, -187500.02, 0.000, 0.000, 0.000, 16:23:20.699
155, 40887.80, 60825.22, 187500.00, 187500.00, 187500.00, -187500.02, -187500.02, -187500.02, 0.004, -0.018, 1.028, 16:23:20.700
156, 40832.43, 60799.78, 187500.00, 187500.00, 187500.00, -187500.02, -187500.02, -187500.02, 0.000, 0.000, 0.000, 16:23:20.700
157, 40687.21, 60705.59, 187500.00, 187500.00, 187500.00, -187500.02, -187500.02, -187500.02, 0.000, 0.000, 0.000, 16:23:20.701
158, 40654.49, 60670.14, 187500.00, 187500.00, 187500.00, -187500.02, -187500.02, -187500.02, 0.000, 0.000, 0.000, 16:23:20.702
159, 40796.58, 60750.68, 187500.00, 187500.00, 187500.00, -187500.02, -187500.02, -187500.02, 0.000, 0.000, 0.000, 16:23:20.702
160, 40920.75, 60844.48, 187500.00, 187500.00, 187500.00, -187500.02, -187500.02, -187500.02, 0.000, 0.000, 0.000, 16:23:20.703
161, 40854.88, 60813.04, 187500.00, 187500.00, 187500.00, -187500.02, -187500.02, -187500.02, 0.000, 0.000, 0.000, 16:23:20.703
162, 40689.07, 60702.17, 187500.00, 187500.00, 187500.00, -187500.02, -187500.02, -187500.02, 0.000, 0.000, 0.000, 16:23:20.704
163, 40634.82, 60649.89, 187500.00, 187500.00, 187500.00, -187500.02, -187500.02, -187500.02, 0.000, 0.000, 0.000, 16:23:20.704
164, 40773.09, 60729.44, 187500.00, 187500.00, 187500.00, -187500.02, -187500.02, -187500.02, 0.000, 0.000, 0.000, 16:23:20.705
165, 40887.57, 60814.16, 187500.00, 187500.00, 187500.00, -187500.02, -187500.02, -187500.02, 0.006, -0.022, 1.030, 16:23:20.706
166, 40842.11, 60803.65, 187500.00, 187500.00, 187500.00, -187500.02, -187500.02, -187500.02, 0.000, 0.000, 0.000, 16:23:20.706
167, 40707.49, 60719.50, 187500.00, 187500.00, 187500.00, -187500.02, -187500.02, -187500.02, 0.000, 0.000, 0.000, 16:23:20.707
168, 40657.06, 60668.36, 187500.00, 187500.00, 187500.00, -187500.02, -187500.02, -187500.02, 0.000, 0.000, 0.000, 16:23:20.708
169, 40772.82, 60723.34, 187500.00, 187500.00, 187500.00, -187500.02, -187500.02, -187500.02, 0.000, 0.000, 0.000, 16:23:20.708
170, 40886.35, 60799.07, 187500.00, 187500.00, 187500.00, -187500.02, -187500.02, -187500.02, 0.000, 0.000, 0.000, 16:23:20.709
171, 40845.40, 60788.70, 187500.00, 187500.00, 187500.00, -187500.02, -187500.02, -187500.02, 0.000, 0.000, 0.000, 16:23:20.710
172, 40701.14, 60699.98, 187500.00, 187500.00, 187500.00, -187500.02, -187500.02, -187500.02, 0.000, 0.000, 0.000, 16:23:20.711
173, 40655.99, 60656.08, 187500.00, 187500.00, 187500.00, -187500.02, -187500.02, -187500.02, 0.000, 0.000, 0.000, 16:23:20.712
174, 40800.56, 60739.95, 187500.00, 187500.00, 187500.00, -187500.02, -187500.02, -187500.02, 0.000, 0.000, 0.000, 16:23:20.712
175, 40925.44, 60833.27, 187500.00, 187500.00, 187500.00, -187500.02, -187500.02, -187500.02, 0.006, -0.020, 1.022, 16:23:20.714
176, 40860.69, 60801.70, 187500.00, 187500.00, 187500.00, -187500.02, -187500.02, -187500.02, 0.000, 0.000, 0.000, 16:23:20.715
177, 40713.72, 60711.71, 187500.00, 187500.00, 187500.00, -187500.02, -187500.02, -187500.02, 0.000, 0.000, 0.000, 16:23:20.716
178, 40668.04, 60668.69, 187500.00, 187500.00, 187500.00, -187500.02, -187500.02, -187500.02, 0.000, 0.000, 0.000, 16:23:20.717
179, 40800.43, 60743.46, 187500.00, 187500.00, 187500.00, -187500.02, -187500.02, -187500.02, 0.000, 0.000, 0.000, 16:23:20.718
180, 40914.71, 60825.49, 187500.00, 187500.00, 187500.00, -187500.02, -187500.02, -187500.02, 0.000, 0.000, 0.000, 16:23:20.718
181, 40865.87, 60806.98, 187500.00, 187500.00, 187500.00, -187500.02, -187500.02, -187500.02, 0.000, 0.000, 0.000, 16:23:20.719
182, 40720.36, 60709.32, 187500.00, 187500.00, 187500.00, -187500.02, -187500.02, -187500.02, 0.000, 0.000, 0.000, 16:23:20.720
183, 40659.34, 60653.22, 187500.00, 187500.00, 187500.00, -187500.02, -187500.02, -187500.02, 0.000, 0.000, 0.000, 16:23:20.721
184, 40792.40, 60739.93, 187500.00, 187500.00, 187500.00, -187500.02, -187500.02, -187500.02, 0.000, 0.000, 0.000, 16:23:20.722
185, 40924.61, 60841.38, 187500.00, 187500.00, 187500.00, -187500.02, -187500.02, -187500.02, 0.004, -0.022, 1.030, 16:23:20.723
186, 40862.03, 60811.70, 187500.00, 187500.00, 187500.00, -187500.02, -187500.02, -187500.02, 0.000, 0.000, 0.000, 16:23:20.724
187, 40704.85, 60712.63, 187500.00, 187500.00, 187500.00, -187500.02, -187500.02, -187500.02, 0.000, 0.000, 0.000, 16:23:20.725
188, 40672.82, 60681.14, 187500.00, 187500.00, 187500.00, -187500.02, -187500.02, -187500.02, 0.000, 0.000, 0.000, 16:23:20.726
189, 40791.38, 60736.66, 187500.00, 187500.00, 187500.00, -187500.02, -187500.02, -187500.02, 0.000, 0.000, 0.000, 16:23:20.727
190, 40907.89, 60813.26, 187500.00, 187500.00, 187500.00, -187500.02, -187500.02, -187500.02, 0.000, 0.000, 0.000, 16:23:20.727
191, 40852.41, 60789.77, 187500.00, 187500.00, 187500.00, -187500.02, -187500.02, -187500.02, 0.000, 0.000, 0.000, 16:23:20.728
192, 40691.26, 60692.52, 187500.00, 187500.00, 187500.00, -187500.02, -187500.02, -187500.02, 0.000, 0.000, 0.000, 16:23:20.733
193, 40650.31, 60656.08, 187500.00, 187500.00, 187500.00, -187500.02, -187500.02, -187500.02, 0.000, 0.000, 0.000, 16:23:20.734
194, 40774.70, 60721.62, 187500.00, 187500.00, 187500.00, -187500.02, -187500.02, -187500.02, 0.000, 0.000, 0.000, 16:23:20.735
195, 40911.69, 60822.74, 187500.00, 187500.00, 187500.00, -187500.02, -187500.02, -187500.02, 0.006, -0.020, 1.026, 16:23:20.735
196, 40872.09, 60814.58, 187500.00, 187500.00, 187500.00, -187500.02, -187500.02, -187500.02, 0.000, 0.000, 0.000, 16:23:20.736
197, 40726.51, 60726.36, 187500.00, 187500.00, 187500.00, -187500.02, -187500.02, -187500.02, 0.000, 0.000, 0.000, 16:23:20.737
198, 40676.78, 60679.33, 187500.00, 187500.00, 187500.00, -187500.02, -187500.02, -187500.02, 0.000, 0.000, 0.000, 16:23:20.738
199, 40798.08, 60742.47, 187500.00, 187500.00, 187500.00, -187500.02, -187500.02, -187500.02, 0.000, 0.000, 0.000, 16:23:20.739
200, 40928.93, 60838.23, 187500.00, 187500.00, 187500.00, -187500.02, -187500.02, -187500.02, 0.000, 0.000, 0.000, 16:23:20.745
201, 40876.22, 60819.61, 187500.00, 187500.00, 187500.00, -187500.02, -187500.02, -187500.02, 0.000, 0.000, 0.000, 16:23:20.745
202, 40717.75, 60716.88, 187500.00, 187500.00, 187500.00, -187500.02, -187500.02, -187500.02, 0.000, 0.000, 0.000, 16:23:20.746
203, 40662.70, 60661.52, 187500.00, 187500.00, 187500.00, -187500.02, -187500.02, -187500.02, 0.000, 0.000, 0.000, 16:23:20.747
204, 40809.01, 60748.82, 187500.00, 187500.00, 187500.00, -187500.02, -187500.02, -187500.02, 0.000, 0.000, 0.000, 16:23:20.748
205, 40932.01, 60836.51, 187500.00, 187500.00, 187500.00, -187500.02, -187500.02, -187500.02, 0.010, -0.024, 1.028, 16:23:20.750
206, 40885.34, 60822.52, 187500.00, 187500.00, 187500.00, -187500.02, -187500.02, -187500.02, 0.000, 0.000, 0.000, 16:23:20.753
207, 40718.04, 60714.09, 187500.00, 187500.00, 187500.00, -187500.02, -187500.02, -187500.02, 0.000, 0.000, 0.000, 16:23:20.754
208, 40663.23, 60665.05, 187500.00, 187500.00, 187500.00, -187500.02, -187500.02, -187500.02, 0.000, 0.000, 0.000, 16:23:20.755
209, 40794.66, 60737.38, 187500.00, 187500.00, 187500.00, -187500.02, -187500.02, -187500.02, 0.000, 0.000, 0.000, 16:23:20.756
210, 40912.34, 60818.80, 187500.00, 187500.00, 187500.00, -187500.02, -187500.02, -187500.02, 0.000, 0.000, 0.000, 16:23:20.756
211, 40873.00, 60810.69, 187500.00, 187500.00, 187500.00, -187500.02, -187500.02, -187500.02, 0.000, 0.000, 0.000, 16:23:20.757
212, 40716.20, 60719.96, 187500.00, 187500.00, 187500.00, -187500.02, -187500.02, -187500.02, 0.000, 0.000, 0.000, 16:23:20.757
213, 40654.11, 60661.96, 187500.00, 187500.00, 187500.00, -187500.02, -187500.02, -187500.02, 0.000, 0.000, 0.000, 16:23:20.758
214, 40783.19, 60732.57, 187500.00, 187500.00, 187500.00, -187500.02, -187500.02, -187500.02, 0.000, 0.000, 0.000, 16:23:20.758
215, 40912.30, 60823.83, 187500.00, 187500.00, 187500.00, -187500.02, -187500.02, -187500.02, 0.010, -0.024, 1.028, 16:23:20.759
216, 40868.69, 60813.13, 187500.00, 187500.00, 187500.00, -187500.02, -187500.02, -187500.02, 0.000, 0.000, 0.000, 16:23:20.759
217, 40716.72, 60716.88, 187500.00, 187500.00, 187500.00, -187500.02, -187500.02, -187500.02, 0.000, 0.000, 0.000, 16:23:20.760
218, 40673.85, 60676.40, 187500.00, 187500.00, 187500.00, -187500.02, -187500.02, -187500.02, 0.000, 0.000, 0.000, 16:23:20.760
219, 40808.41, 60754.16, 187500.00, 187500.00, 187500.00, -187500.02, -187500.02, -187500.02, 0.000, 0.000, 0.000, 16:23:20.761
220, 40920.30, 60833.58, 187500.00, 187500.00, 187500.00, -187500.02, -187500.02, -187500.02, 0.000, 0.000, 0.000, 16:23:20.762
221, 40876.13, 60827.30, 187500.00, 187500.00, 187500.00, -187500.02, -187500.02, -187500.02, 0.000, 0.000, 0.000, 16:23:20.762
222, 40709.92, 60724.79, 187500.00, 187500.00, 187500.00, -187500.02, -187500.02, -187500.02, 0.000, 0.000, 0.000, 16:23:20.763
223, 40662.63, 60677.52, 187500.00, 187500.00, 187500.00, -187500.02, -187500.02, -187500.02, 0.000, 0.000, 0.000, 16:23:20.764
224, 40789.99, 60741.96, 187500.00, 187500.00, 187500.00, -187500.02, -187500.02, -187500.02, 0.000, 0.000, 0.000, 16:23:20.765
225, 40906.98, 60827.23, 187500.00, 187500.00, 187500.00, -187500.02, -187500.02, -187500.02, 0.008, -0.024, 1.020, 16:23:20.765
226, 40857.27, 60808.79, 187500.00, 187500.00, 187500.00, -187500.02, -187500.02, -187500.02, 0.000, 0.000, 0.000, 16:23:20.766
227, 40699.82, 60710.42, 187500.00, 187500.00, 187500.00, -187500.02, -187500.02, -187500.02, 0.000, 0.000, 0.000, 16:23:20.767
228, 40656.93, 60672.71, 187500.00, 187500.00, 187500.00, -187500.02, -187500.02, -187500.02, 0.000, 0.000, 0.000, 16:23:20.767
229, 40799.06, 60759.32, 187500.00, 187500.00, 187500.00, -187500.02, -187500.02, -187500.02, 0.000, 0.000, 0.000, 16:23:20.768
230, 40917.28, 60843.66, 187500.00, 187500.00, 187500.00, -187500.02, -187500.02, -187500.02, 0.000, 0.000, 0.000, 16:23:20.769
231, 40870.12, 60830.20, 187500.00, 187500.00, 187500.00, -187500.02, -187500.02, -187500.02, 0.000, 0.000, 0.000, 16:23:20.769
232, 40723.63, 60737.36, 187500.00, 187500.00, 187500.00, -187500.02, -187500.02, -187500.02, 0.000, 0.000, 0.000, 16:23:20.770
233, 40664.30, 60686.17, 187500.00, 187500.00, 187500.00, -187500.02, -187500.02, -187500.02, 0.000, 0.000, 0.000, 16:23:20.771
234, 40794.50, 60764.04, 187500.00, 187500.00, 187500.00, -187500.02, -187500.02, -187500.02, 0.000, 0.000, 0.000, 16:23:20.771
235, 40931.09, 60861.85, 187500.00, 187500.00, 187500.00, -187500.02, -187500.02, -187500.02, 0.002, -0.020, 1.022, 16:23:20.772
236, 40883.33, 60845.02, 187500.00, 187500.00, 187500.00, -187500.02, -187500.02, -187500.02, 0.000, 0.000, 0.000, 16:23:20.772
237, 40716.11, 60735.59, 187500.00, 187500.00, 187500.00, -187500.02, -187500.02, -187500.02, 0.000, 0.000, 0.000, 16:23:20.773
238, 40660.50, 60685.74, 187500.00, 187500.00, 187500.00, -187500.02, -187500.02, -187500.02, 0.000, 0.000, 0.000, 16:23:20.773
239, 40809.12, 60776.13, 187500.00, 187500.00, 187500.00, -187500.02, -187500.02, -187500.02, 0.000, 0.000, 0.000, 16:23:20.774
240, 40941.31, 60866.05, 187500.00, 187500.00, 187500.00, -187500.02, -187500.02, -187500.02, 0.000, 0.000, 0.000, 16:23:21.157
241, 40884.54, 60842.63, 187500.00, 187500.00, 187500.00, -187500.02, -187500.02, -187500.02, 0.000, 0.000, 0.000, 16:23:21.158
242, 40719.07, 60737.58, 187500.00, 187500.00, 187500.00, -187500.02, -187500.02, -187500.02, 0.000, 0.000, 0.000, 16:23:21.159
243, 40656.08, 60680.65, 187500.00, 187500.00, 187500.00, -187500.02, -187500.02, -187500.02, 0.000, 0.000, 0.000, 16:23:21.160
244, 40797.07, 60767.55, 187500.00, 187500.00, 187500.00, -187500.02, -187500.02, -187500.02, 0.000, 0.000, 0.000, 16:23:21.161
245, 40916.83, 60850.70, 187500.00, 187500.00, 187500.00, -187500.02, -187500.02, -187500.02, 0.006, -0.020, 1.026, 16:23:21.161
246, 40878.41, 60839.57, 187500.00, 187500.00, 187500.00, -187500.02, -187500.02, -187500.02, 0.000, 0.000, 0.000, 16:23:21.162
247, 40719.36, 60736.41, 187500.00, 187500.00, 187500.00, -187500.02, -187500.02, -187500.02, 0.000, 0.000, 0.000, 16:23:21.163
248, 40666.88, 60690.21, 187500.00, 187500.00, 187500.00, -187500.02, -187500.02, -187500.02, 0.000, 0.000, 0.000, 16:23:21.164
249, 40798.44, 60764.71, 187500.00, 187500.00, 187500.00, -187500.02, -187500.02, -187500.02, 0.000, 0.000, 0.000, 16:23:21.165
250, 40925.35, 60851.68, 187500.00, 187500.00, 187500.00, -187500.02, -187500.02, -187500.02, 0.000, 0.000, 0.000, 16:23:21.166
251, 40881.47, 60837.60, 187500.00, 187500.00, 187500.00, -187500.02, -187500.02, -187500.02, 0.000, 0.000, 0.000, 16:23:21.166
252, 40722.22, 60740.37, 187500.00, 187500.00, 187500.00, -187500.02, -187500.02, -187500.02, 0.000, 0.000, 0.000, 16:23:21.167
253, 40654.60, 60675.53, 187500.00, 187500.00, 187500.00, -187500.02, -187500.02, -187500.02, 0.000, 0.000, 0.000, 16:23:21.168
254, 40777.43, 60738.52, 187500.00, 187500.00, 187500.00, -187500.02, -187500.02, -187500.02, 0.004, -0.018, 1.026, 16:23:21.169
255, 40906.26, 60830.38, 187500.00, 187500.00, 187500.00, -187500.02, -187500.02, -187500.02, 0.000, 0.000, 0.000, 16:23:21.170
0, 40875.82, 60832.17, 187500.00, 187500.00, 187500.00, -187500.02, -187500.02, -187500.02, 0.000, 0.000, 0.000, 16:23:21.171
1, 40738.24, 60753.43, 187500.00, 187500.00, 187500.00, -187500.02, -187500.02, -187500.02, 0.000, 0.000, 0.000, 16:23:21.171
2, 40658.07, 60680.65, 187500.00, 187500.00, 187500.00, -187500.02, -187500.02, -187500.02, 0.000, 0.000, 0.000, 16:23:21.172
3, 40781.63, 60746.99, 187500.00, 187500.00, 187500.00, -187500.02, -187500.02, -187500.02, 0.000, 0.000, 0.000, 16:23:21.173
4, 40915.61, 60841.29, 187500.00, 187500.00, 187500.00, -187500.02, -187500.02, -187500.02, 0.000, 0.000, 0.000, 16:23:21.174
5, 40900.29, 60855.06, 187500.00, 187500.00, 187500.00, -187500.02, -187500.02, -187500.02, 0.000, 0.000, 0.000, 16:23:21.174
6, 40737.10, 60751.55, 187500.00, 187500.00, 187500.00, -187500.02, -187500.02, -187500.02, 0.000, 0.000, 0.000, 16:23:21.175
7, 40656.95, 60680.63, 187500.00, 187500.00, 187500.00, -187500.02, -187500.02, -187500.02, 0.000, 0.000, 0.000, 16:23:21.176
8, 40774.65, 60743.01, 187500.00, 187500.00, 187500.00, -187500.02, -187500.02, -187500.02, 0.004, -0.016, 1.026, 16:23:21.176
9, 40916.27, 60842.43, 187500.00, 187500.00, 187500.00, -187500.02, -187500.02, -187500.02, 0.000, 0.000, 0.000, 16:23:21.177
10, 40881.81, 60835.84, 187500.00, 187500.00, 187500.00, -187500.02, -187500.02, -187500.02, 0.000, 0.000, 0.000, 16:23:21.177
11, 40726.89, 60736.71, 187500.00, 187500.00, 187500.00, -187500.02, -187500.02, -187500.02, 0.000, 0.000, 0.000, 16:23:21.178
12, 40649.73, 60667.15, 187500.00, 187500.00, 187500.00, -187500.02, -187500.02, -187500.02, 0.000, 0.000, 0.000, 16:23:21.179
13, 40758.54, 60723.83, 187500.00, 187500.00, 187500.00, -187500.02, -187500.02, -187500.02, 0.000, 0.000, 0.000, 16:23:21.181
14, 40905.12, 60833.54, 187500.00, 187500.00, 187500.00, -187500.02, -187500.02, -187500.02, 0.000, 0.000, 0.000, 16:23:21.184
15, 40873.80, 60830.72, 187500.00, 187500.00, 187500.00, -187500.02, -187500.02, -187500.02, 0.000, 0.000, 0.000, 16:23:21.185
16, 40716.36, 60728.48, 187500.00, 187500.00, 187500.00, -187500.02, -187500.02, -187500.02, 0.000, 0.000, 0.000, 16:23:21.186
17, 40658.43, 60677.63, 187500.00, 187500.00, 187500.00, -187500.02, -187500.02, -187500.02, 0.000, 0.000, 0.000, 16:23:21.187
18, 40782.39, 60742.52, 187500.00, 187500.00, 187500.00, -187500.02, -187500.02, -187500.02, 0.000, -0.022, 1.028, 16:23:21.187
19, 40920.86, 60843.86, 187500.00, 187500.00, 187500.00, -187500.02, -187500.02, -187500.02, 0.000, 0.000, 0.000, 16:23:21.188
20, 40878.01, 60835.30, 187500.00, 187500.00, 187500.00, -187500.02, -187500.02, -187500.02, 0.000, 0.000, 0.000, 16:23:21.189
21, 40711.73, 60724.79, 187500.00, 187500.00, 187500.00, -187500.02, -187500.02, -187500.02, 0.000, 0.000, 0.000, 16:23:21.190
22, 40666.72, 60684.40, 187500.00, 187500.00, 187500.00, -187500.02, -187500.02, -187500.02, 0.000, 0.000, 0.000, 16:23:21.190
23, 40801.41, 60763.75, 187500.00, 187500.00, 187500.00, -187500.02, -187500.02, -187500.02, 0.000, 0.000, 0.000, 16:23:21.191
24, 40927.47, 60853.74, 187500.00, 187500.00, 187500.00, -187500.02, -187500.02, -187500.02, 0.000, 0.000, 0.000, 16:23:21.191
25, 40866.77, 60822.18, 187500.00, 187500.00, 187500.00, -187500.02, -187500.02, -187500.02, 0.000, 0.000, 0.000, 16:23:21.192
26, 40707.38, 60724.39, 187500.00, 187500.00, 187500.00, -187500.02, -187500.02, -187500.02, 0.000, 0.000, 0.000, 16:23:21.192
27, 40657.78, 60680.56, 187500.00, 187500.00, 187500.00, -187500.02, -187500.02, -187500.02, 0.000, 0.000, 0.000, 16:23:21.193
28, 40781.45, 60749.85, 187500.00, 187500.00, 187500.00, -187500.02, -187500.02, -187500.02, 0.004, -0.022, 1.024, 16:23:21.194
29, 40901.39, 60835.28, 187500.00, 187500.00, 187500.00, -187500.02, -187500.02, -187500.02, 0.000, 0.000, 0.000, 16:23:21.194
30, 40866.45, 60828.97, 187500.00, 187500.00, 187500.00, -187500.02, -187500.02, -187500.02, 0.000, 0.000, 0.000, 16:23:21.195
31, 40697.23, 60715.02, 187500.00, 187500.00, 187500.00, -187500.02, -187500.02, -187500.02, 0.000, 0.000, 0.000, 16:23:21.195
32, 40647.07, 60671.08, 187500.00, 187500.00, 187500.00, -187500.02, -187500.02, -187500.02, 0.000, 0.000, 0.000, 16:23:21.196
33, 40793.52, 60760.04, 187500.00, 187500.00, 187500.00, -187500.02, -187500.02, -187500.02, 0.000, 0.000, 0.000, 16:23:21.196
34, 40919.83, 60851.08, 187500.00, 187500.00, 187500.00, -187500.02, -187500.02, -187500.02, 0.000, 0.000, 0.000, 16:23:21.197
35, 40856.98, 60814.82, 187500.00, 187500.00, 187500.00, -187500.02, -187500.02, -187500.02, 0.000, 0.000, 0.000, 16:23:21.198
36, 40700.54, 60712.77, 187500.00, 187500.00, 187500.00, -187500.02, -187500.02, -187500.02, 0.000, 0.000, 0.000, 16:23:21.198
37, 40643.98, 60665.72, 187500.00, 187500.00, 187500.00, -187500.02, -187500.02, -187500.02, 0.000, 0.000, 0.000, 16:23:21.199
38, 40785.96, 60749.83, 187500.00, 187500.00, 187500.00, -187500.02, -187500.02, -187500.02, 0.002, -0.018, 1.028, 16:23:21.199
39, 40924.57, 60847.68, 187500.00, 187500.00, 187500.00, -187500.02, -187500.02, -187500.02, 0.000, 0.000, 0.000, 16:23:21.200
40, 40871.91, 60825.55, 187500.00, 187500.00, 187500.00, -187500.02, -187500.02, -187500.02, 0.000, 0.000, 0.000, 16:23:21.201
41, 40719.91, 60728.17, 187500.00, 187500.00, 187500.00, -187500.02, -187500.02, -187500.02, 0.000, 0.000, 0.000, 16:23:21.201
42, 40673.29, 60688.36, 187500.00, 187500.00, 187500.00, -187500.02, -187500.02, -187500.02, 0.000, 0.000, 0.000, 16:23:21.202
43, 40793.16, 60755.30, 187500.00, 187500.00, 187500.00, -187500.02, -187500.02, -187500.02, 0.000, 0.000, 0.000, 16:23:21.202
44, 40917.84, 60844.89, 187500.00, 187500.00, 187500.00, -187500.02, -187500.02, -187500.02, 0.000, 0.000, 0.000, 16:23:21.203
45, 40876.82, 60831.81, 187500.00, 187500.00, 187500.00, -187500.02, -187500.02, -187500.02, 0.000, 0.000, 0.000, 16:23:21.203
46, 40725.97, 60734.58, 187500.00, 187500.00, 187500.00, -187500.02, -187500.02, -187500.02, 0.000, 0.000, 0.000, 16:23:21.204
47, 40649.86, 60669.41, 187500.00, 187500.00, 187500.00, -187500.02, -187500.02, -187500.02, 0.000, 0.000, 0.000, 16:23:21.204
48, 40776.98, 60742.72, 187500.00, 187500.00, 187500.00, -187500.02, -187500.02, -187500.02, 0.004, -0.018, 1.034, 16:23:21.205
49, 40907.69, 60835.43, 187500.00, 187500.00, 187500.00, -187500.02, -187500.02, -187500.02, 0.000, 0.000, 0.000, 16:23:21.205
50, 40872.24, 60825.15, 187500.00, 187500.00, 187500.00, -187500.02, -187500.02, -187500.02, 0.000, 0.000, 0.000, 16:23:21.206
51, 40706.23, 60714.00, 187500.00, 187500.00, 187500.00, -187500.02, -187500.02, -187500.02, 0.000, 0.000, 0.000, 16:23:21.206
52, 40654.87, 60674.95, 187500.00, 187500.00, 187500.00, -187500.02, -187500.02, -187500.02, 0.000, 0.000, 0.000, 16:23:21.207
53, 40778.01, 60745.63, 187500.00, 187500.00, 187500.00, -187500.02, -187500.02, -187500.02, 0.000, 0.000, 0.000, 16:23:21.208
54, 40917.97, 60849.23, 187500.00, 187500.00, 187500.00, -187500.02, -187500.02, -187500.02, 0.000, 0.000, 0.000, 16:23:21.208
55, 40883.15, 60848.73, 187500.00, 187500.00, 187500.00, -187500.02, -187500.02, -187500.02, 0.000, 0.000, 0.000, 16:23:21.209
56, 40737.39, 60756.46, 187500.00, 187500.00, 187500.00, -187500.02, -187500.02, -187500.02, 0.000, 0.000, 0.000, 16:23:21.209
57, 40667.72, 60689.48, 187500.00, 187500.00, 187500.00, -187500.02, -187500.02, -187500.02, 0.000, 0.000, 0.000, 16:23:21.212
58, 40791.57, 60753.11, 187500.00, 187500.00, 187500.00, -187500.02, -187500.02, -187500.02, 0.006, -0.014, 1.032, 16:23:21.213
59, 40921.15, 60844.98, 187500.00, 187500.00, 187500.00, -187500.02, -187500.02, -187500.02, 0.000, 0.000, 0.000, 16:23:21.214
60, 40882.59, 60838.96, 187500.00, 187500.00, 187500.00, -187500.02, -187500.02, -187500.02, 0.000, 0.000, 0.000, 16:23:21.214
61, 40737.86, 60753.49, 187500.00, 187500.00, 187500.00, -187500.02, -187500.02, -187500.02, 0.000, 0.000, 0.000, 16:23:21.215
62, 40674.27, 60703.71, 187500.00, 187500.00, 187500.00, -187500.02, -187500.02, -187500.02, 0.000, 0.000, 0.000, 16:23:21.216
63, 40802.75, 60778.50, 187500.00, 187500.00, 187500.00, -187500.02, -187500.02, -187500.02, 0.000, 0.000, 0.000, 16:23:21.216
64, 40926.98, 60858.93, 187500.00, 187500.00, 187500.00, -187500.02, -187500.02, -187500.02, 0.000, 0.000, 0.000, 16:23:21.217
65, 40876.96, 60833.96, 187500.00, 187500.00, 187500.00, -187500.02, -187500.02, -187500.02, 0.000, 0.000, 0.000, 16:23:21.218
66, 40726.75, 60737.71, 187500.00, 187500.00, 187500.00, -187500.02, -187500.02, -187500.02, 0.000, 0.000, 0.000, 16:23:21.219
67, 40669.85, 60689.01, 187500.00, 187500.00, 187500.00, -187500.02, -187500.02, -187500.02, 0.000, 0.000, 0.000, 16:23:21.219
68, 40785.81, 60751.37, 187500.00, 187500.00, 187500.00, -187500.02, -187500.02, -187500.02, 0.010, -0.020, 1.026, 16:23:21.220
69, 40903.09, 60836.51, 187500.00, 187500.00, 187500.00, -187500.02, -187500.02, -187500.02, 0.000, 0.000, 0.000, 16:23:21.221
70, 40878.57, 60842.90, 187500.00, 187500.00, 187500.00, -187500.02, -187500.02, -187500.02, 0.000, 0.000, 0.000, 16:23:21.221
71, 40727.71, 60748.35, 187500.00, 187500.00, 187500.00, -187500.02, -187500.02, -187500.02, 0.000, 0.000, 0.000, 16:23:21.222
72, 40662.09, 60690.01, 187500.00, 187500.00, 187500.00, -187500.02, -187500.02, -187500.02, 0.000, 0.000, 0.000, 16:23:21.223
73, 40799.91, 60770.84, 187500.00, 187500.00, 187500.00, -187500.02, -187500.02, -187500.02, 0.000, 0.000, 0.000, 16:23:21.224
74, 40940.53, 60872.29, 187500.00, 187500.00, 187500.00, -187500.02, -187500.02, -187500.02, 0.000, 0.000, 0.000, 16:23:21.224
75, 40897.41, 60856.60, 187500.00, 187500.00, 187500.00, -187500.02, -187500.02, -187500.02, 0.000, 0.000, 0.000, 16:23:21.225
76, 40747.65, 60767.86, 187500.00, 187500.00, 187500.00, -187500.02, -187500.02, -187500.02, 0.000, 0.000, 0.000, 16:23:21.226
77, 40662.80, 60693.68, 187500.00, 187500.00, 187500.00, -187500.02, -187500.02, -187500.02, 0.000, 0.000, 0.000, 16:23:21.226
78, 40778.10, 60750.86, 187500.00, 187500.00, 187500.00, -187500.02, -187500.02, -187500.02, 0.008, -0.014, 1.030, 16:23:21.227
79, 40916.30, 60849.45, 187500.00, 187500.00, 187500.00, -187500.02, -187500.02, -187500.02, 0.000, 0.000, 0.000, 16:23:21.228
80, 40879.86, 60841.31, 187500.00, 187500.00, 187500.00, -187500.02, -187500.02, -187500.02, 0.000, 0.000, 0.000, 16:23:21.228
81, 40727.29, 60746.09, 187500.00, 187500.00, 187500.00, -187500.02, -187500.02, -187500.02, 0.000, 0.000, 0.000, 16:23:21.229
82, 40661.73, 60694.98, 187500.00, 187500.00, 187500.00, -187500.02, -187500.02, -187500.02, 0.000, 0.000, 0.000, 16:23:21.230
83, 40768.13, 60747.70, 187500.00, 187500.00, 187500.00, -187500.02, -187500.02, -187500.02, 0.000, 0.000, 0.000, 16:23:21.232
84, 40904.52, 60838.34, 187500.00, 187500.00, 187500.00, -187500.02, -187500.02, -187500.02, 0.000, 0.000, 0.000, 16:23:21.233
85, 40869.36, 60828.32, 187500.00, 187500.00, 187500.00, -187500.02, -187500.02, -187500.02, 0.000, 0.000, 0.000, 16:23:21.234
86, 40731.09, 60747.77, 187500.00, 187500.00, 187500.00, -187500.02, -187500.02, -187500.02, 0.000, 0.000, 0.000, 16:23:21.235
87, 40685.85, 60709.91, 187500.00, 187500.00, 187500.00, -187500.02, -187500.02, -187500.02, 0.000, 0.000, 0.000, 16:23:21.236
88, 40793.52, 60760.00, 187500.00, 187500.00, 187500.00, -187500.02, -187500.02, -187500.02, 0.008, -0.018, 1.028, 16:23:21.237
89, 40913.05, 60840.26, 187500.00, 187500.00, 187500.00, -187500.02, -187500.02, -187500.02, 0.000, 0.000, 0.000, 16:23:21.237
90, 40891.64, 60848.02, 187500.00, 187500.00, 187500.00, -187500.02, -187500.02, -187500.02, 0.000, 0.000, 0.000, 16:23:21.238
91, 40734.46, 60749.36, 187500.00, 187500.00, 187500.00, -187500.02, -187500.02, -187500.02, 0.000, 0.000, 0.000, 16:23:21.239
92, 40655.30, 60680.38, 187500.00, 187500.00, 187500.00, -187500.02, -187500.02, -187500.02, 0.000, 0.000, 0.000, 16:23:21.239
93, 40793.81, 60768.27, 187500.00, 187500.00, 187500.00, -187500.02, -187500.02, -187500.02, 0.000, 0.000, 0.000, 16:23:21.240
94, 40928.43, 60860.76, 187500.00, 187500.00, 187500.00, -187500.02, -187500.02, -187500.02, 0.000, 0.000, 0.000, 16:23:21.240
95, 40893.88, 60850.45, 187500.00, 187500.00, 187500.00, -187500.02, -187500.02, -187500.02, 0.000, 0.000, 0.000, 16:23:21.241
96, 40732.61, 60747.95, 187500.00, 187500.00, 187500.00, -187500.02, -187500.02, -187500.02, 0.000, 0.000, 0.000, 16:23:21.242
97, 40667.72, 60692.29, 187500.00, 187500.00, 187500.00, -187500.02, -187500.02, -187500.02, 0.000, 0.000, 0.000, 16:23:21.242
98, 40774.52, 60747.82, 187500.00, 187500.00, 187500.00, -187500.02, -187500.02, -187500.02, 0.004, -0.016, 1.024, 16:23:21.243
99, 40905.17, 60840.15, 187500.00, 187500.00, 187500.00, -187500.02, -187500.02, -187500.02, 0.000, 0.000, 0.000, 16:23:21.243
100, 40880.49, 60840.60, 187500.00, 187500.00, 187500.00, -187500.02, -187500.02, -187500.02, 0.000, 0.000, 0.000, 16:23:21.244
101, 40727.11, 60743.01, 187500.00, 187500.00, 187500.00, -187500.02, -187500.02, -187500.02, 0.000, 0.000, 0.000, 16:23:21.244
102, 40666.67, 60688.76, 187500.00, 187500.00, 187500.00, -187500.02, -187500.02, -187500.02, 0.000, 0.000, 0.000, 16:23:21.245
103, 40797.86, 60766.88, 187500.00, 187500.00, 187500.00, -187500.02, -187500.02, -187500.02, 0.000, 0.000, 0.000, 16:23:21.246
104, 40909.79, 60844.51, 187500.00, 187500.00, 187500.00, -187500.02, -187500.02, -187500.02, 0.000, 0.000, 0.000, 16:23:21.636
105, 40885.00, 60848.40, 187500.00, 187500.00, 187500.00, -187500.02, -187500.02, -187500.02, 0.000, 0.000, 0.000, 16:23:21.637
106, 40733.39, 60752.73, 187500.00, 187500.00, 187500.00, -187500.02, -187500.02, -187500.02, 0.000, 0.000, 0.000, 16:23:21.638
107, 40670.25, 60701.43, 187500.00, 187500.00, 187500.00, -187500.02, -187500.02, -187500.02, 0.000, 0.000, 0.000, 16:23:21.638
108, 40787.26, 60762.66, 187500.00, 187500.00, 187500.00, -187500.02, -187500.02, -187500.02, 0.008, -0.020, 1.032, 16:23:21.639
109, 40911.83, 60843.82, 187500.00, 187500.00, 187500.00, -187500.02, -187500.02, -187500.02, 0.000, 0.000, 0.000, 16:23:21.639
110, 40874.84, 60833.11, 187500.00, 187500.00, 187500.00, -187500.02, -187500.02, -187500.02, 0.000, 0.000, 0.000, 16:23:21.640
111, 40720.63, 60744.46, 187500.00, 187500.00, 187500.00, -187500.02, -187500.02, -187500.02, 0.000, 0.000, 0.000, 16:23:21.640
112, 40657.93, 60695.07, 187500.00, 187500.00, 187500.00, -187500.02, -187500.02, -187500.02, 0.000, 0.000, 0.000, 16:23:21.641
113, 40766.41, 60747.75, 187500.00, 187500.00, 187500.00, -187500.02, -187500.02, -187500.02, 0.000, 0.000, 0.000, 16:23:21.641
114, 40898.08, 60832.59, 187500.00, 187500.00, 187500.00, -187500.02, -187500.02, -187500.02, 0.000, 0.000, 0.000, 16:23:21.642
115, 40865.92, 60825.87, 187500.00, 187500.00, 187500.00, -187500.02, -187500.02, -187500.02, 0.000, 0.000, 0.000, 16:23:21.643
116, 40721.64, 60740.50, 187500.00, 187500.00, 187500.00, -187500.02, -187500.02, -187500.02, 0.000, 0.000, 0.000, 16:23:21.643
117, 40642.31, 60675.17, 187500.00, 187500.00, 187500.00, -187500.02, -187500.02, -187500.02, 0.004, -0.024, 1.028, 16:23:21.644
118, 40769.07, 60749.45, 187500.00, 187500.00, 187500.00, -187500.02, -187500.02, -187500.02, 0.000, 0.000, 0.000, 16:23:21.644
119, 40908.92, 60849.00, 187500.00, 187500.00, 187500.00, -187500.02, -187500.02, -187500.02, 0.000, 0.000, 0.000, 16:23:21.645
120, 40870.12, 60836.75, 187500.00, 187500.00, 187500.00, -187500.02, -187500.02, -187500.02, 0.000, 0.000, 0.000, 16:23:21.645
121, 40713.46, 60737.13, 187500.00, 187500.00, 187500.00, -187500.02, -187500.02, -187500.02, 0.000, 0.000, 0.000, 16:23:21.646
122, 40649.62, 60683.35, 187500.00, 187500.00, 187500.00, -187500.02, -187500.02, -187500.02, 0.000, 0.000, 0.000, 16:23:21.647
123, 40771.35, 60750.36, 187500.00, 187500.00, 187500.00, -187500.02, -187500.02, -187500.02, 0.000, 0.000, 0.000, 16:23:21.647
124, 40886.55, 60823.03, 187500.00, 187500.00, 187500.00, -187500.02, -187500.02, -187500.02, 0.000, 0.000, 0.000, 16:23:21.648
125, 40864.40, 60829.60, 187500.00, 187500.00, 187500.00, -187500.02, -187500.02, -187500.02, 0.000, 0.000, 0.000, 16:23:21.649
126, 40718.13, 60746.54, 187500.00, 187500.00, 187500.00, -187500.02, -187500.02, -187500.02, 0.000, 0.000, 0.000, 16:23:21.650
127, 40641.06, 60682.61, 187500.00, 187500.00, 187500.00, -187500.02, -187500.02, -187500.02, 0.010, -0.018, 1.024, 16:23:21.650
128, 40755.59, 60744.15, 187500.00, 187500.00, 187500.00, -187500.02, -187500.02, -187500.02, 0.000, 0.000, 0.000, 16:23:21.651
129, 40873.65, 60822.18, 187500.00, 187500.00, 187500.00, -187500.02, -187500.02, -187500.02, 0.000, 0.000, 0.000, 16:23:21.651
130, 40847.77, 60821.00, 187500.00, 187500.00, 187500.00, -187500.02, -187500.02, -187500.02, 0.000, 0.000, 0.000, 16:23:21.652
131, 40711.60, 60743.05, 187500.00, 187500.00, 187500.00, -187500.02, -187500.02, -187500.02, 0.000, 0.000, 0.000, 16:23:21.653
132, 40641.15, 60685.70, 187500.00, 187500.00, 187500.00, -187500.02, -187500.02, -187500.02, 0.000, 0.000, 0.000, 16:23:21.653
133, 40763.95, 60752.17, 187500.00, 187500.00, 187500.00, -187500.02, -187500.02, -187500.02, 0.000, 0.000, 0.000, 16:23:21.654
134, 40903.11, 60854.45, 187500.00, 187500.00, 187500.00, -187500.02, -187500.02, -187500.02, 0.000, 0.000, 0.000, 16:23:21.654
135, 40870.07, 60849.47, 187500.00, 187500.00, 187500.00, -187500.02, -187500.02, -187500.02, 0.000, 0.000, 0.000, 16:23:21.655
136, 40706.13, 60738.63, 187500.00, 187500.00, 187500.00, -187500.02, -187500.02, -187500.02, 0.000, 0.000, 0.000, 16:23:21.656
137, 40634.24, 60673.00, 187500.00, 187500.00, 187500.00, -187500.02, -187500.02, -187500.02, 0.004, -0.016, 1.022, 16:23:21.656
138, 40759.37, 60740.59, 187500.00, 187500.00, 187500.00, -187500.02, -187500.02, -187500.02, 0.000, 0.000, 0.000, 16:23:21.657
139, 40901.77, 60843.46, 187500.00, 187500.00, 187500.00, -187500.02, -187500.02, -187500.02, 0.000, 0.000, 0.000, 16:23:21.658
140, 40861.42, 60830.54, 187500.00, 187500.00, 187500.00, -187500.02, -187500.02, -187500.02, 0.000, 0.000, 0.000, 16:23:21.658
141, 40723.18, 60749.74, 187500.00, 187500.00, 187500.00, -187500.02, -187500.02, -187500.02, 0.000, 0.000, 0.000, 16:23:21.659
142, 40644.30, 60683.29, 187500.00, 187500.00, 187500.00, -187500.02, -187500.02, -187500.02, 0.000, 0.000, 0.000, 16:23:21.660
143, 40757.60, 60744.42, 187500.00, 187500.00, 187500.00, -187500.02, -187500.02, -187500.02, 0.000, 0.000, 0.000, 16:23:21.660
144, 40885.39, 60831.45, 187500.00, 187500.00, 187500.00, -187500.02, -187500.02, -187500.02, 0.000, 0.000, 0.000, 16:23:21.661
145, 40859.25, 60831.57, 187500.00, 187500.00, 187500.00, -187500.02, -187500.02, -187500.02, 0.000, 0.000, 0.000, 16:23:21.661
146, 40712.16, 60742.29, 187500.00, 187500.00, 187500.00, -187500.02, -187500.02, -187500.02, 0.000, 0.000, 0.000, 16:23:21.662
147, 40641.57, 60683.60, 187500.00, 187500.00, 187500.00, -187500.02, -187500.02, -187500.02, 0.006, -0.018, 1.026, 16:23:21.663
148, 40749.80, 60740.39, 187500.00, 187500.00, 187500.00, -187500.02, -187500.02, -187500.02, 0.000, 0.000, 0.000, 16:23:21.665
149, 40885.05, 60833.20, 187500.00, 187500.00, 187500.00, -187500.02, -187500.02, -187500.02, 0.000, 0.000, 0.000, 16:23:21.666
150, 40867.17, 60836.46, 187500.00, 187500.00, 187500.00, -187500.02, -187500.02, -187500.02, 0.000, 0.000, 0.000, 16:23:21.667
151, 40719.22, 60743.48, 187500.00, 187500.00, 187500.00, -187500.02, -187500.02, -187500.02, 0.000, 0.000, 0.000, 16:23:21.668
152, 40641.75, 60676.29, 187500.00, 187500.00, 187500.00, -187500.02, -187500.02, -187500.02, 0.000, 0.000, 0.000, 16:23:21.669
153, 40762.90, 60747.50, 187500.00, 187500.00, 187500.00, -187500.02, -187500.02, -187500.02, 0.000, 0.000, 0.000, 16:23:21.669
154, 40892.74, 60836.62, 187500.00, 187500.00, 187500.00, -187500.02, -187500.02, -187500.02, 0.000, 0.000, 0.000, 16:23:21.675
155, 40851.93, 60823.45, 187500.00, 187500.00, 187500.00, -187500.02, -187500.02, -187500.02, 0.000, 0.000, 0.000, 16:23:21.676
156, 40696.13, 60728.32, 187500.00, 187500.00, 187500.00, -187500.02, -187500.02, -187500.02, 0.000, 0.000, 0.000, 16:23:21.677
157, 40627.51, 60671.80, 187500.00, 187500.00, 187500.00, -187500.02, -187500.02, -187500.02, 0.008, -0.022, 1.028, 16:23:21.677
158, 40740.81, 60732.06, 187500.00, 187500.00, 187500.00, -187500.02, -187500.02, -187500.02, 0.000, 0.000, 0.000, 16:23:21.678
159, 40867.57, 60813.71, 187500.00, 187500.00, 187500.00, -187500.02, -187500.02, -187500.02, 0.000, 0.000, 0.000, 16:23:21.679
160, 40853.38, 60821.91, 187500.00, 187500.00, 187500.00, -187500.02, -187500.02, -187500.02, 0.000, 0.000, 0.000, 16:23:21.680
161, 40718.86, 60746.86, 187500.00, 187500.00, 187500.00, -187500.02, -187500.02, -187500.02, 0.000, 0.000, 0.000, 16:23:21.681
162, 40630.35, 60674.55, 187500.00, 187500.00, 187500.00, -187500.02, -187500.02, -187500.02, 0.000, 0.000, 0.000, 16:23:21.681
163, 40737.13, 60729.78, 187500.00, 187500.00, 187500.00, -187500.02, -187500.02, -187500.02, 0.000, 0.000, 0.000, 16:23:21.682
164, 40868.49, 60815.77, 187500.00, 187500.00, 187500.00, -187500.02, -187500.02, -187500.02, 0.000, 0.000, 0.000, 16:23:21.682
165, 40860.26, 60827.23, 187500.00, 187500.00, 187500.00, -187500.02, -187500.02, -187500.02, 0.000, 0.000, 0.000, 16:23:21.683
166, 40704.96, 60729.49, 187500.00, 187500.00, 187500.00, -187500.02, -187500.02, -187500.02, 0.000, 0.000, 0.000, 16:23:21.684
167, 40628.72, 60667.75, 187500.00, 187500.00, 187500.00, -187500.02, -187500.02, -187500.02, 0.008, -0.018, 1.026, 16:23:21.685
168, 40749.33, 60734.34, 187500.00, 187500.00, 187500.00, -187500.02, -187500.02, -187500.02, 0.000, 0.000, 0.000, 16:23:21.686
169, 40876.24, 60820.75, 187500.00, 187500.00, 187500.00, -187500.02, -187500.02, -187500.02, 0.000, 0.000, 0.000, 16:23:21.686
170, 40844.70, 60819.25, 187500.00, 187500.00, 187500.00, -187500.02, -187500.02, -187500.02, 0.000, 0.000, 0.000, 16:23:21.687
171, 40698.08, 60726.96, 187500.00, 187500.00, 187500.00, -187500.02, -187500.02, -187500.02, 0.000, 0.000, 0.000, 16:23:21.687
172, 40642.87, 60680.71, 187500.00, 187500.00, 187500.00, -187500.02, -187500.02, -187500.02, 0.000, 0.000, 0.000, 16:23:21.688
173, 40748.86, 60731.34, 187500.00, 187500.00, 187500.00, -187500.02, -187500.02, -187500.02, 0.000, 0.000, 0.000, 16:23:21.688
174, 40889.70, 60832.39, 187500.00, 187500.00, 187500.00, -187500.02, -187500.02, -187500.02, 0.000, 0.000, 0.000, 16:23:21.689
175, 40867.32, 60834.70, 187500.00, 187500.00, 187500.00, -187500.02, -187500.02, -187500.02, 0.000, 0.000, 0.000, 16:23:21.689
176, 40712.49, 60740.39, 187500.00, 187500.00, 187500.00, -187500.02, -187500.02, -187500.02, 0.000, 0.000, 0.000, 16:23:21.690
177, 40618.10, 60661.92, 187500.00, 187500.00, 187500.00, -187500.02, -187500.02, -187500.02, 0.008, -0.018, 1.028, 16:23:21.691
178, 40734.46, 60726.58, 187500.00, 187500.00, 187500.00, -187500.02, -187500.02, -187500.02, 0.000, 0.000, 0.000, 16:23:21.691
179, 40868.29, 60815.70, 187500.00, 187500.00, 187500.00, -187500.02, -187500.02, -187500.02, 0.000, 0.000, 0.000, 16:23:21.692
180, 40854.72, 60826.56, 187500.00, 187500.00, 187500.00, -187500.02, -187500.02, -187500.02, 0.000, 0.000, 0.000, 16:23:21.692
181, 40714.17, 60744.84, 187500.00, 187500.00, 187500.00, -187500.02, -187500.02, -187500.02, 0.000, 0.000, 0.000, 16:23:21.693
182, 40603.13, 60651.50, 187500.00, 187500.00, 187500.00, -187500.02, -187500.02, -187500.02, 0.000, 0.000, 0.000, 16:23:21.694
183, 40708.96, 60704.81, 187500.00, 187500.00, 187500.00, -187500.02, -187500.02, -187500.02, 0.000, 0.000, 0.000, 16:23:21.694
184, 40856.86, 60806.38, 187500.00, 187500.00, 187500.00, -187500.02, -187500.02, -187500.02, 0.000, 0.000, 0.000, 16:23:21.695
185, 40841.11, 60813.30, 187500.00, 187500.00, 187500.00, -187500.02, -187500.02, -187500.02, 0.000, 0.000, 0.000, 16:23:21.695
186, 40686.41, 60720.16, 187500.00, 187500.00, 187500.00, -187500.02, -187500.02, -187500.02, 0.000, 0.000, 0.000, 16:23:21.696
187, 40606.70, 60652.33, 187500.00, 187500.00, 187500.00, -187500.02, -187500.02, -187500.02, 0.002, -0.026, 1.022, 16:23:21.697
188, 40724.79, 60719.96, 187500.00, 187500.00, 187500.00, -187500.02, -187500.02, -187500.02, 0.000, 0.000, 0.000, 16:23:21.697
189, 40856.82, 60814.80, 187500.00, 187500.00, 187500.00, -187500.02, -187500.02, -187500.02, 0.000, 0.000, 0.000, 16:23:21.698
190, 40833.39, 60815.50, 187500.00, 187500.00, 187500.00, -187500.02, -187500.02, -187500.02, 0.000, 0.000, 0.000, 16:23:21.699
191, 40684.60, 60721.69, 187500.00, 187500.00, 187500.00, -187500.02, -187500.02, -187500.02, 0.000, 0.000, 0.000, 16:23:21.700
192, 40602.79, 60654.83, 187500.00, 187500.00, 187500.00, -187500.02, -187500.02, -187500.02, 0.000, 0.000, 0.000, 16:23:21.700
193, 40694.08, 60693.57, 187500.00, 187500.00, 187500.00, -187500.02, -187500.02, -187500.02, 0.000, 0.000, 0.000, 16:23:21.701
194, 40838.67, 60796.92, 187500.00, 187500.00, 187500.00, -187500.02, -187500.02, -187500.02, 0.000, 0.000, 0.000, 16:23:21.701
195, 40825.66, 60808.34, 187500.00, 187500.00, 187500.00, -187500.02, -187500.02, -187500.02, 0.000, 0.000, 0.000, 16:23:21.702
196, 40679.17, 60717.66, 187500.00, 187500.00, 187500.00, -187500.02, -187500.02, -187500.02, 0.000, 0.000, 0.000, 16:23:21.702
197, 40602.30, 60658.16, 187500.00, 187500.00, 187500.00, -187500.02, -187500.02, -187500.02, 0.004, -0.020, 1.032, 16:23:21.703
198, 40712.20, 60716.50, 187500.00, 187500.00, 187500.00, -187500.02, -187500.02, -187500.02, 0.000, 0.000, 0.000, 16:23:21.704
199, 40848.26, 60808.88, 187500.00, 187500.00, 187500.00, -187500.02, -187500.02, -187500.02, 0.000, 0.000, 0.000, 16:23:21.704
200, 40835.14, 60817.82, 187500.00, 187500.00, 187500.00, -187500.02, -187500.02, -187500.02, 0.000, 0.000, 0.000, 16:23:21.705
201, 40694.48, 60728.37, 187500.00, 187500.00, 187500.00, -187500.02, -187500.02, -187500.02, 0.000, 0.000, 0.000, 16:23:21.705
202, 40613.50, 60669.96, 187500.00, 187500.00, 187500.00, -187500.02, -187500.02, -187500.02, 0.000, 0.000, 0.000, 16:23:21.706
203, 40719.76, 60720.37, 187500.00, 187500.00, 187500.00, -187500.02, -187500.02, -187500.02, 0.000, 0.000, 0.000, 16:23:21.707
204, 40852.44, 60800.27, 187500.00, 187500.00, 187500.00, -187500.02, -187500.02, -187500.02, 0.000, 0.000, 0.000, 16:23:21.707
205, 40824.23, 60799.05, 187500.00, 187500.00, 187500.00, -187500.02, -187500.02, -187500.02, 0.000, 0.000, 0.000, 16:23:21.708
206, 40686.14, 60715.58, 187500.00, 187500.00, 187500.00, -187500.02, -187500.02, -187500.02, 0.000, 0.000, 0.000, 16:23:21.709
207, 40613.23, 60653.85, 187500.00, 187500.00, 187500.00, -187500.02, -187500.02, -187500.02, 0.000, -0.024, 1.030, 16:23:21.709
208, 40731.92, 60725.60, 187500.00, 187500.00, 187500.00, -187500.02, -187500.02, -187500.02, 0.000, 0.000, 0.000, 16:23:21.710
209, 40869.67, 60821.33, 187500.00, 187500.00, 187500.00, -187500.02, -187500.02, -187500.02, 0.000, 0.000, 0.000, 16:23:21.711
210, 40851.86, 60822.67, 187500.00, 187500.00, 187500.00, -187500.02, -187500.02, -187500.02, 0.000, 0.000, 0.000, 16:23:21.711
211, 40702.79, 60725.69, 187500.00, 187500.00, 187500.00, -187500.02, -187500.02, -187500.02, 0.000, 0.000, 0.000, 16:23:21.712
212, 40608.94, 60645.04, 187500.00, 187500.00, 187500.00, -187500.02, -187500.02, -187500.02, 0.000, 0.000, 0.000, 16:23:21.713
213, 40726.38, 60713.68, 187500.00, 187500.00, 187500.00, -187500.02, -187500.02, -187500.02, 0.000, 0.000, 0.000, 16:23:21.715
214, 40862.18, 60806.49, 187500.00, 187500.00, 187500.00, -187500.02, -187500.02, -187500.02, 0.000, 0.000, 0.000, 16:23:21.716
215, 40849.24, 60815.47, 187500.00, 187500.00, 187500.00, -187500.02, -187500.02, -187500.02, 0.000, 0.000, 0.000, 16:23:21.717
216, 40700.76, 60725.71, 187500.00, 187500.00, 187500.00, -187500.02, -187500.02, -187500.02, 0.000, 0.000, 0.000, 16:23:21.718
217, 40614.48, 60657.43, 187500.00, 187500.00, 187500.00, -187500.02, -187500.02, -187500.02, 0.000, -0.020, 1.024, 16:23:21.718
218, 40724.45, 60716.01, 187500.00, 187500.00, 187500.00, -187500.02, -187500.02, -187500.02, 0.000, 0.000, 0.000, 16:23:21.719
219, 40853.20, 60799.11, 187500.00, 187500.00, 187500.00, -187500.02, -187500.02, -187500.02, 0.000, 0.000, 0.000, 16:23:21.720
220, 40843.77, 60810.69, 187500.00, 187500.00, 187500.00, -187500.02, -187500.02, -187500.02, 0.000, 0.000, 0.000, 16:23:21.721
221, 40704.58, 60728.70, 187500.00, 187500.00, 187500.00, -187500.02, -187500.02, -187500.02, 0.000, 0.000, 0.000, 16:23:21.721
222, 40612.96, 60655.26, 187500.00, 187500.00, 187500.00, -187500.02, -187500.02, -187500.02, 0.000, 0.000, 0.000, 16:23:21.723
223, 40724.56, 60714.33, 187500.00, 187500.00, 187500.00, -187500.02, -187500.02, -187500.02, 0.000, 0.000, 0.000, 16:23:21.724
224, 40876.02, 60822.45, 187500.00, 187500.00, 187500.00, -187500.02, -187500.02, -187500.02, 0.000, 0.000, 0.000, 16:23:22.116
225, 40857.71, 60827.14, 187500.00, 187500.00, 187500.00, -187500.02, -187500.02, -187500.02, 0.000, 0.000, 0.000, 16:23:22.117
226, 40709.48, 60738.67, 187500.00, 187500.00, 187500.00, -187500.02, -187500.02, -187500.02, 0.000, 0.000, 0.000, 16:23:22.118
227, 40610.41, 60653.65, 187500.00, 187500.00, 187500.00, -187500.02, -187500.02, -187500.02, 0.002, -0.024, 1.028, 16:23:22.119
228, 40713.46, 60703.25, 187500.00, 187500.00, 187500.00, -187500.02, -187500.02, -187500.02, 0.000, 0.000, 0.000, 16:23:22.120
229, 40849.67, 60795.76, 187500.00, 187500.00, 187500.00, -187500.02, -187500.02, -187500.02, 0.000, 0.000, 0.000, 16:23:22.121
230, 40839.00, 60807.00, 187500.00, 187500.00, 187500.00, -187500.02, -187500.02, -187500.02, 0.000, 0.000, 0.000, 16:23:22.121
231, 40696.87, 60727.54, 187500.00, 187500.00, 187500.00, -187500.02, -187500.02, -187500.02, 0.000, 0.000, 0.000, 16:23:22.122
232, 40621.19, 60668.58, 187500.00, 187500.00, 187500.00, -187500.02, -187500.02, -187500.02, 0.000, 0.000, 0.000, 16:23:22.123
233, 40733.08, 60727.63, 187500.00, 187500.00, 187500.00, -187500.02, -187500.02, -187500.02, 0.000, 0.000, 0.000, 16:23:22.123
234, 40871.06, 60821.80, 187500.00, 187500.00, 187500.00, -187500.02, -187500.02, -187500.02, 0.000, 0.000, 0.000, 16:23:22.124
235, 40846.54, 60822.47, 187500.00, 187500.00, 187500.00, -187500.02, -187500.02, -187500.02, 0.000, 0.000, 0.000, 16:23:22.125
236, 40708.88, 60742.85, 187500.00, 187500.00, 187500.00, -187500.02, -187500.02, -187500.02, 0.000, 0.000, 0.000, 16:23:22.126
237, 40641.24, 60687.11, 187500.00, 187500.00, 187500.00, -187500.02, -187500.02, -187500.02, 0.008, -0.024, 1.026, 16:23:22.126
238, 40745.06, 60735.14, 187500.00, 187500.00, 187500.00, -187500.02, -187500.02, -187500.02, 0.000, 0.000, 0.000, 16:23:22.127
239, 40866.12, 60812.21, 187500.00, 187500.00, 187500.00, -187500.02, -187500.02, -187500.02, 0.000, 0.000, 0.000, 16:23:22.128
240, 40846.20, 60815.38, 187500.00, 187500.00, 187500.00, -187500.02, -187500.02, -187500.02, 0.000, 0.000, 0.000, 16:23:22.128
241, 40694.95, 60723.41, 187500.00, 187500.00, 187500.00, -187500.02, -187500.02, -187500.02, 0.000, 0.000, 0.000, 16:23:22.129
242, 40615.33, 60662.83, 187500.00, 187500.00, 187500.00, -187500.02, -187500.02, -187500.02, 0.000, 0.000, 0.000, 16:23:22.130
243, 40726.11, 60724.88, 187500.00, 187500.00, 187500.00, -187500.02, -187500.02, -187500.02, 0.000, 0.000, 0.000, 16:23:22.131
244, 40872.02, 60829.73, 187500.00, 187500.00, 187500.00, -187500.02, -187500.02, -187500.02, 0.000, 0.000, 0.000, 16:23:22.132
245, 40857.11, 60838.00, 187500.00, 187500.00, 187500.00, -187500.02, -187500.02, -187500.02, 0.000, 0.000, 0.000, 16:23:22.133
246, 40710.41, 60747.97, 187500.00, 187500.00, 187500.00, -187500.02, -187500.02, -187500.02, 0.006, -0.022, 1.028, 16:23:22.133
247, 40617.99, 60670.48, 187500.00, 187500.00, 187500.00, -187500.02, -187500.02, -187500.02, 0.000, 0.000, 0.000, 16:23:22.134
248, 40735.00, 60733.84, 187500.00, 187500.00, 187500.00, -187500.02, -187500.02, -187500.02, 0.000, 0.000, 0.000, 16:23:22.135
249, 40891.93, 60839.17, 187500.00, 187500.00, 187500.00, -187500.02, -187500.02, -187500.02, 0.000, 0.000, 0.000, 16:23:22.136
250, 40886.84, 60854.39, 187500.00, 187500.00, 187500.00, -187500.02, -187500.02, -187500.02, 0.000, 0.000, 0.000, 16:23:22.137
251, 40734.76, 60766.52, 187500.00, 187500.00, 187500.00, -187500.02, -187500.02, -187500.02, 0.000, 0.000, 0.000, 16:23:22.138
252, 40633.19, 60685.07, 187500.00, 187500.00, 187500.00, -187500.02, -187500.02, -187500.02, 0.000, 0.000, 0.000, 16:23:22.139
253, 40755.07, 60756.15, 187500.00, 187500.00, 187500.00, -187500.02, -187500.02, -187500.02, 0.000, 0.000, 0.000, 16:23:22.140
254, 40897.75, 60852.93, 187500.00, 187500.00, 187500.00, -187500.02, -187500.02, -187500.02, 0.000, 0.000, 0.000, 16:23:22.141
255, 40881.88, 60857.16, 187500.00, 187500.00, 187500.00, -187500.02, -187500.02, -187500.02, 0.000, 0.000, 0.000, 16:23:22.142
0, 40738.94, 60768.82, 187500.00, 187500.00, 187500.00, -187500.02, -187500.02, -187500.02, 0.004, -0.024, 1.026, 16:23:22.142
1, 40650.36, 60699.58, 187500.00, 187500.00, 187500.00, -187500.02, -187500.02, -187500.02, 0.000, 0.000, 0.000, 16:23:22.143
2, 40757.11, 60758.43, 187500.00, 187500.00, 187500.00, -187500.02, -187500.02, -187500.02, 0.000, 0.000, 0.000, 16:23:22.144
3, 40897.41, 60854.14, 187500.00, 187500.00, 187500.00, -187500.02, -187500.02, -187500.02, 0.000, 0.000, 0.000, 16:23:22.145
4, 40871.88, 60850.07, 187500.00, 187500.00, 187500.00, -187500.02, -187500.02, -187500.02, 0.000, 0.000, 0.000, 16:23:22.145
5, 40727.49, 60763.35, 187500.00, 187500.00, 187500.00, -187500.02, -187500.02, -187500.02, 0.000, 0.000, 0.000, 16:23:22.146
6, 40640.48, 60693.79, 187500.00, 187500.00, 187500.00, -187500.02, -187500.02, -187500.02, 0.000, 0.000, 0.000, 16:23:22.147
7, 40745.62, 60748.04, 187500.00, 187500.00, 187500.00, -187500.02, -187500.02, -187500.02, 0.000, 0.000, 0.000, 16:23:22.148
8, 40886.50, 60843.88, 187500.00, 187500.00, 187500.00, -187500.02, -187500.02, -187500.02, 0.000, 0.000, 0.000, 16:23:22.149
9, 40870.57, 60849.43, 187500.00, 187500.00, 187500.00, -187500.02, -187500.02, -187500.02, 0.000, 0.000, 0.000, 16:23:22.150
10, 40719.22, 60755.57, 187500.00, 187500.00, 187500.00, -187500.02, -187500.02, -187500.02, 0.006, -0.024, 1.030, 16:23:22.151
11, 40644.50, 60692.05, 187500.00, 187500.00, 187500.00, -187500.02, -187500.02, -187500.02, 0.000, 0.000, 0.000, 16:23:22.151
12, 40753.06, 60746.18, 187500.00, 187500.00, 187500.00, -187500.02, -187500.02, -187500.02, 0.000, 0.000, 0.000, 16:23:22.152
13, 40895.82, 60850.10, 187500.00, 187500.00, 187500.00, -187500.02, -187500.02, -187500.02, 0.000, 0.000, 0.000, 16:23:22.153
14, 40879.73, 60852.73, 187500.00, 187500.00, 187500.00, -187500.02, -187500.02, -187500.02, 0.000, 0.000, 0.000, 16:23:22.154
15, 40735.11, 60766.14, 187500.00, 187500.00, 187500.00, -187500.02, -187500.02, -187500.02, 0.000, 0.000, 0.000, 16:23:22.155
16, 40626.60, 60676.58, 187500.00, 187500.00, 187500.00, -187500.02, -187500.02, -187500.02, 0.000, 0.000, 0.000, 16:23:22.156
17, 40732.32, 60730.63, 187500.00, 187500.00, 187500.00, -187500.02, -187500.02, -187500.02, 0.000, 0.000, 0.000, 16:23:22.156
18, 40892.74, 60840.24, 187500.00, 187500.00, 187500.00, -187500.02, -187500.02, -187500.02, 0.000, 0.000, 0.000, 16:23:22.157
19, 40878.52, 60849.45, 187500.00, 187500.00, 187500.00, -187500.02, -187500.02, -187500.02, 0.000, 0.000, 0.000, 16:23:22.158
20, 40728.18, 60764.47, 187500.00, 187500.00, 187500.00, -187500.02, -187500.02, -187500.02, 0.006, -0.024, 1.034, 16:23:22.159
21, 40648.30, 60701.17, 187500.00, 187500.00, 187500.00, -187500.02, -187500.02, -187500.02, 0.000, 0.000, 0.000, 16:23:22.159
22, 40743.90, 60743.03, 187500.00, 187500.00, 187500.00, -187500.02, -187500.02, -187500.02, 0.000, 0.000, 0.000, 16:23:22.160
23, 40887.89, 60840.60, 187500.00, 187500.00, 187500.00, -187500.02, -187500.02, -187500.02, 0.000, 0.000, 0.000, 16:23:22.161
24, 40884.87, 60856.89, 187500.00, 187500.00, 187500.00, -187500.02, -187500.02, -187500.02, 0.000, 0.000, 0.000, 16:23:22.162
25, 40722.78, 60751.01, 187500.00, 187500.00, 187500.00, -187500.02, -187500.02, -187500.02, 0.000, 0.000, 0.000, 16:23:22.164
26, 40638.96, 60682.70, 187500.00, 187500.00, 187500.00, -187500.02, -187500.02, -187500.02, 0.000, 0.000, 0.000, 16:23:22.165
27, 40739.27, 60729.38, 187500.00, 187500.00, 187500.00, -187500.02, -187500.02, -187500.02, 0.000, 0.000, 0.000, 16:23:22.166
28, 40880.58, 60821.91, 187500.00, 187500.00, 187500.00, -187500.02, -187500.02, -187500.02, 0.000, 0.000, 0.000, 16:23:22.167
29, 40867.37, 60827.99, 187500.00, 187500.00, 187500.00, -187500.02, -187500.02, -187500.02, 0.000, 0.000, 0.000, 16:23:22.167
30, 40719.71, 60736.41, 187500.00, 187500.00, 187500.00, -187500.02, -187500.02, -187500.02, 0.004, -0.024, 1.030, 16:23:22.171
31, 40640.10, 60673.34, 187500.00, 187500.00, 187500.00, -187500.02, -187500.02, -187500.02, 0.000, 0.000, 0.000, 16:23:22.172
32, 40752.53, 60741.40, 187500.00, 187500.00, 187500.00, -187500.02, -187500.02, -187500.02, 0.000, 0.000, 0.000, 16:23:22.172
33, 40896.23, 60844.75, 187500.00, 187500.00, 187500.00, -187500.02, -187500.02, -187500.02, 0.000, 0.000, 0.000, 16:23:22.173
34, 40875.66, 60845.27, 187500.00, 187500.00, 187500.00, -187500.02, -187500.02, -187500.02, 0.000, 0.000, 0.000, 16:23:22.174
35, 40732.99, 60756.87, 187500.00, 187500.00, 187500.00, -187500.02, -187500.02, -187500.02, 0.000, 0.000, 0.000, 16:23:22.175
36, 40637.62, 60682.75, 187500.00, 187500.00, 187500.00, -187500.02, -187500.02, -187500.02, 0.000, 0.000, 0.000, 16:23:22.175
37, 40735.07, 60730.56, 187500.00, 187500.00, 187500.00, -187500.02, -187500.02, -187500.02, 0.000, 0.000, 0.000, 16:23:22.176
38, 40886.59, 60836.60, 187500.00, 187500.00, 187500.00, -187500.02, -187500.02, -187500.02, 0.000, 0.000, 0.000, 16:23:22.177
39, 40903.78, 60868.92, 187500.00, 187500.00, 187500.00, -187500.02, -187500.02, -187500.02, 0.000, 0.000, 0.000, 16:23:22.177
40, 40745.69, 60766.93, 187500.00, 187500.00, 187500.00, -187500.02, -187500.02, -187500.02, 0.002, -0.024, 1.024, 16:23:22.178
41, 40643.76, 60683.33, 187500.00, 187500.00, 187500.00, -187500.02, -187500.02, -187500.02, 0.000, 0.000, 0.000, 16:23:22.179
42, 40746.76, 60736.91, 187500.00, 187500.00, 187500.00, -187500.02, -187500.02, -187500.02, 0.000, 0.000, 0.000, 16:23:22.180
43, 40889.03, 60833.13, 187500.00, 187500.00, 187500.00, -187500.02, -187500.02, -187500.02, 0.000, 0.000, 0.000, 16:23:22.181
44, 40887.51, 60843.82, 187500.00, 187500.00, 187500.00, -187500.02, -187500.02, -187500.02, 0.000, 0.000, 0.000, 16:23:22.182
45, 40740.81, 60760.67, 187500.00, 187500.00, 187500.00, -187500.02, -187500.02, -187500.02, 0.000, 0.000, 0.000, 16:23:22.183
46, 40637.93, 60686.23, 187500.00, 187500.00, 187500.00, -187500.02, -187500.02, -187500.02, 0.000, 0.000, 0.000, 16:23:22.184
47, 40750.45, 60747.17, 187500.00, 187500.00, 187500.00, -187500.02, -187500.02, -187500.02, 0.000, 0.000, 0.000, 16:23:22.184
48, 40898.95, 60846.95, 187500.00, 187500.00, 187500.00, -187500.02, -187500.02, -187500.02, 0.000, 0.000, 0.000, 16:23:22.185
49, 40883.38, 60852.04, 187500.00, 187500.00, 187500.00, -187500.02, -187500.02, -187500.02, 0.000, 0.000, 0.000, 16:23:22.192
50, 40733.84, 60756.67, 187500.00, 187500.00, 187500.00, -187500.02, -187500.02, -187500.02, 0.004, -0.020, 1.020, 16:23:22.194
51, 40646.27, 60685.30, 187500.00, 187500.00, 187500.00, -187500.02, -187500.02, -187500.02, 0.000, 0.000, 0.000, 16:23:22.195
52, 40744.90, 60744.75, 187500.00, 187500.00, 187500.00, -187500.02, -187500.02, -187500.02, 0.000, 0.000, 0.000, 16:23:22.198
53, 40890.79, 60842.56, 187500.00, 187500.00, 187500.00, -187500.02, -187500.02, -187500.02, 0.000, 0.000, 0.000, 16:23:22.199
54, 40881.92, 60849.16, 187500.00, 187500.00, 187500.00, -187500.02, -187500.02, -187500.02, 0.000, 0.000, 0.000, 16:23:22.201
55, 40747.96, 60769.77, 187500.00, 187500.00, 187500.00, -187500.02, -187500.02, -187500.02, 0.000, 0.000, 0.000, 16:23:22.201
56, 40659.59, 60704.18, 187500.00, 187500.00, 187500.00, -187500.02, -187500.02, -187500.02, 0.000, 0.000, 0.000, 16:23:22.202
57, 40752.73, 60750.99, 187500.00, 187500.00, 187500.00, -187500.02, -187500.02, -187500.02, 0.000, 0.000, 0.000, 16:23:22.203
58, 40888.00, 60841.02, 187500.00, 187500.00, 187500.00, -187500.02, -187500.02, -187500.02, 0.000, 0.000, 0.000, 16:23:22.204
59, 40875.17, 60844.69, 187500.00, 187500.00, 187500.00, -187500.02, -187500.02, -187500.02, 0.000, 0.000, 0.000, 16:23:22.205
60, 40743.52, 60767.42, 187500.00, 187500.00, 187500.00, -187500.02, -187500.02, -187500.02, 0.010, -0.018, 1.024, 16:23:22.206
61, 40649.77, 60693.75, 187500.00, 187500.00, 187500.00, -187500.02, -187500.02, -187500.02, 0.000, 0.000, 0.000, 16:23:22.206
62, 40741.24, 60734.25, 187500.00, 187500.00, 187500.00, -187500.02, -187500.02, -187500.02, 0.000, 0.000, 0.000, 16:23:22.207
63, 40882.61, 60828.64, 187500.00, 187500.00, 187500.00, -187500.02, -187500.02, -187500.02, 0.000, 0.000, 0.000, 16:23:22.208
64, 40882.14, 60849.36, 187500.00, 187500.00, 187500.00, -187500.02, -187500.02, -187500.02, 0.000, 0.000, 0.000, 16:23:22.209
65, 40740.72, 60764.18, 187500.00, 187500.00, 187500.00, -187500.02, -187500.02, -187500.02, 0.000, 0.000, 0.000, 16:23:22.209
66, 40645.80, 60689.45, 187500.00, 187500.00, 187500.00, -187500.02, -187500.02, -187500.02, 0.000, 0.000, 0.000, 16:23:22.210
67, 40754.09, 60743.97, 187500.00, 187500.00, 187500.00, -187500.02, -187500.02, -187500.02, 0.000, 0.000, 0.000, 16:23:22.211
68, 40882.59, 60827.99, 187500.00, 187500.00, 187500.00, -187500.02, -187500.02, -187500.02, 0.000, 0.000, 0.000, 16:23:22.212
69, 40878.48, 60843.59, 187500.00, 187500.00, 187500.00, -187500.02, -187500.02, -187500.02, 0.000, 0.000, 0.000, 16:23:22.213
70, 40733.80, 60756.69, 187500.00, 187500.00, 187500.00, -187500.02, -187500.02, -187500.02, 0.008, -0.020, 1.024, 16:23:22.214
71, 40646.98, 60688.23, 187500.00, 187500.00, 187500.00, -187500.02, -187500.02, -187500.02, 0.000, 0.000, 0.000, 16:23:22.215
72, 40736.34, 60730.71, 187500.00, 187500.00, 187500.00, -187500.02, -187500.02, -187500.02, 0.000, 0.000, 0.000, 16:23:22.216
73, 40886.77, 60840.35, 187500.00, 187500.00, 187500.00, -187500.02, -187500.02, -187500.02, 0.000, 0.000, 0.000, 16:23:22.217
74, 40871.23, 60844.20, 187500.00, 187500.00, 187500.00, -187500.02, -187500.02, -187500.02, 0.000, 0.000, 0.000, 16:23:22.218
75, 40733.82, 60764.31, 187500.00, 187500.00, 187500.00, -187500.02, -187500.02, -187500.02, 0.000, 0.000, 0.000, 16:23:22.219
76, 40645.51, 60696.96, 187500.00, 187500.00, 187500.00, -187500.02, -187500.02, -187500.02, 0.000, 0.000, 0.000, 16:23:22.220
77, 40760.95, 60762.03, 187500.00, 187500.00, 187500.00, -187500.02, -187500.02, -187500.02, 0.000, 0.000, 0.000, 16:23:22.221
78, 40902.77, 60856.49, 187500.00, 187500.00, 187500.00, -187500.02, -187500.02, -187500.02, 0.000, 0.000, 0.000, 16:23:22.221
79, 40888.09, 60858.05, 187500.00, 187500.00, 187500.00, -187500.02, -187500.02, -187500.02, 0.000, 0.000, 0.000, 16:23:22.222
80, 40732.88, 60759.06, 187500.00, 187500.00, 187500.00, -187500.02, -187500.02, -187500.02, 0.004, -0.020, 1.022, 16:23:22.223
81, 40644.97, 60690.41, 187500.00, 187500.00, 187500.00, -187500.02, -187500.02, -187500.02, 0.000, 0.000, 0.000, 16:23:22.224
82, 40746.45, 60745.02, 187500.00, 187500.00, 187500.00, -187500.02, -187500.02, -187500.02, 0.000, 0.000, 0.000, 16:23:22.225
83, 40900.32, 60852.76, 187500.00, 187500.00, 187500.00, -187500.02, -187500.02, -187500.02, 0.000, 0.000, 0.000, 16:23:22.225
84, 40894.28, 60861.77, 187500.00, 187500.00, 187500.00, -187500.02, -187500.02, -187500.02, 0.000, 0.000, 0.000, 16:23:22.226
85, 40749.98, 60774.28, 187500.00, 187500.00, 187500.00, -187500.02, -187500.02, -187500.02, 0.000, 0.000, 0.000, 16:23:22.227
86, 40657.80, 60703.31, 187500.00, 187500.00, 187500.00, -187500.02, -187500.02, -187500.02, 0.000, 0.000, 0.000, 16:23:22.228
87, 40752.53, 60750.74, 187500.00, 187500.00, 187500.00, -187500.02, -187500.02, -187500.02, 0.000, 0.000, 0.000, 16:23:22.230
88, 40899.73, 60856.00, 187500.00, 187500.00, 187500.00, -187500.02, -187500.02, -187500.02, 0.000, 0.000, 0.000, 16:23:22.231
89, 40900.54, 60868.65, 187500.00, 187500.00, 187500.00, -187500.02, -187500.02, -187500.02, 0.000, 0.000, 0.000, 16:23:22.597
90, 40756.26, 60775.91, 187500.00, 187500.00, 187500.00, -187500.02, -187500.02, -187500.02, 0.004, -0.020, 1.024, 16:23:22.598
91, 40659.74, 60705.73, 187500.00, 187500.00, 187500.00, -187500.02, -187500.02, -187500.02, 0.000, 0.000, 0.000, 16:23:22.599
92, 40746.13, 60750.61, 187500.00, 187500.00, 187500.00, -187500.02, -187500.02, -187500.02, 0.000, 0.000, 0.000, 16:23:22.600
93, 40882.30, 60838.32, 187500.00, 187500.00, 187500.00, -187500.02, -187500.02, -187500.02, 0.000, 0.000, 0.000, 16:23:22.600
94, 40896.29, 60869.18, 187500.00, 187500.00, 187500.00, -187500.02, -187500.02, -187500.02, 0.000, 0.000, 0.000, 16:23:22.601
95, 40747.34, 60779.82, 187500.00, 187500.00, 187500.00, -187500.02, -187500.02, -187500.02, 0.000, 0.000, 0.000, 16:23:22.602
96, 40644.59, 60704.92, 187500.00, 187500.00, 187500.00, -187500.02, -187500.02, -187500.02, 0.000, 0.000, 0.000, 16:23:22.603
97, 40740.30, 60751.17, 187500.00, 187500.00, 187500.00, -187500.02, -187500.02, -187500.02, 0.000, 0.000, 0.000, 16:23:22.604
98, 40886.03, 60845.67, 187500.00, 187500.00, 187500.00, -187500.02, -187500.02, -187500.02, 0.000, 0.000, 0.000, 16:23:22.605
99, 40884.49, 60861.99, 187500.00, 187500.00, 187500.00, -187500.02, -187500.02, -187500.02, 0.006, -0.022, 1.024, 16:23:22.605
100, 40747.79, 60781.86, 187500.00, 187500.00, 187500.00, -187500.02, -187500.02, -187500.02, 0.000, 0.000, 0.000, 16:23:22.606
101, 40666.56, 60722.69, 187500.00, 187500.00, 187500.00, -187500.02, -187500.02, -187500.02, 0.000, 0.000, 0.000, 16:23:22.607
102, 40752.21, 60758.16, 187500.00, 187500.00, 187500.00, -187500.02, -187500.02, -187500.02, 0.000, 0.000, 0.000, 16:23:22.608
103, 40900.02, 60858.32, 187500.00, 187500.00, 187500.00, -187500.02, -187500.02, -187500.02, 0.000, 0.000, 0.000, 16:23:22.609
104, 40893.10, 60870.68, 187500.00, 187500.00, 187500.00, -187500.02, -187500.02, -187500.02, 0.000, 0.000, 0.000, 16:23:22.610
105, 40744.08, 60774.79, 187500.00, 187500.00, 187500.00, -187500.02, -187500.02, -187500.02, 0.000, 0.000, 0.000, 16:23:22.610
106, 40663.12, 60711.40, 187500.00, 187500.00, 187500.00, -187500.02, -187500.02, -187500.02, 0.000, 0.000, 0.000, 16:23:22.611
107, 40759.59, 60759.21, 187500.00, 187500.00, 187500.00, -187500.02, -187500.02, -187500.02, 0.000, 0.000, 0.000, 16:23:22.612
108, 40910.48, 60862.70, 187500.00, 187500.00, 187500.00, -187500.02, -187500.02, -187500.02, 0.000, 0.000, 0.000, 16:23:22.612
109, 40914.84, 60885.32, 187500.00, 187500.00, 187500.00, -187500.02, -187500.02, -187500.02, 0.006, -0.020, 1.016, 16:23:22.613
110, 40767.37, 60793.43, 187500.00, 187500.00, 187500.00, -187500.02, -187500.02, -187500.02, 0.000, 0.000, 0.000, 16:23:22.614
111, 40667.90, 60717.17, 187500.00, 187500.00, 187500.00, -187500.02, -187500.02, -187500.02, 0.000, 0.000, 0.000, 16:23:22.615
112, 40756.64, 60761.38, 187500.00, 187500.00, 187500.00, -187500.02, -187500.02, -187500.02, 0.000, 0.000, 0.000, 16:23:22.616
113, 40905.52, 60859.46, 187500.00, 187500.00, 187500.00, -187500.02, -187500.02, -187500.02, 0.000, 0.000, 0.000, 16:23:22.617
114, 40909.30, 60880.29, 187500.00, 187500.00, 187500.00, -187500.02, -187500.02, -187500.02, 0.000, 0.000, 0.000, 16:23:22.618
115, 40770.21, 60798.71, 187500.00, 187500.00, 187500.00, -187500.02, -187500.02, -187500.02, 0.000, 0.000, 0.000, 16:23:22.618
116, 40652.37, 60705.44, 187500.00, 187500.00, 187500.00, -187500.02, -187500.02, -187500.02, 0.000, 0.000, 0.000, 16:23:22.619
117, 40737.42, 60744.77, 187500.00, 187500.00, 187500.00, -187500.02, -187500.02, -187500.02, 0.000, 0.000, 0.000, 16:23:22.619
118, 40890.79, 60846.61, 187500.00, 187500.00, 187500.00, -187500.02, -187500.02, -187500.02, 0.000, 0.000, 0.000, 16:23:22.620
119, 40887.53, 60865.56, 187500.00, 187500.00, 187500.00, -187500.02, -187500.02, -187500.02, 0.010, -0.022, 1.018, 16:23:22.620
120, 40759.99, 60791.51, 187500.00, 187500.00, 187500.00, -187500.02, -187500.02, -187500.02, 0.000, 0.000, 0.000, 16:23:22.621
121, 40669.31, 60717.37, 187500.00, 187500.00, 187500.00, -187500.02, -187500.02, -187500.02, 0.000, 0.000, 0.000, 16:23:22.622
122, 40759.16, 60765.18, 187500.00, 187500.00, 187500.00, -187500.02, -187500.02, -187500.02, 0.000, 0.000, 0.000, 16:23:22.622
123, 40903.45, 60867.06, 187500.00, 187500.00, 187500.00, -187500.02, -187500.02, -187500.02, 0.000, 0.000, 0.000, 16:23:22.623
124, 40897.37, 60875.69, 187500.00, 187500.00, 187500.00, -187500.02, -187500.02, -187500.02, 0.000, 0.000, 0.000, 16:23:22.624
125, 40767.28, 60809.10, 187500.00, 187500.00, 187500.00, -187500.02, -187500.02, -187500.02, 0.000, 0.000, 0.000, 16:23:22.624
126, 40677.78, 60736.62, 187500.00, 187500.00, 187500.00, -187500.02, -187500.02, -187500.02, 0.000, 0.000, 0.000, 16:23:22.625
127, 40751.45, 60762.10, 187500.00, 187500.00, 187500.00, -187500.02, -187500.02, -187500.02, 0.000, 0.000, 0.000, 16:23:22.626
128, 40892.74, 60854.16, 187500.00, 187500.00, 187500.00, -187500.02, -187500.02, -187500.02, 0.000, 0.000, 0.000, 16:23:22.626
129, 40892.45, 60870.84, 187500.00, 187500.00, 187500.00, -187500.02, -187500.02, -187500.02, 0.008, -0.020, 1.022, 16:23:22.627
130, 40755.10, 60789.68, 187500.00, 187500.00, 187500.00, -187500.02, -187500.02, -187500.02, 0.000, 0.000, 0.000, 16:23:22.627
131, 40666.52, 60721.26, 187500.00, 187500.00, 187500.00, -187500.02, -187500.02, -187500.02, 0.000, 0.000, 0.000, 16:23:22.628
132, 40755.27, 60763.28, 187500.00, 187500.00, 187500.00, -187500.02, -187500.02, -187500.02, 0.000, 0.000, 0.000, 16:23:22.629
133, 40935.27, 60897.15, 187500.00, 187500.00, 187500.00, -187500.02, -187500.02, -187500.02, 0.000, 0.000, 0.000, 16:23:22.630
134, 40912.32, 60890.87, 187500.00, 187500.00, 187500.00, -187500.02, -187500.02, -187500.02, 0.000, 0.000, 0.000, 16:23:22.631
135, 40758.83, 60795.38, 187500.00, 187500.00, 187500.00, -187500.02, -187500.02, -187500.02, 0.000, 0.000, 0.000, 16:23:22.631
136, 40670.07, 60725.75, 187500.00, 187500.00, 187500.00, -187500.02, -187500.02, -187500.02, 0.000, 0.000, 0.000, 16:23:22.632
137, 40764.60, 60770.05, 187500.00, 187500.00, 187500.00, -187500.02, -187500.02, -187500.02, 0.000, 0.000, 0.000, 16:23:22.633
138, 40908.92, 60861.83, 187500.00, 187500.00, 187500.00, -187500.02, -187500.02, -187500.02, 0.000, 0.000, 0.000, 16:23:22.633
139, 40908.61, 60875.84, 187500.00, 187500.00, 187500.00, -187500.02, -187500.02, -187500.02, 0.008, -0.026, 1.018, 16:23:22.634
140, 40761.64, 60789.48, 187500.00, 187500.00, 187500.00, -187500.02, -187500.02, -187500.02, 0.000, 0.000, 0.000, 16:23:22.635
141, 40657.69, 60712.52, 187500.00, 187500.00, 187500.00, -187500.02, -187500.02, -187500.02, 0.000, 0.000, 0.000, 16:23:22.635
142, 40758.85, 60766.23, 187500.00, 187500.00, 187500.00, -187500.02, -187500.02, -187500.02, 0.000, 0.000, 0.000, 16:23:22.636
143, 40896.52, 60854.95, 187500.00, 187500.00, 187500.00, -187500.02, -187500.02, -187500.02, 0.000, 0.000, 0.000, 16:23:22.636
144, 40905.90, 60881.46, 187500.00, 187500.00, 187500.00, -187500.02, -187500.02, -187500.02, 0.000, 0.000, 0.000, 16:23:22.637
145, 40764.24, 60793.93, 187500.00, 187500.00, 187500.00, -187500.02, -187500.02, -187500.02, 0.000, 0.000, 0.000, 16:23:22.638
146, 40652.21, 60702.82, 187500.00, 187500.00, 187500.00, -187500.02, -187500.02, -187500.02, 0.000, 0.000, 0.000, 16:23:22.638
147, 40746.36, 60752.60, 187500.00, 187500.00, 187500.00, -187500.02, -187500.02, -187500.02, 0.000, 0.000, 0.000, 16:23:22.639
148, 40911.65, 60867.42, 187500.00, 187500.00, 187500.00, -187500.02, -187500.02, -187500.02, 0.000, 0.000, 0.000, 16:23:22.640
149, 40925.80, 60893.28, 187500.00, 187500.00, 187500.00, -187500.02, -187500.02, -187500.02, 0.008, -0.018, 1.026, 16:23:22.641
150, 40763.41, 60791.42, 187500.00, 187500.00, 187500.00, -187500.02, -187500.02, -187500.02, 0.000, 0.000, 0.000, 16:23:22.642
151, 40656.01, 60711.20, 187500.00, 187500.00, 187500.00, -187500.02, -187500.02, -187500.02, 0.000, 0.000, 0.000, 16:23:22.643
152, 40758.02, 60767.62, 187500.00, 187500.00, 187500.00, -187500.02, -187500.02, -187500.02, 0.000, 0.000, 0.000, 16:23:22.644
153, 40916.68, 60877.61, 187500.00, 187500.00, 187500.00, -187500.02, -187500.02, -187500.02, 0.000, 0.000, 0.000, 16:23:22.644
154, 40915.18, 60891.43, 187500.00, 187500.00, 187500.00, -187500.02, -187500.02, -187500.02, 0.000, 0.000, 0.000, 16:23:22.648
155, 40775.62, 60805.71, 187500.00, 187500.00, 187500.00, -187500.02, -187500.02, -187500.02, 0.000, 0.000, 0.000, 16:23:22.649
156, 40669.38, 60727.09, 187500.00, 187500.00, 187500.00, -187500.02, -187500.02, -187500.02, 0.000, 0.000, 0.000, 16:23:22.650
157, 40757.85, 60771.22, 187500.00, 187500.00, 187500.00, -187500.02, -187500.02, -187500.02, 0.000, 0.000, 0.000, 16:23:22.651
158, 40900.63, 60867.26, 187500.00, 187500.00, 187500.00, -187500.02, -187500.02, -187500.02, 0.000, 0.000, 0.000, 16:23:22.652
159, 40901.25, 60882.30, 187500.00, 187500.00, 187500.00, -187500.02, -187500.02, -187500.02, 0.010, -0.022, 1.026, 16:23:22.652
160, 40770.36, 60803.80, 187500.00, 187500.00, 187500.00, -187500.02, -187500.02, -187500.02, 0.000, 0.000, 0.000, 16:23:22.653
161, 40665.71, 60724.88, 187500.00, 187500.00, 187500.00, -187500.02, -187500.02, -187500.02, 0.000, 0.000, 0.000, 16:23:22.654
162, 40746.85, 60766.81, 187500.00, 187500.00, 187500.00, -187500.02, -187500.02, -187500.02, 0.000, 0.000, 0.000, 16:23:22.654
163, 40900.98, 60876.70, 187500.00, 187500.00, 187500.00, -187500.02, -187500.02, -187500.02, 0.000, 0.000, 0.000, 16:23:22.655
164, 40907.45, 60890.57, 187500.00, 187500.00, 187500.00, -187500.02, -187500.02, -187500.02, 0.000, 0.000, 0.000, 16:23:22.655
165, 40760.26, 60798.78, 187500.00, 187500.00, 187500.00, -187500.02, -187500.02, -187500.02, 0.000, 0.000, 0.000, 16:23:22.656
166, 40667.34, 60732.84, 187500.00, 187500.00, 187500.00, -187500.02, -187500.02, -187500.02, 0.000, 0.000, 0.000, 16:23:22.657
167, 40762.79, 60782.57, 187500.00, 187500.00, 187500.00, -187500.02, -187500.02, -187500.02, 0.000, 0.000, 0.000, 16:23:22.657
168, 40900.29, 60869.43, 187500.00, 187500.00, 187500.00, -187500.02, -187500.02, -187500.02, 0.000, 0.000, 0.000, 16:23:22.658
169, 40908.79, 60890.08, 187500.00, 187500.00, 187500.00, -187500.02, -187500.02, -187500.02, 0.012, -0.022, 1.026, 16:23:22.658
170, 40770.45, 60807.49, 187500.00, 187500.00, 187500.00, -187500.02, -187500.02, -187500.02, 0.000, 0.000, 0.000, 16:23:22.659
171, 40666.50, 60730.36, 187500.00, 187500.00, 187500.00, -187500.02, -187500.02, -187500.02, 0.000, 0.000, 0.000, 16:23:22.660
172, 40757.55, 60776.58, 187500.00, 187500.00, 187500.00, -187500.02, -187500.02, -187500.02, 0.000, 0.000, 0.000, 16:23:22.660
173, 40910.57, 60880.61, 187500.00, 187500.00, 187500.00, -187500.02, -187500.02, -187500.02, 0.000, 0.000, 0.000, 16:23:22.661
174, 40920.41, 60901.82, 187500.00, 187500.00, 187500.00, -187500.02, -187500.02, -187500.02, 0.000, 0.000, 0.000, 16:23:22.662
175, 40774.81, 60813.93, 187500.00, 187500.00, 187500.00, -187500.02, -187500.02, -187500.02, 0.000, 0.000, 0.000, 16:23:22.662
176, 40671.61, 60739.32, 187500.00, 187500.00, 187500.00, -187500.02, -187500.02, -187500.02, 0.000, 0.000, 0.000, 16:23:22.663
177, 40761.89, 60785.54, 187500.00, 187500.00, 187500.00, -187500.02, -187500.02, -187500.02, 0.000, 0.000, 0.000, 16:23:22.664
178, 40905.50, 60878.86, 187500.00, 187500.00, 187500.00, -187500.02, -187500.02, -187500.02, 0.000, 0.000, 0.000, 16:23:22.665
179, 40927.47, 60913.96, 187500.00, 187500.00, 187500.00, -187500.02, -187500.02, -187500.02, 0.008, -0.022, 1.030, 16:23:22.666
180, 40779.77, 60825.13, 187500.00, 187500.00, 187500.00, -187500.02, -187500.02, -187500.02, 0.000, 0.000, 0.000, 16:23:22.668
181, 40674.56, 60743.08, 187500.00, 187500.00, 187500.00, -187500.02, -187500.02, -187500.02, 0.000, 0.000, 0.000, 16:23:22.669
182, 40777.43, 60799.34, 187500.00, 187500.00, 187500.00, -187500.02, -187500.02, -187500.02, 0.000, 0.000, 0.000, 16:23:22.670
183, 40929.77, 60906.94, 187500.00, 187500.00, 187500.00, -187500.02, -187500.02, -187500.02, 0.000, 0.000, 0.000, 16:23:22.671
184, 40921.53, 60919.30, 187500.00, 187500.00, 187500.00, -187500.02, -187500.02, -187500.02, 0.000, 0.000, 0.000, 16:23:22.671
185, 40768.73, 60825.31, 187500.00, 187500.00, 187500.00, -187500.02, -187500.02, -187500.02, 0.000, 0.000, 0.000, 16:23:22.672
186, 40672.89, 60750.90, 187500.00, 187500.00, 187500.00, -187500.02, -187500.02, -187500.02, 0.000, 0.000, 0.000, 16:23:22.672
187, 40756.97, 60785.63, 187500.00, 187500.00, 187500.00, -187500.02, -187500.02, -187500.02, 0.000, 0.000, 0.000, 16:23:22.673
188, 40903.63, 60885.41, 187500.00, 187500.00, 187500.00, -187500.02, -187500.02, -187500.02, 0.000, 0.000, 0.000, 16:23:22.673
189, 40934.78, 60934.05, 187500.00, 187500.00, 187500.00, -187500.02, -187500.02, -187500.02, 0.010, -0.024, 1.034, 16:23:22.674
190, 40790.50, 60842.79, 187500.00, 187500.00, 187500.00, -187500.02, -187500.02, -187500.02, 0.000, 0.000, 0.000, 16:23:22.675
191, 40678.52, 60751.68, 187500.00, 187500.00, 187500.00, -187500.02, -187500.02, -187500.02, 0.000, 0.000, 0.000, 16:23:22.676
192, 40752.32, 60783.96, 187500.00, 187500.00, 187500.00, -187500.02, -187500.02, -187500.02, 0.000, 0.000, 0.000, 16:23:22.676
193, 40901.32, 60883.42, 187500.00, 187500.00, 187500.00, -187500.02, -187500.02, -187500.02, 0.000, 0.000, 0.000, 16:23:22.677
194, 40914.06, 60910.34, 187500.00, 187500.00, 187500.00, -187500.02, -187500.02, -187500.02, 0.000, 0.000, 0.000, 16:23:22.677
195, 40765.36, 60817.51, 187500.00, 187500.00, 187500.00, -187500.02, -187500.02, -187500.02, 0.000, 0.000, 0.000, 16:23:22.678
196, 40673.65, 60747.28, 187500.00, 187500.00, 187500.00, -187500.02, -187500.02, -187500.02, 0.000, 0.000, 0.000, 16:23:22.678
197, 40750.27, 60779.44, 187500.00, 187500.00, 187500.00, -187500.02, -187500.02, -187500.02, 0.000, 0.000, 0.000, 16:23:22.679
198, 40890.75, 60867.89, 187500.00, 187500.00, 187500.00, -187500.02, -187500.02, -187500.02, 0.000, 0.000, 0.000, 16:23:22.680
199, 40911.83, 60900.48, 187500.00, 187500.00, 187500.00, -187500.02, -187500.02, -187500.02, 0.004, -0.020, 1.032, 16:23:22.680
200, 40783.89, 60826.70, 187500.00, 187500.00, 187500.00, -187500.02, -187500.02, -187500.02, 0.000, 0.000, 0.000, 16:23:22.681
201, 40679.12, 60743.32, 187500.00, 187500.00, 187500.00, -187500.02, -187500.02, -187500.02, 0.000, 0.000, 0.000, 16:23:22.681
202, 40771.84, 60786.37, 187500.00, 187500.00, 187500.00, -187500.02, -187500.02, -187500.02, 0.000, 0.000, 0.000, 16:23:22.682
203, 40911.54, 60880.96, 187500.00, 187500.00, 187500.00, -187500.02, -187500.02, -187500.02, 0.000, 0.000, 0.000, 16:23:22.682
204, 40910.51, 60897.28, 187500.00, 187500.00, 187500.00, -187500.02, -187500.02, -187500.02, 0.000, 0.000, 0.000, 16:23:22.683
205, 40757.53, 60796.30, 187500.00, 187500.00, 187500.00, -187500.02, -187500.02, -187500.02, 0.000, 0.000, 0.000, 16:23:22.683
206, 40657.51, 60734.76, 187500.00, 187500.00, 187500.00, -187500.02, -187500.02, -187500.02, 0.000, 0.000, 0.000, 16:23:22.684
207, 40751.25, 60785.32, 187500.00, 187500.00, 187500.00, -187500.02, -187500.02, -187500.02, 0.000, 0.000, 0.000, 16:23:22.684
208, 40916.41, 60895.29, 187500.00, 187500.00, 187500.00, -187500.02, -187500.02, -187500.02, 0.000, 0.000, 0.000, 16:23:22.685
209, 40925.62, 60916.68, 187500.00, 187500.00, 187500.00, -187500.02, -187500.02, -187500.02, 0.006, -0.020, 1.028, 16:23:23.078
210, 40765.65, 60818.40, 187500.00, 187500.00, 187500.00, -187500.02, -187500.02, -187500.02, 0.000, 0.000, 0.000, 16:23:23.079
211, 40656.82, 60737.55, 187500.00, 187500.00, 187500.00, -187500.02, -187500.02, -187500.02, 0.000, 0.000, 0.000, 16:23:23.079
212, 40744.84, 60776.47, 187500.00, 187500.00, 187500.00, -187500.02, -187500.02, -187500.02, 0.000, 0.000, 0.000, 16:23:23.080
213, 40900.02, 60877.45, 187500.00, 187500.00, 187500.00, -187500.02, -187500.02, -187500.02, 0.000, 0.000, 0.000, 16:23:23.080
214, 40908.14, 60899.49, 187500.00, 187500.00, 187500.00, -187500.02, -187500.02, -187500.02, 0.000, 0.000, 0.000, 16:23:23.081
215, 40771.01, 60821.64, 187500.00, 187500.00, 187500.00, -187500.02, -187500.02, -187500.02, 0.000, 0.000, 0.000, 16:23:23.081
216, 40671.43, 60747.59, 187500.00, 187500.00, 187500.00, -187500.02, -187500.02, -187500.02, 0.000, 0.000, 0.000, 16:23:23.082
217, 40759.61, 60790.80, 187500.00, 187500.00, 187500.00, -187500.02, -187500.02, -187500.02, 0.000, 0.000, 0.000, 16:23:23.083
218, 40903.47, 60884.05, 187500.00, 187500.00, 187500.00, -187500.02, -187500.02, -187500.02, 0.002, -0.018, 1.030, 16:23:23.083
219, 40903.60, 60903.34, 187500.00, 187500.00, 187500.00, -187500.02, -187500.02, -187500.02, 0.000, 0.000, 0.000, 16:23:23.084
220, 40771.19, 60825.84, 187500.00, 187500.00, 187500.00, -187500.02, -187500.02, -187500.02, 0.000, 0.000, 0.000, 16:23:23.085
221, 40669.31, 60747.77, 187500.00, 187500.00, 187500.00, -187500.02, -187500.02, -187500.02, 0.000, 0.000, 0.000, 16:23:23.085
222, 40744.39, 60777.30, 187500.00, 187500.00, 187500.00, -187500.02, -187500.02, -187500.02, 0.000, 0.000, 0.000, 16:23:23.086
223, 40894.84, 60877.66, 187500.00, 187500.00, 187500.00, -187500.02, -187500.02, -187500.02, 0.000, 0.000, 0.000, 16:23:23.087
224, 40922.22, 60914.22, 187500.00, 187500.00, 187500.00, -187500.02, -187500.02, -187500.02, 0.000, 0.000, 0.000, 16:23:23.087
225, 40782.57, 60831.72, 187500.00, 187500.00, 187500.00, -187500.02, -187500.02, -187500.02, 0.000, 0.000, 0.000, 16:23:23.088
226, 40665.11, 60740.48, 187500.00, 187500.00, 187500.00, -187500.02, -187500.02, -187500.02, 0.000, 0.000, 0.000, 16:23:23.091
227, 40753.58, 60784.89, 187500.00, 187500.00, 187500.00, -187500.02, -187500.02, -187500.02, 0.000, 0.000, 0.000, 16:23:23.092
228, 40914.20, 60891.83, 187500.00, 187500.00, 187500.00, -187500.02, -187500.02, -187500.02, 0.008, -0.018, 1.028, 16:23:23.092
229, 40917.32, 60907.29, 187500.00, 187500.00, 187500.00, -187500.02, -187500.02, -187500.02, 0.000, 0.000, 0.000, 16:23:23.093
230, 40767.48, 60816.66, 187500.00, 187500.00, 187500.00, -187500.02, -187500.02, -187500.02, 0.000, 0.000, 0.000, 16:23:23.094
231, 40656.66, 60737.87, 187500.00, 187500.00, 187500.00, -187500.02, -187500.02, -187500.02, 0.000, 0.000, 0.000, 16:23:23.094
232, 40737.57, 60776.27, 187500.00, 187500.00, 187500.00, -187500.02, -187500.02, -187500.02, 0.000, 0.000, 0.000, 16:23:23.095
233, 40903.18, 60882.82, 187500.00, 187500.00, 187500.00, -187500.02, -187500.02, -187500.02, 0.000, 0.000, 0.000, 16:23:23.096
234, 40920.90, 60911.88, 187500.00, 187500.00, 187500.00, -187500.02, -187500.02, -187500.02, 0.000, 0.000, 0.000, 16:23:23.097
235, 40770.16, 60822.18, 187500.00, 187500.00, 187500.00, -187500.02, -187500.02, -187500.02, 0.000, 0.000, 0.000, 16:23:23.097
236, 40671.97, 60744.98, 187500.00, 187500.00, 187500.00, -187500.02, -187500.02, -187500.02, 0.000, 0.000, 0.000, 16:23:23.098
237, 40745.04, 60778.66, 187500.00, 187500.00, 187500.00, -187500.02, -187500.02, -187500.02, 0.000, 0.000, 0.000, 16:23:23.099
238, 40905.95, 60888.45, 187500.00, 187500.00, 187500.00, -187500.02, -187500.02, -187500.02, 0.008, -0.020, 1.032, 16:23:23.100
239, 40928.97, 60924.73, 187500.00, 187500.00, 187500.00, -187500.02, -187500.02, -187500.02, 0.000, 0.000, 0.000, 16:23:23.100
240, 40785.23, 60836.44, 187500.00, 187500.00, 187500.00, -187500.02, -187500.02, -187500.02, 0.000, 0.000, 0.000, 16:23:23.101
241, 40661.75, 60739.61, 187500.00, 187500.00, 187500.00, -187500.02, -187500.02, -187500.02, 0.000, 0.000, 0.000, 16:23:23.101
242, 40732.21, 60767.55, 187500.00, 187500.00, 187500.00, -187500.02, -187500.02, -187500.02, 0.000, 0.000, 0.000, 16:23:23.102
243, 40886.50, 60865.56, 187500.00, 187500.00, 187500.00, -187500.02, -187500.02, -187500.02, 0.000, 0.000, 0.000, 16:23:23.103
244, 40907.40, 60893.44, 187500.00, 187500.00, 187500.00, -187500.02, -187500.02, -187500.02, 0.000, 0.000, 0.000, 16:23:23.104
245, 40768.08, 60814.33, 187500.00, 187500.00, 187500.00, -187500.02, -187500.02, -187500.02, 0.000, 0.000, 0.000, 16:23:23.105
246, 40656.44, 60728.66, 187500.00, 187500.00, 187500.00, -187500.02, -187500.02, -187500.02, 0.000, 0.000, 0.000, 16:23:23.105
247, 40762.90, 60787.45, 187500.00, 187500.00, 187500.00, -187500.02, -187500.02, -187500.02, 0.000, 0.000, 0.000, 16:23:23.106
248, 40907.22, 60880.99, 187500.00, 187500.00, 187500.00, -187500.02, -187500.02, -187500.02, 0.004, -0.024, 1.030, 16:23:23.107
249, 40908.03, 60896.27, 187500.00, 187500.00, 187500.00, -187500.02, -187500.02, -187500.02, 0.000, 0.000, 0.000, 16:23:23.108
250, 40779.15, 60824.32, 187500.00, 187500.00, 187500.00, -187500.02, -187500.02, -187500.02, 0.000, 0.000, 0.000, 16:23:23.108
251, 40661.49, 60741.60, 187500.00, 187500.00, 187500.00, -187500.02, -187500.02, -187500.02, 0.000, 0.000, 0.000, 16:23:23.109
252, 40750.43, 60783.46, 187500.00, 187500.00, 187500.00, -187500.02, -187500.02, -187500.02, 0.000, 0.000, 0.000, 16:23:23.110
253, 40907.20, 60883.73, 187500.00, 187500.00, 187500.00, -187500.02, -187500.02, -187500.02, 0.000, 0.000, 0.000, 16:23:23.111
254, 40907.89, 60893.37, 187500.00, 187500.00, 187500.00, -187500.02, -187500.02, -187500.02, 0.000, 0.000, 0.000, 16:23:23.111
255, 40767.30, 60808.43, 187500.00, 187500.00, 187500.00, -187500.02, -187500.02, -187500.02, 0.000, 0.000, 0.000, 16:23:23.112
0, 40673.38, 60740.62, 187500.00, 187500.00, 187500.00, -187500.02, -187500.02, -187500.02, 0.000, 0.000, 0.000, 16:23:23.113
1, 40759.84, 60783.53, 187500.00, 187500.00, 187500.00, -187500.02, -187500.02, -187500.02, 0.000, 0.000, 0.000, 16:23:23.114
2, 40896.00, 60871.26, 187500.00, 187500.00, 187500.00, -187500.02, -187500.02, -187500.02, 0.006, -0.022, 1.034, 16:23:23.115
3, 40908.59, 60897.48, 187500.00, 187500.00, 187500.00, -187500.02, -187500.02, -187500.02, 0.000, 0.000, 0.000, 16:23:23.116
4, 40778.05, 60823.41, 187500.00, 187500.00, 187500.00, -187500.02, -187500.02, -187500.02, 0.000, 0.000, 0.000, 16:23:23.117
5, 40663.50, 60736.30, 187500.00, 187500.00, 187500.00, -187500.02, -187500.02, -187500.02, 0.000, 0.000, 0.000, 16:23:23.118
6, 40735.74, 60764.20, 187500.00, 187500.00, 187500.00, -187500.02, -187500.02, -187500.02, 0.000, 0.000, 0.000, 16:23:23.119
7, 40894.10, 60871.69, 187500.00, 187500.00, 187500.00, -187500.02, -187500.02, -187500.02, 0.000, 0.000, 0.000, 16:23:23.119
8, 40918.55, 60907.43, 187500.00, 187500.00, 187500.00, -187500.02, -187500.02, -187500.02, 0.000, 0.000, 0.000, 16:23:23.120
9, 40783.98, 60832.86, 187500.00, 187500.00, 187500.00, -187500.02, -187500.02, -187500.02, 0.000, 0.000, 0.000, 16:23:23.121
10, 40671.21, 60748.48, 187500.00, 187500.00, 187500.00, -187500.02, -187500.02, -187500.02, 0.000, 0.000, 0.000, 16:23:23.122
11, 40753.84, 60787.45, 187500.00, 187500.00, 187500.00, -187500.02, -187500.02, -187500.02, 0.000, 0.000, 0.000, 16:23:23.123
12, 40895.38, 60876.79, 187500.00, 187500.00, 187500.00, -187500.02, -187500.02, -187500.02, 0.008, -0.020, 1.034, 16:23:23.124
13, 40909.55, 60904.41, 187500.00, 187500.00, 187500.00, -187500.02, -187500.02, -187500.02, 0.000, 0.000, 0.000, 16:23:23.124
14, 40776.93, 60828.95, 187500.00, 187500.00, 187500.00, -187500.02, -187500.02, -187500.02, 0.000, 0.000, 0.000, 16:23:23.125
15, 40663.43, 60746.92, 187500.00, 187500.00, 187500.00, -187500.02, -187500.02, -187500.02, 0.000, 0.000, 0.000, 16:23:23.127
16, 40732.45, 60772.60, 187500.00, 187500.00, 187500.00, -187500.02, -187500.02, -187500.02, 0.000, 0.000, 0.000, 16:23:23.128
17, 40881.38, 60868.04, 187500.00, 187500.00, 187500.00, -187500.02, -187500.02, -187500.02, 0.000, 0.000, 0.000, 16:23:23.128
18, 40900.92, 60898.18, 187500.00, 187500.00, 187500.00, -187500.02, -187500.02, -187500.02, 0.000, 0.000, 0.000, 16:23:23.129
19, 40764.33, 60812.68, 187500.00, 187500.00, 187500.00, -187500.02, -187500.02, -187500.02, 0.000, 0.000, 0.000, 16:23:23.130
20, 40660.04, 60729.80, 187500.00, 187500.00, 187500.00, -187500.02, -187500.02, -187500.02, 0.000, 0.000, 0.000, 16:23:23.131
21, 40735.98, 60764.73, 187500.00, 187500.00, 187500.00, -187500.02, -187500.02, -187500.02, 0.000, 0.000, 0.000, 16:23:23.132
22, 40892.27, 60867.31, 187500.00, 187500.00, 187500.00, -187500.02, -187500.02, -187500.02, 0.004, -0.022, 1.026, 16:23:23.133
23, 40931.23, 60916.64, 187500.00, 187500.00, 187500.00, -187500.02, -187500.02, -187500.02, 0.000, 0.000, 0.000, 16:23:23.134
24, 40792.36, 60835.57, 187500.00, 187500.00, 187500.00, -187500.02, -187500.02, -187500.02, 0.000, 0.000, 0.000, 16:23:23.135
25, 40667.16, 60742.03, 187500.00, 187500.00, 187500.00, -187500.02, -187500.02, -187500.02, 0.000, 0.000, 0.000, 16:23:23.135
26, 40747.52, 60778.46, 187500.00, 187500.00, 187500.00, -187500.02, -187500.02, -187500.02, 0.000, 0.000, 0.000, 16:23:23.136
27, 40905.81, 60883.16, 187500.00, 187500.00, 187500.00, -187500.02, -187500.02, -187500.02, 0.000, 0.000, 0.000, 16:23:23.137
28, 40913.37, 60904.32, 187500.00, 187500.00, 187500.00, -187500.02, -187500.02, -187500.02, 0.000, 0.000, 0.000, 16:23:23.137
29, 40766.70, 60815.92, 187500.00, 187500.00, 187500.00, -187500.02, -187500.02, -187500.02, 0.000, 0.000, 0.000, 16:23:23.138
30, 40646.78, 60729.26, 187500.00, 187500.00, 187500.00, -187500.02, -187500.02, -187500.02, 0.000, 0.000, 0.000, 16:23:23.139
31, 40742.33, 60779.29, 187500.00, 187500.00, 187500.00, -187500.02, -187500.02, -187500.02, 0.000, 0.000, 0.000, 16:23:23.139
32, 40907.27, 60887.16, 187500.00, 187500.00, 187500.00, -187500.02, -187500.02, -187500.02, 0.006, -0.020, 1.024, 16:23:23.140
33, 40914.02, 60904.48, 187500.00, 187500.00, 187500.00, -187500.02, -187500.02, -187500.02, 0.000, 0.000, 0.000, 16:23:23.140
34, 40773.63, 60819.90, 187500.00, 187500.00, 187500.00, -187500.02, -187500.02, -187500.02, 0.000, 0.000, 0.000, 16:23:23.141
35, 40662.76, 60734.56, 187500.00, 187500.00, 187500.00, -187500.02, -187500.02, -187500.02, 0.000, 0.000, 0.000, 16:23:23.142
36, 40738.96, 60770.97, 187500.00, 187500.00, 187500.00, -187500.02, -187500.02, -187500.02, 0.000, 0.000, 0.000, 16:23:23.142
37, 40893.66, 60874.55, 187500.00, 187500.00, 187500.00, -187500.02, -187500.02, -187500.02, 0.000, 0.000, 0.000, 16:23:23.143
38, 40914.84, 60905.15, 187500.00, 187500.00, 187500.00, -187500.02, -187500.02, -187500.02, 0.000, 0.000, 0.000, 16:23:23.144
39, 40787.84, 60835.43, 187500.00, 187500.00, 187500.00, -187500.02, -187500.02, -187500.02, 0.000, 0.000, 0.000, 16:23:23.144
40, 40672.20, 60748.33, 187500.00, 187500.00, 187500.00, -187500.02, -187500.02, -187500.02, 0.000, 0.000, 0.000, 16:23:23.145
41, 40741.48, 60777.81, 187500.00, 187500.00, 187500.00, -187500.02, -187500.02, -187500.02, 0.000, 0.000, 0.000, 16:23:23.146
42, 40899.24, 60881.01, 187500.00, 187500.00, 187500.00, -187500.02, -187500.02, -187500.02, 0.004, -0.020, 1.020, 16:23:23.147
43, 40908.90, 60891.58, 187500.00, 187500.00, 187500.00, -187500.02, -187500.02, -187500.02, 0.000, 0.000, 0.000, 16:23:23.147
44, 40784.55, 60822.29, 187500.00, 187500.00, 187500.00, -187500.02, -187500.02, -187500.02, 0.000, 0.000, 0.000, 16:23:23.148
45, 40680.20, 60747.48, 187500.00, 187500.00, 187500.00, -187500.02, -187500.02, -187500.02, 0.000, 0.000, 0.000, 16:23:23.149
46, 40763.10, 60790.51, 187500.00, 187500.00, 187500.00, -187500.02, -187500.02, -187500.02, 0.000, 0.000, 0.000, 16:23:23.149
47, 40905.84, 60883.64, 187500.00, 187500.00, 187500.00, -187500.02, -187500.02, -187500.02, 0.000, 0.000, 0.000, 16:23:23.150
48, 40911.02, 60901.21, 187500.00, 187500.00, 187500.00, -187500.02, -187500.02, -187500.02, 0.000, 0.000, 0.000, 16:23:23.151
49, 40779.66, 60827.90, 187500.00, 187500.00, 187500.00, -187500.02, -187500.02, -187500.02, 0.000, 0.000, 0.000, 16:23:23.152
50, 40677.11, 60754.83, 187500.00, 187500.00, 187500.00, -187500.02, -187500.02, -187500.02, 0.000, 0.000, 0.000, 16:23:23.152
51, 40748.84, 60789.90, 187500.00, 187500.00, 187500.00, -187500.02, -187500.02, -187500.02, 0.000, 0.000, 0.000, 16:23:23.153
52, 40899.78, 60889.82, 187500.00, 187500.00, 187500.00, -187500.02, -187500.02, -187500.02, 0.006, -0.018, 1.020, 16:23:23.154
53, 40908.36, 60909.69, 187500.00, 187500.00, 187500.00, -187500.02, -187500.02, -187500.02, 0.000, 0.000, 0.000, 16:23:23.155
54, 40765.98, 60821.87, 187500.00, 187500.00, 187500.00, -187500.02, -187500.02, -187500.02, 0.000, 0.000, 0.000, 16:23:23.155
55, 40656.48, 60740.30, 187500.00, 187500.00, 187500.00, -187500.02, -187500.02, -187500.02, 0.000, 0.000, 0.000, 16:23:23.156
56, 40740.79, 60779.89, 187500.00, 187500.00, 187500.00, -187500.02, -187500.02, -187500.02, 0.000, 0.000, 0.000, 16:23:23.156
57, 40891.78, 60881.68, 187500.00, 187500.00, 187500.00, -187500.02, -187500.02, -187500.02, 0.000, 0.000, 0.000, 16:23:23.157
58, 40906.95, 60908.32, 187500.00, 187500.00, 187500.00, -187500.02, -187500.02, -187500.02, 0.000, 0.000, 0.000, 16:23:23.158
59, 40773.29, 60826.52, 187500.00, 187500.00, 187500.00, -187500.02, -187500.02, -187500.02, 0.000, 0.000, 0.000, 16:23:23.158
60, 40668.04, 60744.51, 187500.00, 187500.00, 187500.00, -187500.02, -187500.02, -187500.02, 0.000, 0.000, 0.000, 16:23:23.159
61, 40746.43, 60778.86, 187500.00, 187500.00, 187500.00, -187500.02, -187500.02, -187500.02, 0.000, 0.000, 0.000, 16:23:23.159
62, 40899.69, 60890.11, 187500.00, 187500.00, 187500.00, -187500.02, -187500.02, -187500.02, 0.010, -0.026, 1.024, 16:23:23.160
63, 40928.21, 60923.66, 187500.00, 187500.00, 187500.00, -187500.02, -187500.02, -187500.02, 0.000, 0.000, 0.000, 16:23:23.161
64, 40799.73, 60850.63, 187500.00, 187500.00, 187500.00, -187500.02, -187500.02, -187500.02, 0.000, 0.000, 0.000, 16:23:23.162
65, 40669.58, 60753.52, 187500.00, 187500.00, 187500.00, -187500.02, -187500.02, -187500.02, 0.000, 0.000, 0.000, 16:23:23.162
66, 40739.32, 60781.90, 187500.00, 187500.00, 187500.00, -187500.02, -187500.02, -187500.02, 0.000, 0.000, 0.000, 16:23:23.163
67, 40887.20, 60878.68, 187500.00, 187500.00, 187500.00, -187500.02, -187500.02, -187500.02, 0.000, 0.000, 0.000, 16:23:23.164
68, 40897.79, 60894.35, 187500.00, 187500.00, 187500.00, -187500.02, -187500.02, -187500.02, 0.000, 0.000, 0.000, 16:23:23.164
69, 40784.27, 60833.73, 187500.00, 187500.00, 187500.00, -187500.02, -187500.02, -187500.02, 0.000, 0.000, 0.000, 16:23:23.165
70, 40667.03, 60747.30, 187500.00, 187500.00, 187500.00, -187500.02, -187500.02, -187500.02, 0.000, 0.000, 0.000, 16:23:23.166
71, 40735.92, 60775.71, 187500.00, 187500.00, 187500.00, -187500.02, -187500.02, -187500.02, 0.000, 0.000, 0.000, 16:23:23.166
72, 40894.53, 60881.84, 187500.00, 187500.00, 187500.00, -187500.02, -187500.02, -187500.02, 0.002, -0.024, 1.026, 16:23:23.167
73, 40913.39, 60907.38, 187500.00, 187500.00, 187500.00, -187500.02, -187500.02, -187500.02, 0.000, 0.000, 0.000, 16:23:23.557
74, 40785.18, 60838.99, 187500.00, 187500.00, 187500.00, -187500.02, -187500.02, -187500.02, 0.000, 0.000, 0.000, 16:23:23.558
75, 40666.63, 60749.60, 187500.00, 187500.00, 187500.00, -187500.02, -187500.02, -187500.02, 0.000, 0.000, 0.000, 16:23:23.559
76, 40731.11, 60773.90, 187500.00, 187500.00, 187500.00, -187500.02, -187500.02, -187500.02, 0.000, 0.000, 0.000, 16:23:23.559
77, 40893.83, 60883.85, 187500.00, 187500.00, 187500.00, -187500.02, -187500.02, -187500.02, 0.000, 0.000, 0.000, 16:23:23.560
78, 40909.97, 60908.08, 187500.00, 187500.00, 187500.00, -187500.02, -187500.02, -187500.02, 0.000, 0.000, 0.000, 16:23:23.560
79, 40777.47, 60833.63, 187500.00, 187500.00, 187500.00, -187500.02, -187500.02, -187500.02, 0.000, 0.000, 0.000, 16:23:23.561
80, 40651.54, 60736.71, 187500.00, 187500.00, 187500.00, -187500.02, -187500.02, -187500.02, 0.000, 0.000, 0.000, 16:23:23.561
81, 40716.56, 60756.09, 187500.00, 187500.00, 187500.00, -187500.02, -187500.02, -187500.02, 0.000, 0.000, 0.000, 16:23:23.562
82, 40874.37, 60863.46, 187500.00, 187500.00, 187500.00, -187500.02, -187500.02, -187500.02, 0.004, -0.018, 1.018, 16:23:23.562
83, 40906.35, 60901.37, 187500.00, 187500.00, 187500.00, -187500.02, -187500.02, -187500.02, 0.000, 0.000, 0.000, 16:23:23.563
84, 40770.12, 60820.32, 187500.00, 187500.00, 187500.00, -187500.02, -187500.02, -187500.02, 0.000, 0.000, 0.000, 16:23:23.563
85, 40649.75, 60732.77, 187500.00, 187500.00, 187500.00, -187500.02, -187500.02, -187500.02, 0.000, 0.000, 0.000, 16:23:23.564
86, 40726.48, 60765.81, 187500.00, 187500.00, 187500.00, -187500.02, -187500.02, -187500.02, 0.000, 0.000, 0.000, 16:23:23.564
87, 40886.61, 60871.38, 187500.00, 187500.00, 187500.00, -187500.02, -187500.02, -187500.02, 0.000, 0.000, 0.000, 16:23:23.565
88, 40908.96, 60905.13, 187500.00, 187500.00, 187500.00, -187500.02, -187500.02, -187500.02, 0.000, 0.000, 0.000, 16:23:23.565
89, 40774.45, 60828.17, 187500.00, 187500.00, 187500.00, -187500.02, -187500.02, -187500.02, 0.000, 0.000, 0.000, 16:23:23.566
90, 40655.43, 60738.14, 187500.00, 187500.00, 187500.00, -187500.02, -187500.02, -187500.02, 0.000, 0.000, 0.000, 16:23:23.567
91, 40725.57, 60768.31, 187500.00, 187500.00, 187500.00, -187500.02, -187500.02, -187500.02, 0.008, -0.024, 1.022, 16:23:23.567
92, 40875.71, 60869.48, 187500.00, 187500.00, 187500.00, -187500.02, -187500.02, -187500.02, 0.000, 0.000, 0.000, 16:23:23.568
93, 40912.36, 60912.03, 187500.00, 187500.00, 187500.00, -187500.02, -187500.02, -187500.02, 0.000, 0.000, 0.000, 16:23:23.568
94, 40777.09, 60834.23, 187500.00, 187500.00, 187500.00, -187500.02, -187500.02, -187500.02, 0.000, 0.000, 0.000, 16:23:23.569
95, 40669.73, 60760.82, 187500.00, 187500.00, 187500.00, -187500.02, -187500.02, -187500.02, 0.000, 0.000, 0.000, 16:23:23.570
96, 40733.17, 60786.13, 187500.00, 187500.00, 187500.00, -187500.02, -187500.02, -187500.02, 0.000, 0.000, 0.000, 16:23:23.570
97, 40882.84, 60876.07, 187500.00, 187500.00, 187500.00, -187500.02, -187500.02, -187500.02, 0.000, 0.000, 0.000, 16:23:23.571
98, 40898.48, 60896.61, 187500.00, 187500.00, 187500.00, -187500.02, -187500.02, -187500.02, 0.000, 0.000, 0.000, 16:23:23.571
99, 40781.18, 60837.51, 187500.00, 187500.00, 187500.00, -187500.02, -187500.02, -187500.02, 0.000, 0.000, 0.000, 16:23:23.572
100, 40662.76, 60749.65, 187500.00, 187500.00, 187500.00, -187500.02, -187500.02, -187500.02, 0.000, 0.000, 0.000, 16:23:23.572
101, 40724.18, 60771.78, 187500.00, 187500.00, 187500.00, -187500.02, -187500.02, -187500.02, 0.012, -0.020, 1.028, 16:23:23.573
102, 40886.57, 60885.05, 187500.00, 187500.00, 187500.00, -187500.02, -187500.02, -187500.02, 0.000, 0.000, 0.000, 16:23:23.573
103, 40903.16, 60911.70, 187500.00, 187500.00, 187500.00, -187500.02, -187500.02, -187500.02, 0.000, 0.000, 0.000, 16:23:23.574
104, 40774.41, 60833.80, 187500.00, 187500.00, 187500.00, -187500.02, -187500.02, -187500.02, 0.000, 0.000, 0.000, 16:23:23.575
105, 40653.48, 60741.58, 187500.00, 187500.00, 187500.00, -187500.02, -187500.02, -187500.02, 0.000, 0.000, 0.000, 16:23:23.576
106, 40721.59, 60771.11, 187500.00, 187500.00, 187500.00, -187500.02, -187500.02, -187500.02, 0.000, 0.000, 0.000, 16:23:23.576
107, 40883.93, 60886.33, 187500.00, 187500.00, 187500.00, -187500.02, -187500.02, -187500.02, 0.000, 0.000, 0.000, 16:23:23.577
108, 40913.77, 60919.52, 187500.00, 187500.00, 187500.00, -187500.02, -187500.02, -187500.02, 0.000, 0.000, 0.000, 16:23:23.578
109, 40783.66, 60845.78, 187500.00, 187500.00, 187500.00, -187500.02, -187500.02, -187500.02, 0.000, 0.000, 0.000, 16:23:23.578
110, 40658.40, 60752.66, 187500.00, 187500.00, 187500.00, -187500.02, -187500.02, -187500.02, 0.000, 0.000, 0.000, 16:23:23.579
111, 40721.88, 60777.74, 187500.00, 187500.00, 187500.00, -187500.02, -187500.02, -187500.02, 0.012, -0.022, 1.026, 16:23:23.580
112, 40877.16, 60882.53, 187500.00, 187500.00, 187500.00, -187500.02, -187500.02, -187500.02, 0.000, 0.000, 0.000, 16:23:23.581
113, 40918.96, 60928.93, 187500.00, 187500.00, 187500.00, -187500.02, -187500.02, -187500.02, 0.000, 0.000, 0.000, 16:23:23.581
114, 40787.98, 60855.21, 187500.00, 187500.00, 187500.00, -187500.02, -187500.02, -187500.02, 0.000, 0.000, 0.000, 16:23:23.582
115, 40661.38, 60761.58, 187500.00, 187500.00, 187500.00, -187500.02, -187500.02, -187500.02, 0.000, 0.000, 0.000, 16:23:23.583
116, 40745.51, 60800.74, 187500.00, 187500.00, 187500.00, -187500.02, -187500.02, -187500.02, 0.000, 0.000, 0.000, 16:23:23.584
117, 40917.23, 60913.66, 187500.00, 187500.00, 187500.00, -187500.02, -187500.02, -187500.02, 0.000, 0.000, 0.000, 16:23:23.584
118, 40933.98, 60941.20, 187500.00, 187500.00, 187500.00, -187500.02, -187500.02, -187500.02, 0.000, 0.000, 0.000, 16:23:23.585
119, 40786.10, 60853.83, 187500.00, 187500.00, 187500.00, -187500.02, -187500.02, -187500.02, 0.000, 0.000, 0.000, 16:23:23.586
120, 40650.47, 60752.20, 187500.00, 187500.00, 187500.00, -187500.02, -187500.02, -187500.02, 0.000, 0.000, 0.000, 16:23:23.586
121, 40723.67, 60782.26, 187500.00, 187500.00, 187500.00, -187500.02, -187500.02, -187500.02, 0.006, -0.020, 1.028, 16:23:23.587
122, 40898.48, 60901.08, 187500.00, 187500.00, 187500.00, -187500.02, -187500.02, -187500.02, 0.000, 0.000, 0.000, 16:23:23.588
123, 40916.12, 60924.15, 187500.00, 187500.00, 187500.00, -187500.02, -187500.02, -187500.02, 0.000, 0.000, 0.000, 16:23:23.588
124, 40774.72, 60838.07, 187500.00, 187500.00, 187500.00, -187500.02, -187500.02, -187500.02, 0.000, 0.000, 0.000, 16:23:23.589
125, 40670.70, 60761.49, 187500.00, 187500.00, 187500.00, -187500.02, -187500.02, -187500.02, 0.000, 0.000, 0.000, 16:23:23.589
126, 40753.46, 60799.05, 187500.00, 187500.00, 187500.00, -187500.02, -187500.02, -187500.02, 0.000, 0.000, 0.000, 16:23:23.590
127, 40900.50, 60897.26, 187500.00, 187500.00, 187500.00, -187500.02, -187500.02, -187500.02, 0.000, 0.000, 0.000, 16:23:23.590
128, 40927.23, 60927.52, 187500.00, 187500.00, 187500.00, -187500.02, -187500.02, -187500.02, 0.000, 0.000, 0.000, 16:23:23.591
129, 40790.82, 60845.54, 187500.00, 187500.00, 187500.00, -187500.02, -187500.02, -187500.02, 0.000, 0.000, 0.000, 16:23:23.592
130, 40677.58, 60767.11, 187500.00, 187500.00, 187500.00, -187500.02, -187500.02, -187500.02, 0.000, 0.000, 0.000, 16:23:23.592
131, 40747.88, 60796.63, 187500.00, 187500.00, 187500.00, -187500.02, -187500.02, -187500.02, 0.008, -0.022, 1.034, 16:23:23.593
132, 40899.09, 60890.38, 187500.00, 187500.00, 187500.00, -187500.02, -187500.02, -187500.02, 0.000, 0.000, 0.000, 16:23:23.593
133, 40935.41, 60933.94, 187500.00, 187500.00, 187500.00, -187500.02, -187500.02, -187500.02, 0.000, 0.000, 0.000, 16:23:23.594
134, 40805.57, 60860.85, 187500.00, 187500.00, 187500.00, -187500.02, -187500.02, -187500.02, 0.000, 0.000, 0.000, 16:23:23.594
135, 40669.63, 60756.87, 187500.00, 187500.00, 187500.00, -187500.02, -187500.02, -187500.02, 0.000, 0.000, 0.000, 16:23:23.595
136, 40738.11, 60784.58, 187500.00, 187500.00, 187500.00, -187500.02, -187500.02, -187500.02, 0.000, 0.000, 0.000, 16:23:23.596
137, 40911.92, 60900.63, 187500.00, 187500.00, 187500.00, -187500.02, -187500.02, -187500.02, 0.000, 0.000, 0.000, 16:23:23.596
138, 40929.69, 60923.75, 187500.00, 187500.00, 187500.00, -187500.02, -187500.02, -187500.02, 0.000, 0.000, 0.000, 16:23:23.597
139, 40790.55, 60841.45, 187500.00, 187500.00, 187500.00, -187500.02, -187500.02, -187500.02, 0.000, 0.000, 0.000, 16:23:23.597
140, 40683.44, 60767.33, 187500.00, 187500.00, 187500.00, -187500.02, -187500.02, -187500.02, 0.000, 0.000, 0.000, 16:23:23.598
141, 40747.99, 60795.54, 187500.00, 187500.00, 187500.00, -187500.02, -187500.02, -187500.02, 0.008, -0.024, 1.032, 16:23:23.598
142, 40886.70, 60880.27, 187500.00, 187500.00, 187500.00, -187500.02, -187500.02, -187500.02, 0.000, 0.000, 0.000, 16:23:23.599
143, 40924.77, 60924.33, 187500.00, 187500.00, 187500.00, -187500.02, -187500.02, -187500.02, 0.000, 0.000, 0.000, 16:23:23.599
144, 40801.48, 60855.55, 187500.00, 187500.00, 187500.00, -187500.02, -187500.02, -187500.02, 0.000, 0.000, 0.000, 16:23:23.600
145, 40684.64, 60768.07, 187500.00, 187500.00, 187500.00, -187500.02, -187500.02, -187500.02, 0.000, 0.000, 0.000, 16:23:23.600
146, 40746.00, 60788.96, 187500.00, 187500.00, 187500.00, -187500.02, -187500.02, -187500.02, 0.000, 0.000, 0.000, 16:23:23.601
147, 40890.46, 60877.68, 187500.00, 187500.00, 187500.00, -187500.02, -187500.02, -187500.02, 0.000, 0.000, 0.000, 16:23:23.602
148, 40915.85, 60906.58, 187500.00, 187500.00, 187500.00, -187500.02, -187500.02, -187500.02, 0.000, 0.000, 0.000, 16:23:23.602
149, 40797.70, 60848.02, 187500.00, 187500.00, 187500.00, -187500.02, -187500.02, -187500.02, 0.000, 0.000, 0.000, 16:23:23.603
150, 40679.23, 60764.02, 187500.00, 187500.00, 187500.00, -187500.02, -187500.02, -187500.02, 0.000, 0.000, 0.000, 16:23:23.603
151, 40740.86, 60781.79, 187500.00, 187500.00, 187500.00, -187500.02, -187500.02, -187500.02, 0.004, -0.018, 1.020, 16:23:23.604
152, 40897.77, 60887.36, 187500.00, 187500.00, 187500.00, -187500.02, -187500.02, -187500.02, 0.000, 0.000, 0.000, 16:23:23.604
153, 40937.24, 60933.89, 187500.00, 187500.00, 187500.00, -187500.02, -187500.02, -187500.02, 0.000, 0.000, 0.000, 16:23:23.605
154, 40797.83, 60852.46, 187500.00, 187500.00, 187500.00, -187500.02, -187500.02, -187500.02, 0.000, 0.000, 0.000, 16:23:23.605
155, 40666.63, 60758.10, 187500.00, 187500.00, 187500.00, -187500.02, -187500.02, -187500.02, 0.000, 0.000, 0.000, 16:23:23.606
156, 40753.46, 60804.27, 187500.00, 187500.00, 187500.00, -187500.02, -187500.02, -187500.02, 0.000, 0.000, 0.000, 16:23:23.606
157, 40908.30, 60906.49, 187500.00, 187500.00, 187500.00, -187500.02, -187500.02, -187500.02, 0.000, 0.000, 0.000, 16:23:23.607
158, 40922.49, 60928.24, 187500.00, 187500.00, 187500.00, -187500.02, -187500.02, -187500.02, 0.000, 0.000, 0.000, 16:23:23.608
159, 40792.65, 60850.48, 187500.00, 187500.00, 187500.00, -187500.02, -187500.02, -187500.02, 0.000, 0.000, 0.000, 16:23:23.608
160, 40671.72, 60761.70, 187500.00, 187500.00, 187500.00, -187500.02, -187500.02, -187500.02, 0.000, 0.000, 0.000, 16:23:23.609
161, 40742.29, 60796.70, 187500.00, 187500.00, 187500.00, -187500.02, -187500.02, -187500.02, 0.004, -0.022, 1.016, 16:23:23.609
162, 40912.27, 60911.34, 187500.00, 187500.00, 187500.00, -187500.02, -187500.02, -187500.02, 0.000, 0.000, 0.000, 16:23:23.610
