%OpenBCI Raw EEG Data
%
%Sample Rate = 250.0 Hz
%First Column = SampleIndex
%Last Column = Timestamp 
%Other Columns = EEG data in microvolts followed by Accel Data (in G) interleaved with Aux Data
0, -9632.55, 37182.26, 187500.00, 187500.00, 187500.00, -187500.02, -187500.02, 187500.00, 0.000, -0.106, 1.024, 15:28:44.935
1, -9610.07, 37157.74, 187500.00, 187500.00, 187500.00, -187500.02, -187500.02, 187500.00, 0.000, 0.000, 0.000, 15:28:44.935
2, -9637.07, 37036.19, 187500.00, 187500.00, 187500.00, -187500.02, -187500.02, 187500.00, 0.000, 0.000, 0.000, 15:28:44.935
3, -9667.24, 36873.45, 187500.00, 187500.00, 187500.00, -187500.02, -187500.02, 187500.00, 0.000, 0.000, 0.000, 15:28:44.935
4, -9669.68, 36998.19, 187500.00, 187500.00, 187500.00, -187500.02, -187500.02, 187500.00, 0.000, 0.000, 0.000, 15:28:44.936
5, -9643.75, 37181.75, 187500.00, 187500.00, 187500.00, -187500.02, -187500.02, 187500.00, 0.000, 0.000, 0.000, 15:28:44.936
6, -9623.21, 37153.02, 187500.00, 187500.00, 187500.00, -187500.02, -187500.02, 187500.00, 0.000, 0.000, 0.000, 15:28:44.936
7, -9641.58, 37039.50, 187500.00, 187500.00, 187500.00, -187500.02, -187500.02, 187500.00, -0.008, -0.104, 1.016, 15:28:44.936
8, -9667.80, 36875.55, 187500.00, 187500.00, 187500.00, -187500.02, -187500.02, 187500.00, 0.000, 0.000, 0.000, 15:28:44.936
9, -9665.41, 37004.14, 187500.00, 187500.00, 187500.00, -187500.02, -187500.02, 187500.00, 0.000, 0.000, 0.000, 15:28:44.936
10, -9627.34, 37199.47, 187500.00, 187500.00, 187500.00, -187500.02, -187500.02, 187500.00, 0.000, 0.000, 0.000, 15:28:44.937
11, -9608.52, 37170.73, 187500.00, 187500.00, 187500.00, -187500.02, -187500.02, 187500.00, 0.000, 0.000, 0.000, 15:28:44.937
12, -9645.65, 37041.62, 187500.00, 187500.00, 187500.00, -187500.02, -187500.02, 187500.00, 0.000, 0.000, 0.000, 15:28:44.937
13, -9686.55, 36862.23, 187500.00, 187500.00, 187500.00, -187500.02, -187500.02, 187500.00, 0.000, 0.000, 0.000, 15:28:44.937
14, -9683.89, 36985.70, 187500.00, 187500.00, 187500.00, -187500.02, -187500.02, 187500.00, 0.000, 0.000, 0.000, 15:28:44.938
15, -9646.83, 37183.31, 187500.00, 187500.00, 187500.00, -187500.02, -187500.02, 187500.00, 0.000, 0.000, 0.000, 15:28:44.938
16, -9621.89, 37153.02, 187500.00, 187500.00, 187500.00, -187500.02, -187500.02, 187500.00, 0.000, 0.000, 0.000, 15:28:44.938
17, -9642.45, 37032.82, 187500.00, 187500.00, 187500.00, -187500.02, -187500.02, 187500.00, -0.010, -0.106, 1.020, 15:28:44.938
18, -9677.50, 36860.24, 187500.00, 187500.00, 187500.00, -187500.02, -187500.02, 187500.00, 0.000, 0.000, 0.000, 15:28:44.938
19, -9680.76, 36980.07, 187500.00, 187500.00, 187500.00, -187500.02, -187500.02, 187500.00, 0.000, 0.000, 0.000, 15:28:44.938
20, -9653.85, 37173.25, 187500.00, 187500.00, 187500.00, -187500.02, -187500.02, 187500.00, 0.000, 0.000, 0.000, 15:28:44.939
21, -9639.99, 37142.05, 187500.00, 187500.00, 187500.00, -187500.02, -187500.02, 187500.00, 0.000, 0.000, 0.000, 15:28:44.939
22, -9661.09, 37024.72, 187500.00, 187500.00, 187500.00, -187500.02, -187500.02, 187500.00, 0.000, 0.000, 0.000, 15:28:44.939
23, -9691.58, 36849.89, 187500.00, 187500.00, 187500.00, -187500.02, -187500.02, 187500.00, 0.000, 0.000, 0.000, 15:28:44.939
24, -9687.18, 36973.27, 187500.00, 187500.00, 187500.00, -187500.02, -187500.02, 187500.00, 0.000, 0.000, 0.000, 15:28:44.939
25, -9648.82, 37174.55, 187500.00, 187500.00, 187500.00, -187500.02, -187500.02, 187500.00, 0.000, 0.000, 0.000, 15:28:44.940
26, -9624.19, 37148.48, 187500.00, 187500.00, 187500.00, -187500.02, -187500.02, 187500.00, 0.000, 0.000, 0.000, 15:28:44.940
27, -9631.57, 37040.59, 187500.00, 187500.00, 187500.00, -187500.02, -187500.02, 187500.00, -0.004, -0.108, 1.022, 15:28:44.940
28, -9656.94, 36870.81, 187500.00, 187500.00, 187500.00, -187500.02, -187500.02, 187500.00, 0.000, 0.000, 0.000, 15:28:44.940
29, -9663.24, 36981.25, 187500.00, 187500.00, 187500.00, -187500.02, -187500.02, 187500.00, 0.000, 0.000, 0.000, 15:28:44.940
30, -9631.92, 37178.80, 187500.00, 187500.00, 187500.00, -187500.02, -187500.02, 187500.00, 0.000, 0.000, 0.000, 15:28:44.940
31, -9604.83, 37158.05, 187500.00, 187500.00, 187500.00, -187500.02, -187500.02, 187500.00, 0.000, 0.000, 0.000, 15:28:44.941
32, -9615.65, 37051.59, 187500.00, 187500.00, 187500.00, -187500.02, -187500.02, 187500.00, 0.000, 0.000, 0.000, 15:28:44.941
33, -9653.52, 36868.93, 187500.00, 187500.00, 187500.00, -187500.02, -187500.02, 187500.00, 0.000, 0.000, 0.000, 15:28:44.941
34, -9654.72, 36983.91, 187500.00, 187500.00, 187500.00, -187500.02, -187500.02, 187500.00, 0.000, 0.000, 0.000, 15:28:44.941
35, -9625.93, 37176.36, 187500.00, 187500.00, 187500.00, -187500.02, -187500.02, 187500.00, 0.000, 0.000, 0.000, 15:28:44.941
36, -9597.66, 37159.08, 187500.00, 187500.00, 187500.00, -187500.02, -187500.02, 187500.00, 0.010, -0.096, 1.028, 15:28:44.942
37, -9616.64, 37051.26, 187500.00, 187500.00, 187500.00, -187500.02, -187500.02, 187500.00, 0.000, 0.000, 0.000, 15:28:44.942
38, -9647.66, 36877.00, 187500.00, 187500.00, 187500.00, -187500.02, -187500.02, 187500.00, 0.000, 0.000, 0.000, 15:28:44.942
39, -9657.36, 36988.78, 187500.00, 187500.00, 187500.00, -187500.02, -187500.02, 187500.00, 0.000, 0.000, 0.000, 15:28:44.942
40, -9623.81, 37194.29, 187500.00, 187500.00, 187500.00, -187500.02, -187500.02, 187500.00, 0.000, 0.000, 0.000, 15:28:44.942
41, -9607.45, 37158.79, 187500.00, 187500.00, 187500.00, -187500.02, -187500.02, 187500.00, 0.000, 0.000, 0.000, 15:28:44.942
42, -9634.16, 37039.34, 187500.00, 187500.00, 187500.00, -187500.02, -187500.02, 187500.00, 0.000, 0.000, 0.000, 15:28:44.943
43, -9670.53, 36861.02, 187500.00, 187500.00, 187500.00, -187500.02, -187500.02, 187500.00, 0.000, 0.000, 0.000, 15:28:44.943
44, -9674.24, 36979.51, 187500.00, 187500.00, 187500.00, -187500.02, -187500.02, 187500.00, 0.000, 0.000, 0.000, 15:28:44.943
45, -9637.87, 37187.33, 187500.00, 187500.00, 187500.00, -187500.02, -187500.02, 187500.00, 0.000, 0.000, 0.000, 15:28:44.943
46, -9609.80, 37167.66, 187500.00, 187500.00, 187500.00, -187500.02, -187500.02, 187500.00, 0.004, -0.110, 1.036, 15:28:44.943
47, -9634.21, 37051.66, 187500.00, 187500.00, 187500.00, -187500.02, -187500.02, 187500.00, 0.000, 0.000, 0.000, 15:28:44.943
48, -9669.10, 36868.66, 187500.00, 187500.00, 187500.00, -187500.02, -187500.02, 187500.00, 0.000, 0.000, 0.000, 15:28:44.943
49, -9661.07, 36995.71, 187500.00, 187500.00, 187500.00, -187500.02, -187500.02, 187500.00, 0.000, 0.000, 0.000, 15:28:44.943
50, -9637.27, 37195.87, 187500.00, 187500.00, 187500.00, -187500.02, -187500.02, 187500.00, 0.000, 0.000, 0.000, 15:28:44.944
51, -9619.07, 37166.66, 187500.00, 187500.00, 187500.00, -187500.02, -187500.02, 187500.00, 0.000, 0.000, 0.000, 15:28:44.944
52, -9640.11, 37045.54, 187500.00, 187500.00, 187500.00, -187500.02, -187500.02, 187500.00, 0.000, 0.000, 0.000, 15:28:44.944
53, -9670.79, 36871.46, 187500.00, 187500.00, 187500.00, -187500.02, -187500.02, 187500.00, 0.000, 0.000, 0.000, 15:28:44.944
54, -9679.76, 36991.87, 187500.00, 187500.00, 187500.00, -187500.02, -187500.02, 187500.00, 0.000, 0.000, 0.000, 15:28:44.944
55, -9652.94, 37202.53, 187500.00, 187500.00, 187500.00, -187500.02, -187500.02, 187500.00, 0.000, 0.000, 0.000, 15:28:44.944
56, -9624.79, 37180.14, 187500.00, 187500.00, 187500.00, -187500.02, -187500.02, 187500.00, -0.002, -0.116, 1.036, 15:28:44.944
57, -9647.57, 37056.13, 187500.00, 187500.00, 187500.00, -187500.02, -187500.02, 187500.00, 0.000, 0.000, 0.000, 15:28:44.944
58, -9682.19, 36869.63, 187500.00, 187500.00, 187500.00, -187500.02, -187500.02, 187500.00, 0.000, 0.000, 0.000, 15:28:44.945
59, -9691.87, 36972.11, 187500.00, 187500.00, 187500.00, -187500.02, -187500.02, 187500.00, 0.000, 0.000, 0.000, 15:28:44.945
60, -9655.82, 37189.34, 187500.00, 187500.00, 187500.00, -187500.02, -187500.02, 187500.00, 0.000, 0.000, 0.000, 15:28:44.945
61, -9616.23, 37181.12, 187500.00, 187500.00, 187500.00, -187500.02, -187500.02, 187500.00, 0.000, 0.000, 0.000, 15:28:44.945
62, -9637.40, 37063.13, 187500.00, 187500.00, 187500.00, -187500.02, -187500.02, 187500.00, 0.000, 0.000, 0.000, 15:28:44.945
63, -9674.46, 36880.69, 187500.00, 187500.00, 187500.00, -187500.02, -187500.02, 187500.00, 0.000, 0.000, 0.000, 15:28:44.945
64, -9680.38, 36991.20, 187500.00, 187500.00, 187500.00, -187500.02, -187500.02, 187500.00, 0.000, 0.000, 0.000, 15:28:44.945
65, -9654.34, 37194.42, 187500.00, 187500.00, 187500.00, -187500.02, -187500.02, 187500.00, 0.000, 0.000, 0.000, 15:28:44.946
66, -9637.47, 37165.38, 187500.00, 187500.00, 187500.00, -187500.02, -187500.02, 187500.00, 0.002, -0.114, 1.024, 15:28:44.946
67, -9652.71, 37055.14, 187500.00, 187500.00, 187500.00, -187500.02, -187500.02, 187500.00, 0.000, 0.000, 0.000, 15:28:44.946
68, -9695.25, 36865.42, 187500.00, 187500.00, 187500.00, -187500.02, -187500.02, 187500.00, 0.000, 0.000, 0.000, 15:28:44.947
69, -9697.39, 36975.42, 187500.00, 187500.00, 187500.00, -187500.02, -187500.02, 187500.00, 0.000, 0.000, 0.000, 15:28:44.947
70, -9663.89, 37189.05, 187500.00, 187500.00, 187500.00, -187500.02, -187500.02, 187500.00, 0.000, 0.000, 0.000, 15:28:44.947
71, -9637.00, 37171.04, 187500.00, 187500.00, 187500.00, -187500.02, -187500.02, 187500.00, 0.000, 0.000, 0.000, 15:28:44.947
72, -9667.38, 37045.31, 187500.00, 187500.00, 187500.00, -187500.02, -187500.02, 187500.00, 0.000, 0.000, 0.000, 15:28:44.947
73, -9703.47, 36861.31, 187500.00, 187500.00, 187500.00, -187500.02, -187500.02, 187500.00, 0.000, 0.000, 0.000, 15:28:44.947
74, -9703.94, 36975.17, 187500.00, 187500.00, 187500.00, -187500.02, -187500.02, 187500.00, 0.000, 0.000, 0.000, 15:28:44.947
75, -9665.63, 37192.63, 187500.00, 187500.00, 187500.00, -187500.02, -187500.02, 187500.00, 0.000, 0.000, 0.000, 15:28:44.947
76, -9639.68, 37177.77, 187500.00, 187500.00, 187500.00, -187500.02, -187500.02, 187500.00, 0.000, -0.112, 1.020, 15:28:44.947
77, -9666.88, 37053.71, 187500.00, 187500.00, 187500.00, -187500.02, -187500.02, 187500.00, 0.000, 0.000, 0.000, 15:28:44.948
78, -9707.50, 36861.51, 187500.00, 187500.00, 187500.00, -187500.02, -187500.02, 187500.00, 0.000, 0.000, 0.000, 15:28:44.948
79, -9707.43, 36975.89, 187500.00, 187500.00, 187500.00, -187500.02, -187500.02, 187500.00, 0.000, 0.000, 0.000, 15:28:44.948
80, -9670.97, 37187.67, 187500.00, 187500.00, 187500.00, -187500.02, -187500.02, 187500.00, 0.000, 0.000, 0.000, 15:28:44.948
81, -9646.57, 37162.52, 187500.00, 187500.00, 187500.00, -187500.02, -187500.02, 187500.00, 0.000, 0.000, 0.000, 15:28:44.948
82, -9663.98, 37049.60, 187500.00, 187500.00, 187500.00, -187500.02, -187500.02, 187500.00, 0.000, 0.000, 0.000, 15:28:44.948
83, -9700.90, 36863.34, 187500.00, 187500.00, 187500.00, -187500.02, -187500.02, 187500.00, 0.000, 0.000, 0.000, 15:28:44.948
84, -9702.27, 36969.54, 187500.00, 187500.00, 187500.00, -187500.02, -187500.02, 187500.00, 0.000, 0.000, 0.000, 15:28:44.948
85, -9663.60, 37184.38, 187500.00, 187500.00, 187500.00, -187500.02, -187500.02, 187500.00, 0.000, 0.000, 0.000, 15:28:44.949
86, -9641.65, 37160.46, 187500.00, 187500.00, 187500.00, -187500.02, -187500.02, 187500.00, -0.006, -0.114, 1.020, 15:28:44.949
87, -9656.11, 37055.08, 187500.00, 187500.00, 187500.00, -187500.02, -187500.02, 187500.00, 0.000, 0.000, 0.000, 15:28:44.949
88, -9692.39, 36873.98, 187500.00, 187500.00, 187500.00, -187500.02, -187500.02, 187500.00, 0.000, 0.000, 0.000, 15:28:44.949
89, -9693.42, 36977.52, 187500.00, 187500.00, 187500.00, -187500.02, -187500.02, 187500.00, 0.000, 0.000, 0.000, 15:28:44.949
90, -9657.88, 37191.25, 187500.00, 187500.00, 187500.00, -187500.02, -187500.02, 187500.00, 0.000, 0.000, 0.000, 15:28:44.949
91, -9643.19, 37166.79, 187500.00, 187500.00, 187500.00, -187500.02, -187500.02, 187500.00, 0.000, 0.000, 0.000, 15:28:44.949
92, -9671.40, 37050.21, 187500.00, 187500.00, 187500.00, -187500.02, -187500.02, 187500.00, 0.000, 0.000, 0.000, 15:28:44.949
93, -9715.74, 36859.32, 187500.00, 187500.00, 187500.00, -187500.02, -187500.02, 187500.00, 0.000, 0.000, 0.000, 15:28:44.949
94, -9720.91, 36956.29, 187500.00, 187500.00, 187500.00, -187500.02, -187500.02, 187500.00, 0.000, 0.000, 0.000, 15:28:44.950
95, -9688.88, 37168.69, 187500.00, 187500.00, 187500.00, -187500.02, -187500.02, 187500.00, 0.000, 0.000, 0.000, 15:28:44.950
96, -9659.19, 37160.09, 187500.00, 187500.00, 187500.00, -187500.02, -187500.02, 187500.00, -0.004, -0.112, 1.020, 15:28:44.950
97, -9676.96, 37049.65, 187500.00, 187500.00, 187500.00, -187500.02, -187500.02, 187500.00, 0.000, 0.000, 0.000, 15:28:44.950
98, -9710.96, 36868.20, 187500.00, 187500.00, 187500.00, -187500.02, -187500.02, 187500.00, 0.000, 0.000, 0.000, 15:28:44.950
99, -9715.14, 36967.10, 187500.00, 187500.00, 187500.00, -187500.02, -187500.02, 187500.00, 0.000, 0.000, 0.000, 15:28:44.950
100, -9691.98, 37171.55, 187500.00, 187500.00, 187500.00, -187500.02, -187500.02, 187500.00, 0.000, 0.000, 0.000, 15:28:44.950
101, -9673.21, 37155.37, 187500.00, 187500.00, 187500.00, -187500.02, -187500.02, 187500.00, 0.000, 0.000, 0.000, 15:28:44.950
102, -9693.59, 37048.02, 187500.00, 187500.00, 187500.00, -187500.02, -187500.02, 187500.00, 0.000, 0.000, 0.000, 15:28:44.951
103, -9736.22, 36863.46, 187500.00, 187500.00, 187500.00, -187500.02, -187500.02, 187500.00, 0.000, 0.000, 0.000, 15:28:44.951
104, -9739.68, 36955.99, 187500.00, 187500.00, 187500.00, -187500.02, -187500.02, 187500.00, 0.000, 0.000, 0.000, 15:28:44.951
105, -9713.06, 37157.49, 187500.00, 187500.00, 187500.00, -187500.02, -187500.02, 187500.00, 0.000, 0.000, 0.000, 15:28:44.951
106, -9677.43, 37152.04, 187500.00, 187500.00, 187500.00, -187500.02, -187500.02, 187500.00, -0.002, -0.114, 1.020, 15:28:44.951
107, -9687.33, 37056.51, 187500.00, 187500.00, 187500.00, -187500.02, -187500.02, 187500.00, 0.000, 0.000, 0.000, 15:28:44.951
108, -9732.64, 36862.23, 187500.00, 187500.00, 187500.00, -187500.02, -187500.02, 187500.00, 0.000, 0.000, 0.000, 15:28:44.951
109, -9732.89, 36958.52, 187500.00, 187500.00, 187500.00, -187500.02, -187500.02, 187500.00, 0.000, 0.000, 0.000, 15:28:44.951
110, -9696.37, 37179.44, 187500.00, 187500.00, 187500.00, -187500.02, -187500.02, 187500.00, 0.000, 0.000, 0.000, 15:28:44.951
111, -9677.68, 37160.54, 187500.00, 187500.00, 187500.00, -187500.02, -187500.02, 187500.00, 0.000, 0.000, 0.000, 15:28:44.952
112, -9699.79, 37042.63, 187500.00, 187500.00, 187500.00, -187500.02, -187500.02, 187500.00, 0.000, 0.000, 0.000, 15:28:44.952
113, -9726.23, 36865.71, 187500.00, 187500.00, 187500.00, -187500.02, -187500.02, 187500.00, 0.000, 0.000, 0.000, 15:28:44.952
114, -9737.45, 36956.33, 187500.00, 187500.00, 187500.00, -187500.02, -187500.02, 187500.00, 0.000, 0.000, 0.000, 15:28:44.952
115, -9713.55, 37165.83, 187500.00, 187500.00, 187500.00, -187500.02, -187500.02, 187500.00, 0.000, 0.000, 0.000, 15:28:44.952
116, -9689.28, 37147.77, 187500.00, 187500.00, 187500.00, -187500.02, -187500.02, 187500.00, -0.004, -0.108, 1.020, 15:28:44.952
117, -9705.60, 37042.90, 187500.00, 187500.00, 187500.00, -187500.02, -187500.02, 187500.00, 0.000, 0.000, 0.000, 15:28:44.953
118, -9738.63, 36862.25, 187500.00, 187500.00, 187500.00, -187500.02, -187500.02, 187500.00, 0.000, 0.000, 0.000, 15:28:44.953
119, -9740.64, 36961.31, 187500.00, 187500.00, 187500.00, -187500.02, -187500.02, 187500.00, 0.000, 0.000, 0.000, 15:28:44.953
120, -9715.14, 37178.48, 187500.00, 187500.00, 187500.00, -187500.02, -187500.02, 187500.00, 0.000, 0.000, 0.000, 15:28:45.414
121, -9694.44, 37165.68, 187500.00, 187500.00, 187500.00, -187500.02, -187500.02, 187500.00, 0.000, 0.000, 0.000, 15:28:45.414
122, -9715.68, 37053.58, 187500.00, 187500.00, 187500.00, -187500.02, -187500.02, 187500.00, 0.000, 0.000, 0.000, 15:28:45.415
123, -9759.29, 36866.14, 187500.00, 187500.00, 187500.00, -187500.02, -187500.02, 187500.00, 0.000, 0.000, 0.000, 15:28:45.415
124, -9757.90, 36959.97, 187500.00, 187500.00, 187500.00, -187500.02, -187500.02, 187500.00, 0.000, 0.000, 0.000, 15:28:45.415
125, -9719.48, 37181.37, 187500.00, 187500.00, 187500.00, -187500.02, -187500.02, 187500.00, 0.000, 0.000, 0.000, 15:28:45.415
126, -9699.58, 37168.11, 187500.00, 187500.00, 187500.00, -187500.02, -187500.02, 187500.00, -0.002, -0.114, 1.020, 15:28:45.415
127, -9717.13, 37056.98, 187500.00, 187500.00, 187500.00, -187500.02, -187500.02, 187500.00, 0.000, 0.000, 0.000, 15:28:45.415
128, -9750.55, 36872.35, 187500.00, 187500.00, 187500.00, -187500.02, -187500.02, 187500.00, 0.000, 0.000, 0.000, 15:28:45.415
129, -9749.32, 36966.23, 187500.00, 187500.00, 187500.00, -187500.02, -187500.02, 187500.00, 0.000, 0.000, 0.000, 15:28:45.415
130, -9704.43, 37198.40, 187500.00, 187500.00, 187500.00, -187500.02, -187500.02, 187500.00, 0.000, 0.000, 0.000, 15:28:45.416
131, -9671.82, 37191.83, 187500.00, 187500.00, 187500.00, -187500.02, -187500.02, 187500.00, 0.000, 0.000, 0.000, 15:28:45.416
132, -9694.87, 37076.94, 187500.00, 187500.00, 187500.00, -187500.02, -187500.02, 187500.00, 0.000, 0.000, 0.000, 15:28:45.416
133, -9747.46, 36877.74, 187500.00, 187500.00, 187500.00, -187500.02, -187500.02, 187500.00, 0.000, 0.000, 0.000, 15:28:45.416
134, -9757.59, 36963.41, 187500.00, 187500.00, 187500.00, -187500.02, -187500.02, 187500.00, 0.000, 0.000, 0.000, 15:28:45.416
135, -9727.97, 37183.87, 187500.00, 187500.00, 187500.00, -187500.02, -187500.02, 187500.00, 0.000, 0.000, 0.000, 15:28:45.416
136, -9707.27, 37173.48, 187500.00, 187500.00, 187500.00, -187500.02, -187500.02, 187500.00, -0.004, -0.112, 1.022, 15:28:45.416
137, -9711.61, 37081.18, 187500.00, 187500.00, 187500.00, -187500.02, -187500.02, 187500.00, 0.000, 0.000, 0.000, 15:28:45.416
138, -9744.56, 36898.95, 187500.00, 187500.00, 187500.00, -187500.02, -187500.02, 187500.00, 0.000, 0.000, 0.000, 15:28:45.417
139, -9750.70, 36984.67, 187500.00, 187500.00, 187500.00, -187500.02, -187500.02, 187500.00, 0.000, 0.000, 0.000, 15:28:45.417
140, -9723.14, 37198.02, 187500.00, 187500.00, 187500.00, -187500.02, -187500.02, 187500.00, 0.000, 0.000, 0.000, 15:28:45.417
141, -9697.21, 37183.98, 187500.00, 187500.00, 187500.00, -187500.02, -187500.02, 187500.00, 0.000, 0.000, 0.000, 15:28:45.417
142, -9709.26, 37083.13, 187500.00, 187500.00, 187500.00, -187500.02, -187500.02, 187500.00, 0.000, 0.000, 0.000, 15:28:45.417
143, -9746.19, 36902.64, 187500.00, 187500.00, 187500.00, -187500.02, -187500.02, 187500.00, 0.000, 0.000, 0.000, 15:28:45.417
144, -9750.48, 36986.82, 187500.00, 187500.00, 187500.00, -187500.02, -187500.02, 187500.00, 0.000, 0.000, 0.000, 15:28:45.417
145, -9715.83, 37206.98, 187500.00, 187500.00, 187500.00, -187500.02, -187500.02, 187500.00, -0.004, -0.112, 1.020, 15:28:45.417
146, -9698.71, 37188.79, 187500.00, 187500.00, 187500.00, -187500.02, -187500.02, 187500.00, 0.000, 0.000, 0.000, 15:28:45.417
147, -9714.89, 37076.20, 187500.00, 187500.00, 187500.00, -187500.02, -187500.02, 187500.00, 0.000, 0.000, 0.000, 15:28:45.418
148, -9749.96, 36890.84, 187500.00, 187500.00, 187500.00, -187500.02, -187500.02, 187500.00, 0.000, 0.000, 0.000, 15:28:45.418
149, -9750.66, 36978.84, 187500.00, 187500.00, 187500.00, -187500.02, -187500.02, 187500.00, 0.000, 0.000, 0.000, 15:28:45.418
150, -9723.39, 37188.05, 187500.00, 187500.00, 187500.00, -187500.02, -187500.02, 187500.00, 0.000, 0.000, 0.000, 15:28:45.418
151, -9704.26, 37171.93, 187500.00, 187500.00, 187500.00, -187500.02, -187500.02, 187500.00, 0.000, 0.000, 0.000, 15:28:45.418
152, -9719.99, 37064.36, 187500.00, 187500.00, 187500.00, -187500.02, -187500.02, 187500.00, 0.000, 0.000, 0.000, 15:28:45.418
153, -9760.04, 36878.68, 187500.00, 187500.00, 187500.00, -187500.02, -187500.02, 187500.00, 0.000, 0.000, 0.000, 15:28:45.418
154, -9756.22, 36974.79, 187500.00, 187500.00, 187500.00, -187500.02, -187500.02, 187500.00, 0.000, 0.000, 0.000, 15:28:45.418
155, -9722.03, 37204.79, 187500.00, 187500.00, 187500.00, -187500.02, -187500.02, 187500.00, -0.002, -0.116, 1.016, 15:28:45.419
156, -9692.95, 37197.84, 187500.00, 187500.00, 187500.00, -187500.02, -187500.02, 187500.00, 0.000, 0.000, 0.000, 15:28:45.419
157, -9710.31, 37087.78, 187500.00, 187500.00, 187500.00, -187500.02, -187500.02, 187500.00, 0.000, 0.000, 0.000, 15:28:45.419
158, -9753.52, 36896.79, 187500.00, 187500.00, 187500.00, -187500.02, -187500.02, 187500.00, 0.000, 0.000, 0.000, 15:28:45.419
159, -9764.38, 36973.76, 187500.00, 187500.00, 187500.00, -187500.02, -187500.02, 187500.00, 0.000, 0.000, 0.000, 15:28:45.419
160, -9736.53, 37190.95, 187500.00, 187500.00, 187500.00, -187500.02, -187500.02, 187500.00, 0.000, 0.000, 0.000, 15:28:45.419
161, -9717.51, 37179.87, 187500.00, 187500.00, 187500.00, -187500.02, -187500.02, 187500.00, 0.000, 0.000, 0.000, 15:28:45.419
162, -9732.13, 37077.65, 187500.00, 187500.00, 187500.00, -187500.02, -187500.02, 187500.00, 0.000, 0.000, 0.000, 15:28:45.419
163, -9777.48, 36881.11, 187500.00, 187500.00, 187500.00, -187500.02, -187500.02, 187500.00, 0.000, 0.000, 0.000, 15:28:45.419
164, -9774.75, 36965.05, 187500.00, 187500.00, 187500.00, -187500.02, -187500.02, 187500.00, 0.000, 0.000, 0.000, 15:28:45.420
165, -9733.45, 37195.94, 187500.00, 187500.00, 187500.00, -187500.02, -187500.02, 187500.00, -0.004, -0.114, 1.024, 15:28:45.420
166, -9714.13, 37181.90, 187500.00, 187500.00, 187500.00, -187500.02, -187500.02, 187500.00, 0.000, 0.000, 0.000, 15:28:45.420
167, -9741.40, 37062.28, 187500.00, 187500.00, 187500.00, -187500.02, -187500.02, 187500.00, 0.000, 0.000, 0.000, 15:28:45.421
168, -9776.23, 36883.37, 187500.00, 187500.00, 187500.00, -187500.02, -187500.02, 187500.00, 0.000, 0.000, 0.000, 15:28:45.421
169, -9787.40, 36957.78, 187500.00, 187500.00, 187500.00, -187500.02, -187500.02, 187500.00, 0.000, 0.000, 0.000, 15:28:45.421
170, -9756.63, 37178.82, 187500.00, 187500.00, 187500.00, -187500.02, -187500.02, 187500.00, 0.000, 0.000, 0.000, 15:28:45.421
171, -9733.85, 37176.29, 187500.00, 187500.00, 187500.00, -187500.02, -187500.02, 187500.00, 0.000, 0.000, 0.000, 15:28:45.421
172, -9749.81, 37070.72, 187500.00, 187500.00, 187500.00, -187500.02, -187500.02, 187500.00, 0.000, 0.000, 0.000, 15:28:45.421
173, -9782.73, 36888.16, 187500.00, 187500.00, 187500.00, -187500.02, -187500.02, 187500.00, 0.000, 0.000, 0.000, 15:28:45.421
174, -9789.59, 36959.28, 187500.00, 187500.00, 187500.00, -187500.02, -187500.02, 187500.00, 0.000, 0.000, 0.000, 15:28:45.422
175, -9743.21, 37193.55, 187500.00, 187500.00, 187500.00, -187500.02, -187500.02, 187500.00, -0.006, -0.110, 1.022, 15:28:45.422
176, -9706.65, 37197.79, 187500.00, 187500.00, 187500.00, -187500.02, -187500.02, 187500.00, 0.000, 0.000, 0.000, 15:28:45.422
177, -9726.00, 37087.87, 187500.00, 187500.00, 187500.00, -187500.02, -187500.02, 187500.00, 0.000, 0.000, 0.000, 15:28:45.422
178, -9775.78, 36885.90, 187500.00, 187500.00, 187500.00, -187500.02, -187500.02, 187500.00, 0.000, 0.000, 0.000, 15:28:45.422
179, -9784.39, 36958.56, 187500.00, 187500.00, 187500.00, -187500.02, -187500.02, 187500.00, 0.000, 0.000, 0.000, 15:28:45.422
180, -9756.80, 37179.87, 187500.00, 187500.00, 187500.00, -187500.02, -187500.02, 187500.00, 0.000, 0.000, 0.000, 15:28:45.422
181, -9734.32, 37170.32, 187500.00, 187500.00, 187500.00, -187500.02, -187500.02, 187500.00, 0.000, 0.000, 0.000, 15:28:45.422
182, -9743.93, 37072.13, 187500.00, 187500.00, 187500.00, -187500.02, -187500.02, 187500.00, 0.000, 0.000, 0.000, 15:28:45.423
183, -9787.54, 36875.75, 187500.00, 187500.00, 187500.00, -187500.02, -187500.02, 187500.00, 0.000, 0.000, 0.000, 15:28:45.423
184, -9788.70, 36954.96, 187500.00, 187500.00, 187500.00, -187500.02, -187500.02, 187500.00, 0.000, 0.000, 0.000, 15:28:45.423
185, -9752.98, 37187.67, 187500.00, 187500.00, 187500.00, -187500.02, -187500.02, 187500.00, -0.004, -0.108, 1.022, 15:28:45.423
186, -9729.29, 37182.17, 187500.00, 187500.00, 187500.00, -187500.02, -187500.02, 187500.00, 0.000, 0.000, 0.000, 15:28:45.423
187, -9747.86, 37074.34, 187500.00, 187500.00, 187500.00, -187500.02, -187500.02, 187500.00, 0.000, 0.000, 0.000, 15:28:45.423
188, -9798.13, 36875.84, 187500.00, 187500.00, 187500.00, -187500.02, -187500.02, 187500.00, 0.000, 0.000, 0.000, 15:28:45.423
189, -9804.82, 36950.09, 187500.00, 187500.00, 187500.00, -187500.02, -187500.02, 187500.00, 0.000, 0.000, 0.000, 15:28:45.423
190, -9771.74, 37176.29, 187500.00, 187500.00, 187500.00, -187500.02, -187500.02, 187500.00, 0.000, 0.000, 0.000, 15:28:45.423
191, -9742.83, 37176.23, 187500.00, 187500.00, 187500.00, -187500.02, -187500.02, 187500.00, 0.000, 0.000, 0.000, 15:28:45.424
192, -9759.42, 37074.82, 187500.00, 187500.00, 187500.00, -187500.02, -187500.02, 187500.00, 0.000, 0.000, 0.000, 15:28:45.424
193, -9794.47, 36888.34, 187500.00, 187500.00, 187500.00, -187500.02, -187500.02, 187500.00, 0.000, 0.000, 0.000, 15:28:45.424
194, -9798.98, 36959.35, 187500.00, 187500.00, 187500.00, -187500.02, -187500.02, 187500.00, 0.000, 0.000, 0.000, 15:28:45.424
195, -9775.74, 37178.50, 187500.00, 187500.00, 187500.00, -187500.02, -187500.02, 187500.00, -0.004, -0.108, 1.018, 15:28:45.424
196, -9752.02, 37173.70, 187500.00, 187500.00, 187500.00, -187500.02, -187500.02, 187500.00, 0.000, 0.000, 0.000, 15:28:45.424
197, -9763.67, 37073.81, 187500.00, 187500.00, 187500.00, -187500.02, -187500.02, 187500.00, 0.000, 0.000, 0.000, 15:28:45.424
198, -9794.71, 36892.78, 187500.00, 187500.00, 187500.00, -187500.02, -187500.02, 187500.00, 0.000, 0.000, 0.000, 15:28:45.424
199, -9809.87, 36951.77, 187500.00, 187500.00, 187500.00, -187500.02, -187500.02, 187500.00, 0.000, 0.000, 0.000, 15:28:45.425
200, -9780.77, 37176.63, 187500.00, 187500.00, 187500.00, -187500.02, -187500.02, 187500.00, 0.000, 0.000, 0.000, 15:28:45.425
201, -9757.14, 37168.13, 187500.00, 187500.00, 187500.00, -187500.02, -187500.02, 187500.00, 0.000, 0.000, 0.000, 15:28:45.425
202, -9758.86, 37081.03, 187500.00, 187500.00, 187500.00, -187500.02, -187500.02, 187500.00, 0.000, 0.000, 0.000, 15:28:45.425
203, -9782.75, 36903.15, 187500.00, 187500.00, 187500.00, -187500.02, -187500.02, 187500.00, 0.000, 0.000, 0.000, 15:28:45.425
204, -9795.83, 36959.52, 187500.00, 187500.00, 187500.00, -187500.02, -187500.02, 187500.00, 0.000, 0.000, 0.000, 15:28:45.425
205, -9767.11, 37179.80, 187500.00, 187500.00, 187500.00, -187500.02, -187500.02, 187500.00, 0.000, -0.108, 1.022, 15:28:45.425
206, -9735.32, 37187.73, 187500.00, 187500.00, 187500.00, -187500.02, -187500.02, 187500.00, 0.000, 0.000, 0.000, 15:28:45.425
207, -9753.27, 37084.79, 187500.00, 187500.00, 187500.00, -187500.02, -187500.02, 187500.00, 0.000, 0.000, 0.000, 15:28:45.426
208, -9791.20, 36901.97, 187500.00, 187500.00, 187500.00, -187500.02, -187500.02, 187500.00, 0.000, 0.000, 0.000, 15:28:45.426
209, -9797.24, 36973.92, 187500.00, 187500.00, 187500.00, -187500.02, -187500.02, 187500.00, 0.000, 0.000, 0.000, 15:28:45.426
210, -9773.12, 37194.87, 187500.00, 187500.00, 187500.00, -187500.02, -187500.02, 187500.00, 0.000, 0.000, 0.000, 15:28:45.426
211, -9766.17, 37181.14, 187500.00, 187500.00, 187500.00, -187500.02, -187500.02, 187500.00, 0.000, 0.000, 0.000, 15:28:45.426
212, -9782.84, 37080.38, 187500.00, 187500.00, 187500.00, -187500.02, -187500.02, 187500.00, 0.000, 0.000, 0.000, 15:28:45.426
213, -9817.36, 36897.41, 187500.00, 187500.00, 187500.00, -187500.02, -187500.02, 187500.00, 0.000, 0.000, 0.000, 15:28:45.426
214, -9819.61, 36966.05, 187500.00, 187500.00, 187500.00, -187500.02, -187500.02, 187500.00, 0.000, 0.000, 0.000, 15:28:45.426
215, -9788.75, 37195.27, 187500.00, 187500.00, 187500.00, -187500.02, -187500.02, 187500.00, 0.000, -0.106, 1.020, 15:28:45.426
216, -9767.15, 37190.20, 187500.00, 187500.00, 187500.00, -187500.02, -187500.02, 187500.00, 0.000, 0.000, 0.000, 15:28:45.427
217, -9780.99, 37088.43, 187500.00, 187500.00, 187500.00, -187500.02, -187500.02, 187500.00, 0.000, 0.000, 0.000, 15:28:45.427
218, -9821.09, 36895.73, 187500.00, 187500.00, 187500.00, -187500.02, -187500.02, 187500.00, 0.000, 0.000, 0.000, 15:28:45.427
219, -9820.84, 36961.87, 187500.00, 187500.00, 187500.00, -187500.02, -187500.02, 187500.00, 0.000, 0.000, 0.000, 15:28:45.427
220, -9789.64, 37187.63, 187500.00, 187500.00, 187500.00, -187500.02, -187500.02, 187500.00, 0.000, 0.000, 0.000, 15:28:45.427
221, -9760.58, 37187.80, 187500.00, 187500.00, 187500.00, -187500.02, -187500.02, 187500.00, 0.000, 0.000, 0.000, 15:28:45.427
222, -9776.70, 37084.29, 187500.00, 187500.00, 187500.00, -187500.02, -187500.02, 187500.00, 0.000, 0.000, 0.000, 15:28:45.427
223, -9807.01, 36911.31, 187500.00, 187500.00, 187500.00, -187500.02, -187500.02, 187500.00, 0.000, 0.000, 0.000, 15:28:45.427
224, -9808.71, 36975.51, 187500.00, 187500.00, 187500.00, -187500.02, -187500.02, 187500.00, 0.000, 0.000, 0.000, 15:28:45.428
225, -9782.15, 37189.19, 187500.00, 187500.00, 187500.00, -187500.02, -187500.02, 187500.00, -0.004, -0.110, 1.018, 15:28:45.428
226, -9757.47, 37188.70, 187500.00, 187500.00, 187500.00, -187500.02, -187500.02, 187500.00, 0.000, 0.000, 0.000, 15:28:45.428
227, -9767.64, 37090.04, 187500.00, 187500.00, 187500.00, -187500.02, -187500.02, 187500.00, 0.000, 0.000, 0.000, 15:28:45.428
228, -9804.17, 36907.42, 187500.00, 187500.00, 187500.00, -187500.02, -187500.02, 187500.00, 0.000, 0.000, 0.000, 15:28:45.428
229, -9805.51, 36968.29, 187500.00, 187500.00, 187500.00, -187500.02, -187500.02, 187500.00, 0.000, 0.000, 0.000, 15:28:45.428
230, -9765.19, 37195.13, 187500.00, 187500.00, 187500.00, -187500.02, -187500.02, 187500.00, 0.000, 0.000, 0.000, 15:28:45.428
231, -9739.53, 37198.78, 187500.00, 187500.00, 187500.00, -187500.02, -187500.02, 187500.00, 0.000, 0.000, 0.000, 15:28:45.428
232, -9760.92, 37095.45, 187500.00, 187500.00, 187500.00, -187500.02, -187500.02, 187500.00, 0.000, 0.000, 0.000, 15:28:45.428
233, -9797.48, 36914.73, 187500.00, 187500.00, 187500.00, -187500.02, -187500.02, 187500.00, 0.000, 0.000, 0.000, 15:28:45.429
234, -9807.79, 36964.35, 187500.00, 187500.00, 187500.00, -187500.02, -187500.02, 187500.00, 0.000, 0.000, 0.000, 15:28:45.429
235, -9772.99, 37185.41, 187500.00, 187500.00, 187500.00, -187500.02, -187500.02, 187500.00, -0.008, -0.112, 1.020, 15:28:45.429
236, -9746.25, 37190.82, 187500.00, 187500.00, 187500.00, -187500.02, -187500.02, 187500.00, 0.000, 0.000, 0.000, 15:28:45.429
237, -9762.79, 37100.79, 187500.00, 187500.00, 187500.00, -187500.02, -187500.02, 187500.00, 0.000, 0.000, 0.000, 15:28:45.429
238, -9811.50, 36911.16, 187500.00, 187500.00, 187500.00, -187500.02, -187500.02, 187500.00, 0.000, 0.000, 0.000, 15:28:45.429
239, -9818.74, 36961.56, 187500.00, 187500.00, 187500.00, -187500.02, -187500.02, 187500.00, 0.000, 0.000, 0.000, 15:28:45.429
240, -9789.08, 37180.94, 187500.00, 187500.00, 187500.00, -187500.02, -187500.02, 187500.00, 0.000, 0.000, 0.000, 15:28:45.895
241, -9755.22, 37192.43, 187500.00, 187500.00, 187500.00, -187500.02, -187500.02, 187500.00, 0.000, 0.000, 0.000, 15:28:45.895
242, -9772.12, 37088.92, 187500.00, 187500.00, 187500.00, -187500.02, -187500.02, 187500.00, 0.000, 0.000, 0.000, 15:28:45.895
243, -9802.42, 36917.17, 187500.00, 187500.00, 187500.00, -187500.02, -187500.02, 187500.00, 0.000, 0.000, 0.000, 15:28:45.895
244, -9808.08, 36972.64, 187500.00, 187500.00, 187500.00, -187500.02, -187500.02, 187500.00, 0.000, 0.000, 0.000, 15:28:45.895
245, -9768.18, 37205.24, 187500.00, 187500.00, 187500.00, -187500.02, -187500.02, 187500.00, -0.002, -0.110, 1.024, 15:28:45.895
246, -9743.50, 37209.86, 187500.00, 187500.00, 187500.00, -187500.02, -187500.02, 187500.00, 0.000, 0.000, 0.000, 15:28:45.896
247, -9762.48, 37110.80, 187500.00, 187500.00, 187500.00, -187500.02, -187500.02, 187500.00, 0.000, 0.000, 0.000, 15:28:45.896
248, -9799.29, 36927.74, 187500.00, 187500.00, 187500.00, -187500.02, -187500.02, 187500.00, 0.000, 0.000, 0.000, 15:28:45.896
249, -9795.67, 36987.42, 187500.00, 187500.00, 187500.00, -187500.02, -187500.02, 187500.00, 0.000, 0.000, 0.000, 15:28:45.896
250, -9766.95, 37206.49, 187500.00, 187500.00, 187500.00, -187500.02, -187500.02, 187500.00, 0.000, 0.000, 0.000, 15:28:45.896
251, -9736.58, 37214.94, 187500.00, 187500.00, 187500.00, -187500.02, -187500.02, 187500.00, 0.000, 0.000, 0.000, 15:28:45.898
252, -9756.63, 37109.95, 187500.00, 187500.00, 187500.00, -187500.02, -187500.02, 187500.00, 0.000, 0.000, 0.000, 15:28:45.898
253, -9807.36, 36918.89, 187500.00, 187500.00, 187500.00, -187500.02, -187500.02, 187500.00, 0.000, 0.000, 0.000, 15:28:45.898
254, -9806.76, 36976.07, 187500.00, 187500.00, 187500.00, -187500.02, -187500.02, 187500.00, 0.000, 0.000, 0.000, 15:28:45.898
255, -9774.10, 37196.72, 187500.00, 187500.00, 187500.00, -187500.02, -187500.02, 187500.00, 0.000, -0.110, 1.028, 15:28:45.898
0, -9747.55, 37202.84, 187500.00, 187500.00, 187500.00, -187500.02, -187500.02, 187500.00, 0.000, 0.000, 0.000, 15:28:45.898
1, -9759.00, 37108.34, 187500.00, 187500.00, 187500.00, -187500.02, -187500.02, 187500.00, 0.000, 0.000, 0.000, 15:28:45.898
2, -9803.18, 36916.97, 187500.00, 187500.00, 187500.00, -187500.02, -187500.02, 187500.00, 0.000, 0.000, 0.000, 15:28:45.899
3, -9808.48, 36968.09, 187500.00, 187500.00, 187500.00, -187500.02, -187500.02, 187500.00, 0.000, 0.000, 0.000, 15:28:45.899
4, -9775.58, 37191.98, 187500.00, 187500.00, 187500.00, -187500.02, -187500.02, 187500.00, 0.000, 0.000, 0.000, 15:28:45.899
5, -9749.92, 37195.16, 187500.00, 187500.00, 187500.00, -187500.02, -187500.02, 187500.00, 0.000, 0.000, 0.000, 15:28:45.899
6, -9766.30, 37097.68, 187500.00, 187500.00, 187500.00, -187500.02, -187500.02, 187500.00, 0.000, 0.000, 0.000, 15:28:45.899
7, -9802.94, 36915.31, 187500.00, 187500.00, 187500.00, -187500.02, -187500.02, 187500.00, 0.000, 0.000, 0.000, 15:28:45.899
8, -9808.86, 36959.82, 187500.00, 187500.00, 187500.00, -187500.02, -187500.02, 187500.00, 0.004, -0.108, 1.026, 15:28:45.899
9, -9773.66, 37189.64, 187500.00, 187500.00, 187500.00, -187500.02, -187500.02, 187500.00, 0.000, 0.000, 0.000, 15:28:45.899
10, -9757.85, 37190.33, 187500.00, 187500.00, 187500.00, -187500.02, -187500.02, 187500.00, 0.000, 0.000, 0.000, 15:28:45.900
11, -9766.66, 37100.48, 187500.00, 187500.00, 187500.00, -187500.02, -187500.02, 187500.00, 0.000, 0.000, 0.000, 15:28:45.900
12, -9804.30, 36916.83, 187500.00, 187500.00, 187500.00, -187500.02, -187500.02, 187500.00, 0.000, 0.000, 0.000, 15:28:45.900
13, -9815.57, 36966.41, 187500.00, 187500.00, 187500.00, -187500.02, -187500.02, 187500.00, 0.000, 0.000, 0.000, 15:28:45.900
14, -9769.21, 37204.28, 187500.00, 187500.00, 187500.00, -187500.02, -187500.02, 187500.00, 0.000, 0.000, 0.000, 15:28:45.900
15, -9741.52, 37210.04, 187500.00, 187500.00, 187500.00, -187500.02, -187500.02, 187500.00, 0.000, 0.000, 0.000, 15:28:45.900
16, -9750.43, 37116.55, 187500.00, 187500.00, 187500.00, -187500.02, -187500.02, 187500.00, 0.000, 0.000, 0.000, 15:28:45.900
17, -9782.20, 36934.89, 187500.00, 187500.00, 187500.00, -187500.02, -187500.02, 187500.00, 0.000, 0.000, 0.000, 15:28:45.900
18, -9797.15, 36976.51, 187500.00, 187500.00, 187500.00, -187500.02, -187500.02, 187500.00, 0.000, -0.110, 1.026, 15:28:45.900
19, -9765.19, 37205.73, 187500.00, 187500.00, 187500.00, -187500.02, -187500.02, 187500.00, 0.000, 0.000, 0.000, 15:28:45.901
20, -9742.32, 37208.48, 187500.00, 187500.00, 187500.00, -187500.02, -187500.02, 187500.00, 0.000, 0.000, 0.000, 15:28:45.901
21, -9756.18, 37109.28, 187500.00, 187500.00, 187500.00, -187500.02, -187500.02, 187500.00, 0.000, 0.000, 0.000, 15:28:45.901
22, -9795.50, 36926.22, 187500.00, 187500.00, 187500.00, -187500.02, -187500.02, 187500.00, 0.000, 0.000, 0.000, 15:28:45.901
23, -9798.83, 36974.16, 187500.00, 187500.00, 187500.00, -187500.02, -187500.02, 187500.00, 0.000, 0.000, 0.000, 15:28:45.901
24, -9765.34, 37200.30, 187500.00, 187500.00, 187500.00, -187500.02, -187500.02, 187500.00, 0.000, 0.000, 0.000, 15:28:45.901
25, -9743.37, 37204.48, 187500.00, 187500.00, 187500.00, -187500.02, -187500.02, 187500.00, 0.000, 0.000, 0.000, 15:28:45.901
26, -9749.54, 37111.54, 187500.00, 187500.00, 187500.00, -187500.02, -187500.02, 187500.00, 0.000, 0.000, 0.000, 15:28:45.901
27, -9787.99, 36926.06, 187500.00, 187500.00, 187500.00, -187500.02, -187500.02, 187500.00, 0.000, 0.000, 0.000, 15:28:45.902
28, -9790.89, 36974.32, 187500.00, 187500.00, 187500.00, -187500.02, -187500.02, 187500.00, -0.006, -0.108, 1.018, 15:28:45.902
29, -9749.79, 37207.63, 187500.00, 187500.00, 187500.00, -187500.02, -187500.02, 187500.00, 0.000, 0.000, 0.000, 15:28:45.902
30, -9724.71, 37221.84, 187500.00, 187500.00, 187500.00, -187500.02, -187500.02, 187500.00, 0.000, 0.000, 0.000, 15:28:45.902
31, -9747.91, 37123.92, 187500.00, 187500.00, 187500.00, -187500.02, -187500.02, 187500.00, 0.000, 0.000, 0.000, 15:28:45.902
32, -9787.31, 36938.36, 187500.00, 187500.00, 187500.00, -187500.02, -187500.02, 187500.00, 0.000, 0.000, 0.000, 15:28:45.902
33, -9798.38, 36970.34, 187500.00, 187500.00, 187500.00, -187500.02, -187500.02, 187500.00, 0.000, 0.000, 0.000, 15:28:45.902
34, -9762.30, 37199.92, 187500.00, 187500.00, 187500.00, -187500.02, -187500.02, 187500.00, 0.000, 0.000, 0.000, 15:28:45.902
35, -9741.25, 37210.27, 187500.00, 187500.00, 187500.00, -187500.02, -187500.02, 187500.00, 0.000, 0.000, 0.000, 15:28:45.902
36, -9762.53, 37108.16, 187500.00, 187500.00, 187500.00, -187500.02, -187500.02, 187500.00, 0.000, 0.000, 0.000, 15:28:45.903
37, -9803.23, 36923.56, 187500.00, 187500.00, 187500.00, -187500.02, -187500.02, 187500.00, 0.000, 0.000, 0.000, 15:28:45.903
38, -9821.56, 36954.18, 187500.00, 187500.00, 187500.00, -187500.02, -187500.02, 187500.00, 0.002, -0.114, 1.022, 15:28:45.903
39, -9789.26, 37188.45, 187500.00, 187500.00, 187500.00, -187500.02, -187500.02, 187500.00, 0.000, 0.000, 0.000, 15:28:45.903
40, -9759.87, 37208.05, 187500.00, 187500.00, 187500.00, -187500.02, -187500.02, 187500.00, 0.000, 0.000, 0.000, 15:28:45.903
41, -9774.73, 37117.06, 187500.00, 187500.00, 187500.00, -187500.02, -187500.02, 187500.00, 0.000, 0.000, 0.000, 15:28:45.903
42, -9814.58, 36930.76, 187500.00, 187500.00, 187500.00, -187500.02, -187500.02, 187500.00, 0.000, 0.000, 0.000, 15:28:45.903
43, -9828.35, 36959.03, 187500.00, 187500.00, 187500.00, -187500.02, -187500.02, 187500.00, 0.000, 0.000, 0.000, 15:28:45.903
44, -9795.00, 37188.38, 187500.00, 187500.00, 187500.00, -187500.02, -187500.02, 187500.00, 0.000, 0.000, 0.000, 15:28:45.904
45, -9761.23, 37206.96, 187500.00, 187500.00, 187500.00, -187500.02, -187500.02, 187500.00, 0.000, 0.000, 0.000, 15:28:45.904
46, -9771.76, 37113.73, 187500.00, 187500.00, 187500.00, -187500.02, -187500.02, 187500.00, 0.000, 0.000, 0.000, 15:28:45.904
47, -9808.41, 36933.24, 187500.00, 187500.00, 187500.00, -187500.02, -187500.02, 187500.00, 0.000, 0.000, 0.000, 15:28:45.904
48, -9811.28, 36974.57, 187500.00, 187500.00, 187500.00, -187500.02, -187500.02, 187500.00, -0.002, -0.112, 1.022, 15:28:45.904
49, -9783.31, 37204.79, 187500.00, 187500.00, 187500.00, -187500.02, -187500.02, 187500.00, 0.000, 0.000, 0.000, 15:28:45.904
50, -9756.00, 37218.65, 187500.00, 187500.00, 187500.00, -187500.02, -187500.02, 187500.00, 0.000, 0.000, 0.000, 15:28:45.904
51, -9768.56, 37121.53, 187500.00, 187500.00, 187500.00, -187500.02, -187500.02, 187500.00, 0.000, 0.000, 0.000, 15:28:45.904
52, -9809.82, 36936.19, 187500.00, 187500.00, 187500.00, -187500.02, -187500.02, 187500.00, 0.000, 0.000, 0.000, 15:28:45.905
53, -9823.30, 36963.82, 187500.00, 187500.00, 187500.00, -187500.02, -187500.02, 187500.00, 0.000, 0.000, 0.000, 15:28:45.905
54, -9787.56, 37199.87, 187500.00, 187500.00, 187500.00, -187500.02, -187500.02, 187500.00, 0.000, 0.000, 0.000, 15:28:45.905
55, -9758.59, 37218.09, 187500.00, 187500.00, 187500.00, -187500.02, -187500.02, 187500.00, 0.000, 0.000, 0.000, 15:28:45.905
56, -9779.40, 37111.61, 187500.00, 187500.00, 187500.00, -187500.02, -187500.02, 187500.00, 0.000, 0.000, 0.000, 15:28:45.905
57, -9809.98, 36935.54, 187500.00, 187500.00, 187500.00, -187500.02, -187500.02, 187500.00, 0.000, 0.000, 0.000, 15:28:45.905
58, -9817.13, 36969.34, 187500.00, 187500.00, 187500.00, -187500.02, -187500.02, 187500.00, -0.004, -0.114, 1.024, 15:28:45.905
59, -9791.67, 37194.00, 187500.00, 187500.00, 187500.00, -187500.02, -187500.02, 187500.00, 0.000, 0.000, 0.000, 15:28:45.905
60, -9762.03, 37211.16, 187500.00, 187500.00, 187500.00, -187500.02, -187500.02, 187500.00, 0.000, 0.000, 0.000, 15:28:45.906
61, -9784.63, 37108.54, 187500.00, 187500.00, 187500.00, -187500.02, -187500.02, 187500.00, 0.000, 0.000, 0.000, 15:28:45.906
62, -9832.33, 36919.80, 187500.00, 187500.00, 187500.00, -187500.02, -187500.02, 187500.00, 0.000, 0.000, 0.000, 15:28:45.906
63, -9851.44, 36942.78, 187500.00, 187500.00, 187500.00, -187500.02, -187500.02, 187500.00, 0.000, 0.000, 0.000, 15:28:45.906
64, -9807.74, 37193.44, 187500.00, 187500.00, 187500.00, -187500.02, -187500.02, 187500.00, 0.000, 0.000, 0.000, 15:28:45.906
65, -9784.74, 37203.54, 187500.00, 187500.00, 187500.00, -187500.02, -187500.02, 187500.00, 0.000, 0.000, 0.000, 15:28:45.906
66, -9794.87, 37107.54, 187500.00, 187500.00, 187500.00, -187500.02, -187500.02, 187500.00, 0.000, 0.000, 0.000, 15:28:45.906
67, -9836.89, 36919.45, 187500.00, 187500.00, 187500.00, -187500.02, -187500.02, 187500.00, 0.000, 0.000, 0.000, 15:28:45.906
68, -9840.56, 36957.34, 187500.00, 187500.00, 187500.00, -187500.02, -187500.02, 187500.00, -0.002, -0.112, 1.026, 15:28:45.907
69, -9804.75, 37194.46, 187500.00, 187500.00, 187500.00, -187500.02, -187500.02, 187500.00, 0.000, 0.000, 0.000, 15:28:45.907
70, -9781.68, 37203.76, 187500.00, 187500.00, 187500.00, -187500.02, -187500.02, 187500.00, 0.000, 0.000, 0.000, 15:28:45.907
71, -9795.12, 37102.15, 187500.00, 187500.00, 187500.00, -187500.02, -187500.02, 187500.00, 0.000, 0.000, 0.000, 15:28:45.907
72, -9834.05, 36917.73, 187500.00, 187500.00, 187500.00, -187500.02, -187500.02, 187500.00, 0.000, 0.000, 0.000, 15:28:45.907
73, -9839.62, 36951.77, 187500.00, 187500.00, 187500.00, -187500.02, -187500.02, 187500.00, 0.000, 0.000, 0.000, 15:28:45.907
74, -9807.19, 37187.11, 187500.00, 187500.00, 187500.00, -187500.02, -187500.02, 187500.00, 0.000, 0.000, 0.000, 15:28:45.907
75, -9779.96, 37205.37, 187500.00, 187500.00, 187500.00, -187500.02, -187500.02, 187500.00, 0.000, 0.000, 0.000, 15:28:45.907
76, -9794.98, 37115.25, 187500.00, 187500.00, 187500.00, -187500.02, -187500.02, 187500.00, 0.000, 0.000, 0.000, 15:28:45.907
77, -9834.43, 36931.85, 187500.00, 187500.00, 187500.00, -187500.02, -187500.02, 187500.00, 0.000, 0.000, 0.000, 15:28:45.908
78, -9848.22, 36956.53, 187500.00, 187500.00, 187500.00, -187500.02, -187500.02, 187500.00, 0.004, -0.114, 1.018, 15:28:45.908
79, -9831.35, 37177.50, 187500.00, 187500.00, 187500.00, -187500.02, -187500.02, 187500.00, 0.000, 0.000, 0.000, 15:28:45.908
80, -9813.60, 37183.00, 187500.00, 187500.00, 187500.00, -187500.02, -187500.02, 187500.00, 0.000, 0.000, 0.000, 15:28:45.908
81, -9819.17, 37091.96, 187500.00, 187500.00, 187500.00, -187500.02, -187500.02, 187500.00, 0.000, 0.000, 0.000, 15:28:45.908
82, -9852.58, 36911.56, 187500.00, 187500.00, 187500.00, -187500.02, -187500.02, 187500.00, 0.000, 0.000, 0.000, 15:28:45.908
83, -9872.30, 36931.79, 187500.00, 187500.00, 187500.00, -187500.02, -187500.02, 187500.00, 0.000, 0.000, 0.000, 15:28:45.908
84, -9856.16, 37153.94, 187500.00, 187500.00, 187500.00, -187500.02, -187500.02, 187500.00, 0.000, 0.000, 0.000, 15:28:45.908
85, -9835.10, 37168.54, 187500.00, 187500.00, 187500.00, -187500.02, -187500.02, 187500.00, 0.000, 0.000, 0.000, 15:28:45.909
86, -9833.07, 37086.10, 187500.00, 187500.00, 187500.00, -187500.02, -187500.02, 187500.00, 0.000, 0.000, 0.000, 15:28:45.909
87, -9842.28, 36925.73, 187500.00, 187500.00, 187500.00, -187500.02, -187500.02, 187500.00, 0.000, 0.000, 0.000, 15:28:45.909
88, -9860.27, 36936.84, 187500.00, 187500.00, 187500.00, -187500.02, -187500.02, 187500.00, 0.000, -0.112, 1.022, 15:28:45.909
89, -9861.79, 37142.65, 187500.00, 187500.00, 187500.00, -187500.02, -187500.02, 187500.00, 0.000, 0.000, 0.000, 15:28:45.909
90, -9839.59, 37159.44, 187500.00, 187500.00, 187500.00, -187500.02, -187500.02, 187500.00, 0.000, 0.000, 0.000, 15:28:45.909
91, -9840.56, 37084.54, 187500.00, 187500.00, 187500.00, -187500.02, -187500.02, 187500.00, 0.000, 0.000, 0.000, 15:28:45.909
92, -9861.88, 36922.27, 187500.00, 187500.00, 187500.00, -187500.02, -187500.02, 187500.00, 0.000, 0.000, 0.000, 15:28:45.909
93, -9883.11, 36931.72, 187500.00, 187500.00, 187500.00, -187500.02, -187500.02, 187500.00, 0.000, 0.000, 0.000, 15:28:45.910
94, -9866.42, 37148.29, 187500.00, 187500.00, 187500.00, -187500.02, -187500.02, 187500.00, 0.000, 0.000, 0.000, 15:28:45.910
95, -9837.87, 37164.71, 187500.00, 187500.00, 187500.00, -187500.02, -187500.02, 187500.00, 0.000, 0.000, 0.000, 15:28:45.910
96, -9845.52, 37075.35, 187500.00, 187500.00, 187500.00, -187500.02, -187500.02, 187500.00, 0.000, 0.000, 0.000, 15:28:45.910
97, -9872.41, 36903.22, 187500.00, 187500.00, 187500.00, -187500.02, -187500.02, 187500.00, 0.000, 0.000, 0.000, 15:28:45.910
98, -9887.34, 36917.05, 187500.00, 187500.00, 187500.00, -187500.02, -187500.02, 187500.00, 0.004, -0.114, 1.022, 15:28:45.910
99, -9847.49, 37160.58, 187500.00, 187500.00, 187500.00, -187500.02, -187500.02, 187500.00, 0.000, 0.000, 0.000, 15:28:45.910
100, -9828.89, 37170.26, 187500.00, 187500.00, 187500.00, -187500.02, -187500.02, 187500.00, 0.000, 0.000, 0.000, 15:28:45.910
101, -9856.40, 37062.12, 187500.00, 187500.00, 187500.00, -187500.02, -187500.02, 187500.00, 0.000, 0.000, 0.000, 15:28:45.911
102, -9900.01, 36868.17, 187500.00, 187500.00, 187500.00, -187500.02, -187500.02, 187500.00, 0.000, 0.000, 0.000, 15:28:45.911
103, -9901.40, 36894.86, 187500.00, 187500.00, 187500.00, -187500.02, -187500.02, 187500.00, 0.000, 0.000, 0.000, 15:28:45.911
104, -9858.15, 37150.14, 187500.00, 187500.00, 187500.00, -187500.02, -187500.02, 187500.00, 0.000, 0.000, 0.000, 15:28:46.375
105, -9826.72, 37178.32, 187500.00, 187500.00, 187500.00, -187500.02, -187500.02, 187500.00, 0.000, 0.000, 0.000, 15:28:46.375
106, -9849.83, 37070.95, 187500.00, 187500.00, 187500.00, -187500.02, -187500.02, 187500.00, 0.000, 0.000, 0.000, 15:28:46.375
107, -9903.54, 36863.10, 187500.00, 187500.00, 187500.00, -187500.02, -187500.02, 187500.00, 0.000, 0.000, 0.000, 15:28:46.375
108, -9916.84, 36877.45, 187500.00, 187500.00, 187500.00, -187500.02, -187500.02, 187500.00, -0.002, -0.108, 1.018, 15:28:46.375
109, -9867.49, 37139.61, 187500.00, 187500.00, 187500.00, -187500.02, -187500.02, 187500.00, 0.000, 0.000, 0.000, 15:28:46.375
110, -9838.77, 37161.92, 187500.00, 187500.00, 187500.00, -187500.02, -187500.02, 187500.00, 0.000, 0.000, 0.000, 15:28:46.376
111, -9851.26, 37066.63, 187500.00, 187500.00, 187500.00, -187500.02, -187500.02, 187500.00, 0.000, 0.000, 0.000, 15:28:46.376
112, -9887.09, 36878.79, 187500.00, 187500.00, 187500.00, -187500.02, -187500.02, 187500.00, 0.000, 0.000, 0.000, 15:28:46.376
113, -9900.64, 36896.80, 187500.00, 187500.00, 187500.00, -187500.02, -187500.02, 187500.00, 0.000, 0.000, 0.000, 15:28:46.376
114, -9880.28, 37130.87, 187500.00, 187500.00, 187500.00, -187500.02, -187500.02, 187500.00, 0.000, 0.000, 0.000, 15:28:46.376
115, -9871.76, 37137.51, 187500.00, 187500.00, 187500.00, -187500.02, -187500.02, 187500.00, 0.000, 0.000, 0.000, 15:28:46.376
116, -9874.15, 37049.29, 187500.00, 187500.00, 187500.00, -187500.02, -187500.02, 187500.00, 0.000, 0.000, 0.000, 15:28:46.376
117, -9891.03, 36884.76, 187500.00, 187500.00, 187500.00, -187500.02, -187500.02, 187500.00, 0.000, -0.108, 1.020, 15:28:46.377
118, -9909.80, 36901.37, 187500.00, 187500.00, 187500.00, -187500.02, -187500.02, 187500.00, 0.000, 0.000, 0.000, 15:28:46.377
119, -9894.18, 37127.83, 187500.00, 187500.00, 187500.00, -187500.02, -187500.02, 187500.00, 0.000, 0.000, 0.000, 15:28:46.377
120, -9879.00, 37133.69, 187500.00, 187500.00, 187500.00, -187500.02, -187500.02, 187500.00, 0.000, 0.000, 0.000, 15:28:46.377
121, -9880.32, 37045.07, 187500.00, 187500.00, 187500.00, -187500.02, -187500.02, 187500.00, 0.000, 0.000, 0.000, 15:28:46.377
122, -9903.63, 36872.51, 187500.00, 187500.00, 187500.00, -187500.02, -187500.02, 187500.00, 0.000, 0.000, 0.000, 15:28:46.377
123, -9909.22, 36888.51, 187500.00, 187500.00, 187500.00, -187500.02, -187500.02, 187500.00, 0.000, 0.000, 0.000, 15:28:46.377
124, -9897.20, 37112.79, 187500.00, 187500.00, 187500.00, -187500.02, -187500.02, 187500.00, 0.000, 0.000, 0.000, 15:28:46.377
125, -9864.88, 37141.20, 187500.00, 187500.00, 187500.00, -187500.02, -187500.02, 187500.00, 0.000, 0.000, 0.000, 15:28:46.377
126, -9868.07, 37050.21, 187500.00, 187500.00, 187500.00, -187500.02, -187500.02, 187500.00, 0.000, 0.000, 0.000, 15:28:46.378
127, -9899.52, 36867.77, 187500.00, 187500.00, 187500.00, -187500.02, -187500.02, 187500.00, -0.004, -0.108, 1.024, 15:28:46.378
128, -9914.12, 36883.42, 187500.00, 187500.00, 187500.00, -187500.02, -187500.02, 187500.00, 0.000, 0.000, 0.000, 15:28:46.378
129, -9902.98, 37113.21, 187500.00, 187500.00, 187500.00, -187500.02, -187500.02, 187500.00, 0.000, 0.000, 0.000, 15:28:46.378
130, -9872.94, 37134.94, 187500.00, 187500.00, 187500.00, -187500.02, -187500.02, 187500.00, 0.000, 0.000, 0.000, 15:28:46.378
131, -9867.18, 37056.51, 187500.00, 187500.00, 187500.00, -187500.02, -187500.02, 187500.00, 0.000, 0.000, 0.000, 15:28:46.378
132, -9890.42, 36886.59, 187500.00, 187500.00, 187500.00, -187500.02, -187500.02, 187500.00, 0.000, 0.000, 0.000, 15:28:46.378
133, -9907.77, 36891.69, 187500.00, 187500.00, 187500.00, -187500.02, -187500.02, 187500.00, 0.000, 0.000, 0.000, 15:28:46.378
134, -9894.94, 37117.80, 187500.00, 187500.00, 187500.00, -187500.02, -187500.02, 187500.00, 0.000, 0.000, 0.000, 15:28:46.379
135, -9855.33, 37153.49, 187500.00, 187500.00, 187500.00, -187500.02, -187500.02, 187500.00, 0.000, 0.000, 0.000, 15:28:46.379
136, -9851.91, 37067.15, 187500.00, 187500.00, 187500.00, -187500.02, -187500.02, 187500.00, 0.000, 0.000, 0.000, 15:28:46.379
137, -9873.19, 36891.31, 187500.00, 187500.00, 187500.00, -187500.02, -187500.02, 187500.00, -0.004, -0.108, 1.020, 15:28:46.379
138, -9887.34, 36898.28, 187500.00, 187500.00, 187500.00, -187500.02, -187500.02, 187500.00, 0.000, 0.000, 0.000, 15:28:46.379
139, -9868.90, 37132.46, 187500.00, 187500.00, 187500.00, -187500.02, -187500.02, 187500.00, 0.000, 0.000, 0.000, 15:28:46.379
140, -9865.93, 37133.64, 187500.00, 187500.00, 187500.00, -187500.02, -187500.02, 187500.00, 0.000, 0.000, 0.000, 15:28:46.379
141, -9874.73, 37035.18, 187500.00, 187500.00, 187500.00, -187500.02, -187500.02, 187500.00, 0.000, 0.000, 0.000, 15:28:46.380
142, -9896.77, 36862.47, 187500.00, 187500.00, 187500.00, -187500.02, -187500.02, 187500.00, 0.000, 0.000, 0.000, 15:28:46.380
143, -9909.40, 36873.40, 187500.00, 187500.00, 187500.00, -187500.02, -187500.02, 187500.00, 0.000, 0.000, 0.000, 15:28:46.380
144, -9891.81, 37106.89, 187500.00, 187500.00, 187500.00, -187500.02, -187500.02, 187500.00, 0.000, 0.000, 0.000, 15:28:46.380
145, -9859.29, 37133.58, 187500.00, 187500.00, 187500.00, -187500.02, -187500.02, 187500.00, 0.000, 0.000, 0.000, 15:28:46.380
146, -9871.63, 37042.52, 187500.00, 187500.00, 187500.00, -187500.02, -187500.02, 187500.00, 0.000, 0.000, 0.000, 15:28:46.380
147, -9915.32, 36848.57, 187500.00, 187500.00, 187500.00, -187500.02, -187500.02, 187500.00, -0.004, -0.110, 1.018, 15:28:46.380
148, -9927.73, 36852.48, 187500.00, 187500.00, 187500.00, -187500.02, -187500.02, 187500.00, 0.000, 0.000, 0.000, 15:28:46.380
149, -9900.26, 37099.25, 187500.00, 187500.00, 187500.00, -187500.02, -187500.02, 187500.00, 0.000, 0.000, 0.000, 15:28:46.380
150, -9868.47, 37129.75, 187500.00, 187500.00, 187500.00, -187500.02, -187500.02, 187500.00, 0.000, 0.000, 0.000, 15:28:46.381
151, -9872.09, 37035.90, 187500.00, 187500.00, 187500.00, -187500.02, -187500.02, 187500.00, 0.000, 0.000, 0.000, 15:28:46.381
152, -9893.87, 36853.53, 187500.00, 187500.00, 187500.00, -187500.02, -187500.02, 187500.00, 0.000, 0.000, 0.000, 15:28:46.381
153, -9911.03, 36850.38, 187500.00, 187500.00, 187500.00, -187500.02, -187500.02, 187500.00, 0.000, 0.000, 0.000, 15:28:46.381
154, -9888.72, 37097.28, 187500.00, 187500.00, 187500.00, -187500.02, -187500.02, 187500.00, 0.000, 0.000, 0.000, 15:28:46.381
155, -9855.46, 37139.50, 187500.00, 187500.00, 187500.00, -187500.02, -187500.02, 187500.00, 0.000, 0.000, 0.000, 15:28:46.381
156, -9860.45, 37051.55, 187500.00, 187500.00, 187500.00, -187500.02, -187500.02, 187500.00, 0.000, 0.000, 0.000, 15:28:46.381
157, -9899.34, 36857.96, 187500.00, 187500.00, 187500.00, -187500.02, -187500.02, 187500.00, -0.004, -0.106, 1.020, 15:28:46.381
158, -9935.95, 36831.45, 187500.00, 187500.00, 187500.00, -187500.02, -187500.02, 187500.00, 0.000, 0.000, 0.000, 15:28:46.382
159, -9922.50, 37059.64, 187500.00, 187500.00, 187500.00, -187500.02, -187500.02, 187500.00, 0.000, 0.000, 0.000, 15:28:46.382
160, -9873.64, 37107.00, 187500.00, 187500.00, 187500.00, -187500.02, -187500.02, 187500.00, 0.000, 0.000, 0.000, 15:28:46.382
161, -9855.76, 37039.05, 187500.00, 187500.00, 187500.00, -187500.02, -187500.02, 187500.00, 0.000, 0.000, 0.000, 15:28:46.382
162, -9887.88, 36854.65, 187500.00, 187500.00, 187500.00, -187500.02, -187500.02, 187500.00, 0.000, 0.000, 0.000, 15:28:46.382
163, -9917.54, 36838.20, 187500.00, 187500.00, 187500.00, -187500.02, -187500.02, 187500.00, 0.000, 0.000, 0.000, 15:28:46.382
164, -9917.27, 37059.91, 187500.00, 187500.00, 187500.00, -187500.02, -187500.02, 187500.00, 0.000, 0.000, 0.000, 15:28:46.382
165, -9876.90, 37100.56, 187500.00, 187500.00, 187500.00, -187500.02, -187500.02, 187500.00, 0.000, 0.000, 0.000, 15:28:46.382
166, -9889.71, 36999.24, 187500.00, 187500.00, 187500.00, -187500.02, -187500.02, 187500.00, 0.000, 0.000, 0.000, 15:28:46.383
167, -9922.16, 36812.94, 187500.00, 187500.00, 187500.00, -187500.02, -187500.02, 187500.00, -0.006, -0.106, 1.016, 15:28:46.383
168, -9941.88, 36806.86, 187500.00, 187500.00, 187500.00, -187500.02, -187500.02, 187500.00, 0.000, 0.000, 0.000, 15:28:46.383
169, -9915.12, 37056.33, 187500.00, 187500.00, 187500.00, -187500.02, -187500.02, 187500.00, 0.000, 0.000, 0.000, 15:28:46.383
170, -9895.07, 37083.06, 187500.00, 187500.00, 187500.00, -187500.02, -187500.02, 187500.00, 0.000, 0.000, 0.000, 15:28:46.383
171, -9906.38, 36988.98, 187500.00, 187500.00, 187500.00, -187500.02, -187500.02, 187500.00, 0.000, 0.000, 0.000, 15:28:46.383
172, -9937.58, 36802.66, 187500.00, 187500.00, 187500.00, -187500.02, -187500.02, 187500.00, 0.000, 0.000, 0.000, 15:28:46.383
173, -9948.90, 36801.77, 187500.00, 187500.00, 187500.00, -187500.02, -187500.02, 187500.00, 0.000, 0.000, 0.000, 15:28:46.383
174, -9927.39, 37048.37, 187500.00, 187500.00, 187500.00, -187500.02, -187500.02, 187500.00, 0.000, 0.000, 0.000, 15:28:46.383
175, -9905.42, 37076.27, 187500.00, 187500.00, 187500.00, -187500.02, -187500.02, 187500.00, 0.000, 0.000, 0.000, 15:28:46.384
176, -9902.36, 36990.77, 187500.00, 187500.00, 187500.00, -187500.02, -187500.02, 187500.00, 0.000, 0.000, 0.000, 15:28:46.384
177, -9946.21, 36793.18, 187500.00, 187500.00, 187500.00, -187500.02, -187500.02, 187500.00, -0.006, -0.110, 1.016, 15:28:46.384
178, -9976.34, 36774.50, 187500.00, 187500.00, 187500.00, -187500.02, -187500.02, 187500.00, 0.000, 0.000, 0.000, 15:28:46.384
179, -9957.19, 37015.05, 187500.00, 187500.00, 187500.00, -187500.02, -187500.02, 187500.00, 0.000, 0.000, 0.000, 15:28:46.384
180, -9918.68, 37053.80, 187500.00, 187500.00, 187500.00, -187500.02, -187500.02, 187500.00, 0.000, 0.000, 0.000, 15:28:46.384
181, -9909.18, 36980.02, 187500.00, 187500.00, 187500.00, -187500.02, -187500.02, 187500.00, 0.000, 0.000, 0.000, 15:28:46.384
182, -9957.93, 36785.02, 187500.00, 187500.00, 187500.00, -187500.02, -187500.02, 187500.00, 0.000, 0.000, 0.000, 15:28:46.384
183, -9987.94, 36766.88, 187500.00, 187500.00, 187500.00, -187500.02, -187500.02, 187500.00, 0.000, 0.000, 0.000, 15:28:46.384
184, -9966.24, 37010.20, 187500.00, 187500.00, 187500.00, -187500.02, -187500.02, 187500.00, 0.000, 0.000, 0.000, 15:28:46.385
185, -9928.20, 37051.57, 187500.00, 187500.00, 187500.00, -187500.02, -187500.02, 187500.00, 0.000, 0.000, 0.000, 15:28:46.385
186, -9932.40, 36956.39, 187500.00, 187500.00, 187500.00, -187500.02, -187500.02, 187500.00, 0.000, 0.000, 0.000, 15:28:46.385
187, -9958.75, 36772.62, 187500.00, 187500.00, 187500.00, -187500.02, -187500.02, 187500.00, 0.000, -0.110, 1.020, 15:28:46.385
188, -9979.34, 36759.77, 187500.00, 187500.00, 187500.00, -187500.02, -187500.02, 187500.00, 0.000, 0.000, 0.000, 15:28:46.385
189, -9962.40, 36998.57, 187500.00, 187500.00, 187500.00, -187500.02, -187500.02, 187500.00, 0.000, 0.000, 0.000, 15:28:46.385
190, -9942.37, 37018.38, 187500.00, 187500.00, 187500.00, -187500.02, -187500.02, 187500.00, 0.000, 0.000, 0.000, 15:28:46.385
191, -9945.25, 36929.24, 187500.00, 187500.00, 187500.00, -187500.02, -187500.02, 187500.00, 0.000, 0.000, 0.000, 15:28:46.385
192, -9961.68, 36763.48, 187500.00, 187500.00, 187500.00, -187500.02, -187500.02, 187500.00, 0.000, 0.000, 0.000, 15:28:46.386
193, -9987.68, 36744.30, 187500.00, 187500.00, 187500.00, -187500.02, -187500.02, 187500.00, 0.000, 0.000, 0.000, 15:28:46.386
194, -9965.55, 36991.00, 187500.00, 187500.00, 187500.00, -187500.02, -187500.02, 187500.00, 0.000, 0.000, 0.000, 15:28:46.386
195, -9929.07, 37030.49, 187500.00, 187500.00, 187500.00, -187500.02, -187500.02, 187500.00, 0.000, 0.000, 0.000, 15:28:46.386
196, -9946.19, 36925.06, 187500.00, 187500.00, 187500.00, -187500.02, -187500.02, 187500.00, 0.000, 0.000, 0.000, 15:28:46.386
197, -9997.06, 36723.27, 187500.00, 187500.00, 187500.00, -187500.02, -187500.02, 187500.00, 0.000, -0.110, 1.012, 15:28:46.386
198, -10004.42, 36719.91, 187500.00, 187500.00, 187500.00, -187500.02, -187500.02, 187500.00, 0.000, 0.000, 0.000, 15:28:46.386
199, -9976.75, 36970.21, 187500.00, 187500.00, 187500.00, -187500.02, -187500.02, 187500.00, 0.000, 0.000, 0.000, 15:28:46.387
200, -9944.78, 37012.12, 187500.00, 187500.00, 187500.00, -187500.02, -187500.02, 187500.00, 0.000, 0.000, 0.000, 15:28:46.387
201, -9947.55, 36927.52, 187500.00, 187500.00, 187500.00, -187500.02, -187500.02, 187500.00, 0.000, 0.000, 0.000, 15:28:46.387
202, -9984.19, 36741.48, 187500.00, 187500.00, 187500.00, -187500.02, -187500.02, 187500.00, 0.000, 0.000, 0.000, 15:28:46.387
203, -10009.42, 36726.02, 187500.00, 187500.00, 187500.00, -187500.02, -187500.02, 187500.00, 0.000, 0.000, 0.000, 15:28:46.387
204, -9987.92, 36973.38, 187500.00, 187500.00, 187500.00, -187500.02, -187500.02, 187500.00, 0.000, 0.000, 0.000, 15:28:46.387
205, -9963.54, 37002.06, 187500.00, 187500.00, 187500.00, -187500.02, -187500.02, 187500.00, 0.000, 0.000, 0.000, 15:28:46.387
206, -9959.78, 36917.55, 187500.00, 187500.00, 187500.00, -187500.02, -187500.02, 187500.00, 0.000, 0.000, 0.000, 15:28:46.387
207, -9988.35, 36734.40, 187500.00, 187500.00, 187500.00, -187500.02, -187500.02, 187500.00, -0.006, -0.116, 1.014, 15:28:46.388
208, -10015.46, 36706.97, 187500.00, 187500.00, 187500.00, -187500.02, -187500.02, 187500.00, 0.000, 0.000, 0.000, 15:28:46.388
209, -9998.54, 36952.86, 187500.00, 187500.00, 187500.00, -187500.02, -187500.02, 187500.00, 0.000, 0.000, 0.000, 15:28:46.388
210, -9969.21, 36993.61, 187500.00, 187500.00, 187500.00, -187500.02, -187500.02, 187500.00, 0.000, 0.000, 0.000, 15:28:46.388
211, -9961.70, 36913.61, 187500.00, 187500.00, 187500.00, -187500.02, -187500.02, 187500.00, 0.000, 0.000, 0.000, 15:28:46.388
212, -9990.29, 36733.66, 187500.00, 187500.00, 187500.00, -187500.02, -187500.02, 187500.00, 0.000, 0.000, 0.000, 15:28:46.388
213, -10020.62, 36701.52, 187500.00, 187500.00, 187500.00, -187500.02, -187500.02, 187500.00, 0.000, 0.000, 0.000, 15:28:46.388
214, -10002.76, 36942.25, 187500.00, 187500.00, 187500.00, -187500.02, -187500.02, 187500.00, 0.000, 0.000, 0.000, 15:28:46.388
215, -9975.27, 36986.35, 187500.00, 187500.00, 187500.00, -187500.02, -187500.02, 187500.00, 0.000, 0.000, 0.000, 15:28:46.389
216, -9972.32, 36906.55, 187500.00, 187500.00, 187500.00, -187500.02, -187500.02, 187500.00, 0.000, 0.000, 0.000, 15:28:46.389
217, -10005.85, 36719.24, 187500.00, 187500.00, 187500.00, -187500.02, -187500.02, 187500.00, -0.004, -0.116, 1.018, 15:28:46.389
218, -10026.01, 36691.08, 187500.00, 187500.00, 187500.00, -187500.02, -187500.02, 187500.00, 0.000, 0.000, 0.000, 15:28:46.389
219, -10001.56, 36940.70, 187500.00, 187500.00, 187500.00, -187500.02, -187500.02, 187500.00, 0.000, 0.000, 0.000, 15:28:46.389
220, -9961.66, 36998.42, 187500.00, 187500.00, 187500.00, -187500.02, -187500.02, 187500.00, 0.000, 0.000, 0.000, 15:28:46.389
221, -9958.71, 36918.42, 187500.00, 187500.00, 187500.00, -187500.02, -187500.02, 187500.00, 0.000, 0.000, 0.000, 15:28:46.389
222, -10008.57, 36714.26, 187500.00, 187500.00, 187500.00, -187500.02, -187500.02, 187500.00, 0.000, 0.000, 0.000, 15:28:46.389
223, -10027.15, 36687.01, 187500.00, 187500.00, 187500.00, -187500.02, -187500.02, 187500.00, 0.000, 0.000, 0.000, 15:28:46.390
224, -10002.81, 36937.62, 187500.00, 187500.00, 187500.00, -187500.02, -187500.02, 187500.00, 0.000, 0.000, 0.000, 15:28:46.855
225, -9964.72, 36991.44, 187500.00, 187500.00, 187500.00, -187500.02, -187500.02, 187500.00, 0.000, 0.000, 0.000, 15:28:46.855
226, -9972.01, 36896.89, 187500.00, 187500.00, 187500.00, -187500.02, -187500.02, 187500.00, 0.000, 0.000, 0.000, 15:28:46.856
227, -9998.85, 36718.73, 187500.00, 187500.00, 187500.00, -187500.02, -187500.02, 187500.00, -0.002, -0.116, 1.012, 15:28:46.856
228, -10020.15, 36693.70, 187500.00, 187500.00, 187500.00, -187500.02, -187500.02, 187500.00, 0.000, 0.000, 0.000, 15:28:46.856
229, -10002.92, 36936.59, 187500.00, 187500.00, 187500.00, -187500.02, -187500.02, 187500.00, 0.000, 0.000, 0.000, 15:28:46.856
230, -9966.98, 36990.23, 187500.00, 187500.00, 187500.00, -187500.02, -187500.02, 187500.00, 0.000, 0.000, 0.000, 15:28:46.856
231, -9960.38, 36909.95, 187500.00, 187500.00, 187500.00, -187500.02, -187500.02, 187500.00, 0.000, 0.000, 0.000, 15:28:46.857
232, -10001.11, 36719.42, 187500.00, 187500.00, 187500.00, -187500.02, -187500.02, 187500.00, 0.000, 0.000, 0.000, 15:28:46.857
233, -10024.73, 36685.20, 187500.00, 187500.00, 187500.00, -187500.02, -187500.02, 187500.00, 0.000, 0.000, 0.000, 15:28:46.857
234, -9997.47, 36939.05, 187500.00, 187500.00, 187500.00, -187500.02, -187500.02, 187500.00, 0.000, 0.000, 0.000, 15:28:46.857
235, -9960.25, 36993.66, 187500.00, 187500.00, 187500.00, -187500.02, -187500.02, 187500.00, 0.000, 0.000, 0.000, 15:28:46.857
236, -9973.57, 36890.68, 187500.00, 187500.00, 187500.00, -187500.02, -187500.02, 187500.00, -0.002, -0.116, 1.012, 15:28:46.857
237, -10000.42, 36712.02, 187500.00, 187500.00, 187500.00, -187500.02, -187500.02, 187500.00, 0.000, 0.000, 0.000, 15:28:46.858
238, -10021.45, 36680.44, 187500.00, 187500.00, 187500.00, -187500.02, -187500.02, 187500.00, 0.000, 0.000, 0.000, 15:28:46.858
239, -10001.49, 36925.26, 187500.00, 187500.00, 187500.00, -187500.02, -187500.02, 187500.00, 0.000, 0.000, 0.000, 15:28:46.858
240, -9960.83, 36986.61, 187500.00, 187500.00, 187500.00, -187500.02, -187500.02, 187500.00, 0.000, 0.000, 0.000, 15:28:46.858
241, -9966.87, 36899.49, 187500.00, 187500.00, 187500.00, -187500.02, -187500.02, 187500.00, 0.000, 0.000, 0.000, 15:28:46.858
242, -10009.33, 36704.27, 187500.00, 187500.00, 187500.00, -187500.02, -187500.02, 187500.00, 0.000, 0.000, 0.000, 15:28:46.858
243, -10025.50, 36672.68, 187500.00, 187500.00, 187500.00, -187500.02, -187500.02, 187500.00, 0.000, 0.000, 0.000, 15:28:46.858
244, -9996.59, 36925.64, 187500.00, 187500.00, 187500.00, -187500.02, -187500.02, 187500.00, 0.000, 0.000, 0.000, 15:28:46.858
245, -9971.16, 36965.74, 187500.00, 187500.00, 187500.00, -187500.02, -187500.02, 187500.00, 0.000, 0.000, 0.000, 15:28:46.859
246, -9978.98, 36867.19, 187500.00, 187500.00, 187500.00, -187500.02, -187500.02, 187500.00, -0.002, -0.112, 1.012, 15:28:46.859
247, -10014.97, 36681.85, 187500.00, 187500.00, 187500.00, -187500.02, -187500.02, 187500.00, 0.000, 0.000, 0.000, 15:28:46.859
248, -10031.55, 36654.42, 187500.00, 187500.00, 187500.00, -187500.02, -187500.02, 187500.00, 0.000, 0.000, 0.000, 15:28:46.859
249, -10002.25, 36908.99, 187500.00, 187500.00, 187500.00, -187500.02, -187500.02, 187500.00, 0.000, 0.000, 0.000, 15:28:46.859
250, -9977.80, 36954.47, 187500.00, 187500.00, 187500.00, -187500.02, -187500.02, 187500.00, 0.000, 0.000, 0.000, 15:28:46.859
251, -9971.92, 36875.32, 187500.00, 187500.00, 187500.00, -187500.02, -187500.02, 187500.00, 0.000, 0.000, 0.000, 15:28:46.859
252, -10000.53, 36699.98, 187500.00, 187500.00, 187500.00, -187500.02, -187500.02, 187500.00, 0.000, 0.000, 0.000, 15:28:46.859
253, -10025.85, 36662.94, 187500.00, 187500.00, 187500.00, -187500.02, -187500.02, 187500.00, 0.000, 0.000, 0.000, 15:28:46.860
254, -10004.24, 36903.89, 187500.00, 187500.00, 187500.00, -187500.02, -187500.02, 187500.00, 0.000, 0.000, 0.000, 15:28:46.860
255, -9972.48, 36957.36, 187500.00, 187500.00, 187500.00, -187500.02, -187500.02, 187500.00, 0.000, 0.000, 0.000, 15:28:46.860
0, -9973.77, 36867.64, 187500.00, 187500.00, 187500.00, -187500.02, -187500.02, 187500.00, -0.004, -0.108, 1.014, 15:28:46.860
1, -10015.24, 36671.54, 187500.00, 187500.00, 187500.00, -187500.02, -187500.02, 187500.00, 0.000, 0.000, 0.000, 15:28:46.860
2, -10041.99, 36628.99, 187500.00, 187500.00, 187500.00, -187500.02, -187500.02, 187500.00, 0.000, 0.000, 0.000, 15:28:46.860
3, -10025.63, 36871.77, 187500.00, 187500.00, 187500.00, -187500.02, -187500.02, 187500.00, 0.000, 0.000, 0.000, 15:28:46.860
4, -9984.68, 36932.61, 187500.00, 187500.00, 187500.00, -187500.02, -187500.02, 187500.00, 0.000, 0.000, 0.000, 15:28:46.860
5, -9973.73, 36861.16, 187500.00, 187500.00, 187500.00, -187500.02, -187500.02, 187500.00, 0.000, 0.000, 0.000, 15:28:46.861
6, -10009.71, 36682.77, 187500.00, 187500.00, 187500.00, -187500.02, -187500.02, 187500.00, 0.000, 0.000, 0.000, 15:28:46.861
7, -10034.84, 36647.79, 187500.00, 187500.00, 187500.00, -187500.02, -187500.02, 187500.00, 0.000, 0.000, 0.000, 15:28:46.861
8, -10017.92, 36891.98, 187500.00, 187500.00, 187500.00, -187500.02, -187500.02, 187500.00, 0.000, 0.000, 0.000, 15:28:46.861
9, -9992.15, 36937.11, 187500.00, 187500.00, 187500.00, -187500.02, -187500.02, 187500.00, 0.000, 0.000, 0.000, 15:28:46.861
10, -9995.28, 36848.10, 187500.00, 187500.00, 187500.00, -187500.02, -187500.02, 187500.00, -0.004, -0.106, 1.020, 15:28:46.861
11, -10039.04, 36660.50, 187500.00, 187500.00, 187500.00, -187500.02, -187500.02, 187500.00, 0.000, 0.000, 0.000, 15:28:46.861
12, -10074.49, 36612.69, 187500.00, 187500.00, 187500.00, -187500.02, -187500.02, 187500.00, 0.000, 0.000, 0.000, 15:28:46.861
13, -10041.36, 36875.30, 187500.00, 187500.00, 187500.00, -187500.02, -187500.02, 187500.00, 0.000, 0.000, 0.000, 15:28:46.862
14, -9996.06, 36945.38, 187500.00, 187500.00, 187500.00, -187500.02, -187500.02, 187500.00, 0.000, 0.000, 0.000, 15:28:46.862
15, -9991.94, 36866.52, 187500.00, 187500.00, 187500.00, -187500.02, -187500.02, 187500.00, 0.000, 0.000, 0.000, 15:28:46.862
16, -10033.34, 36673.42, 187500.00, 187500.00, 187500.00, -187500.02, -187500.02, 187500.00, 0.000, 0.000, 0.000, 15:28:46.862
17, -10072.28, 36613.86, 187500.00, 187500.00, 187500.00, -187500.02, -187500.02, 187500.00, 0.000, 0.000, 0.000, 15:28:46.862
18, -10050.62, 36866.83, 187500.00, 187500.00, 187500.00, -187500.02, -187500.02, 187500.00, 0.000, 0.000, 0.000, 15:28:46.862
19, -10015.06, 36933.06, 187500.00, 187500.00, 187500.00, -187500.02, -187500.02, 187500.00, 0.000, 0.000, 0.000, 15:28:46.862
20, -10018.43, 36844.70, 187500.00, 187500.00, 187500.00, -187500.02, -187500.02, 187500.00, 0.000, -0.110, 1.020, 15:28:46.862
21, -10046.71, 36659.39, 187500.00, 187500.00, 187500.00, -187500.02, -187500.02, 187500.00, 0.000, 0.000, 0.000, 15:28:46.862
22, -10065.26, 36613.86, 187500.00, 187500.00, 187500.00, -187500.02, -187500.02, 187500.00, 0.000, 0.000, 0.000, 15:28:46.863
23, -10046.80, 36858.94, 187500.00, 187500.00, 187500.00, -187500.02, -187500.02, 187500.00, 0.000, 0.000, 0.000, 15:28:46.863
24, -10005.91, 36925.50, 187500.00, 187500.00, 187500.00, -187500.02, -187500.02, 187500.00, 0.000, 0.000, 0.000, 15:28:46.863
25, -10000.64, 36849.44, 187500.00, 187500.00, 187500.00, -187500.02, -187500.02, 187500.00, 0.000, 0.000, 0.000, 15:28:46.863
26, -10037.63, 36661.51, 187500.00, 187500.00, 187500.00, -187500.02, -187500.02, 187500.00, 0.000, 0.000, 0.000, 15:28:46.863
27, -10052.63, 36616.65, 187500.00, 187500.00, 187500.00, -187500.02, -187500.02, 187500.00, 0.000, 0.000, 0.000, 15:28:46.863
28, -10039.02, 36855.99, 187500.00, 187500.00, 187500.00, -187500.02, -187500.02, 187500.00, 0.000, 0.000, 0.000, 15:28:46.863
29, -10004.44, 36909.79, 187500.00, 187500.00, 187500.00, -187500.02, -187500.02, 187500.00, 0.000, 0.000, 0.000, 15:28:46.863
30, -9991.72, 36835.43, 187500.00, 187500.00, 187500.00, -187500.02, -187500.02, 187500.00, -0.002, -0.114, 1.018, 15:28:46.864
31, -10026.54, 36650.96, 187500.00, 187500.00, 187500.00, -187500.02, -187500.02, 187500.00, 0.000, 0.000, 0.000, 15:28:46.864
32, -10056.00, 36600.60, 187500.00, 187500.00, 187500.00, -187500.02, -187500.02, 187500.00, 0.000, 0.000, 0.000, 15:28:46.864
33, -10049.28, 36837.21, 187500.00, 187500.00, 187500.00, -187500.02, -187500.02, 187500.00, 0.000, 0.000, 0.000, 15:28:46.864
34, -10013.11, 36894.86, 187500.00, 187500.00, 187500.00, -187500.02, -187500.02, 187500.00, 0.000, 0.000, 0.000, 15:28:46.864
35, -10002.05, 36817.41, 187500.00, 187500.00, 187500.00, -187500.02, -187500.02, 187500.00, 0.000, 0.000, 0.000, 15:28:46.864
36, -10028.91, 36639.56, 187500.00, 187500.00, 187500.00, -187500.02, -187500.02, 187500.00, 0.000, 0.000, 0.000, 15:28:46.864
37, -10053.26, 36594.45, 187500.00, 187500.00, 187500.00, -187500.02, -187500.02, 187500.00, 0.000, 0.000, 0.000, 15:28:46.864
38, -10042.59, 36835.85, 187500.00, 187500.00, 187500.00, -187500.02, -187500.02, 187500.00, 0.000, 0.000, 0.000, 15:28:46.865
39, -10004.55, 36905.14, 187500.00, 187500.00, 187500.00, -187500.02, -187500.02, 187500.00, 0.000, 0.000, 0.000, 15:28:46.865
40, -9997.78, 36826.53, 187500.00, 187500.00, 187500.00, -187500.02, -187500.02, 187500.00, 0.002, -0.114, 1.014, 15:28:46.865
41, -10034.06, 36639.94, 187500.00, 187500.00, 187500.00, -187500.02, -187500.02, 187500.00, 0.000, 0.000, 0.000, 15:28:46.865
42, -10063.78, 36588.15, 187500.00, 187500.00, 187500.00, -187500.02, -187500.02, 187500.00, 0.000, 0.000, 0.000, 15:28:46.865
43, -10037.74, 36844.50, 187500.00, 187500.00, 187500.00, -187500.02, -187500.02, 187500.00, 0.000, 0.000, 0.000, 15:28:46.865
44, -10007.30, 36905.99, 187500.00, 187500.00, 187500.00, -187500.02, -187500.02, 187500.00, 0.000, 0.000, 0.000, 15:28:46.865
45, -10008.24, 36818.06, 187500.00, 187500.00, 187500.00, -187500.02, -187500.02, 187500.00, 0.000, 0.000, 0.000, 15:28:46.865
46, -10040.54, 36637.61, 187500.00, 187500.00, 187500.00, -187500.02, -187500.02, 187500.00, 0.000, 0.000, 0.000, 15:28:46.865
47, -10064.92, 36593.11, 187500.00, 187500.00, 187500.00, -187500.02, -187500.02, 187500.00, 0.000, 0.000, 0.000, 15:28:46.866
48, -10045.43, 36841.95, 187500.00, 187500.00, 187500.00, -187500.02, -187500.02, 187500.00, 0.000, 0.000, 0.000, 15:28:46.866
49, -10008.53, 36906.66, 187500.00, 187500.00, 187500.00, -187500.02, -187500.02, 187500.00, 0.000, 0.000, 0.000, 15:28:46.866
50, -10009.71, 36821.17, 187500.00, 187500.00, 187500.00, -187500.02, -187500.02, 187500.00, -0.004, -0.110, 1.018, 15:28:46.866
51, -10041.88, 36648.95, 187500.00, 187500.00, 187500.00, -187500.02, -187500.02, 187500.00, 0.000, 0.000, 0.000, 15:28:46.866
52, -10051.07, 36610.17, 187500.00, 187500.00, 187500.00, -187500.02, -187500.02, 187500.00, 0.000, 0.000, 0.000, 15:28:46.866
53, -10019.01, 36868.78, 187500.00, 187500.00, 187500.00, -187500.02, -187500.02, 187500.00, 0.000, 0.000, 0.000, 15:28:46.866
54, -9989.04, 36926.22, 187500.00, 187500.00, 187500.00, -187500.02, -187500.02, 187500.00, 0.000, 0.000, 0.000, 15:28:46.866
55, -9994.60, 36837.30, 187500.00, 187500.00, 187500.00, -187500.02, -187500.02, 187500.00, 0.000, 0.000, 0.000, 15:28:46.866
56, -10033.94, 36650.31, 187500.00, 187500.00, 187500.00, -187500.02, -187500.02, 187500.00, 0.000, 0.000, 0.000, 15:28:46.867
57, -10063.45, 36588.66, 187500.00, 187500.00, 187500.00, -187500.02, -187500.02, 187500.00, 0.000, 0.000, 0.000, 15:28:46.867
58, -10046.89, 36837.93, 187500.00, 187500.00, 187500.00, -187500.02, -187500.02, 187500.00, 0.000, 0.000, 0.000, 15:28:46.867
59, -10007.90, 36916.09, 187500.00, 187500.00, 187500.00, -187500.02, -187500.02, 187500.00, 0.000, 0.000, 0.000, 15:28:46.867
60, -9995.52, 36845.71, 187500.00, 187500.00, 187500.00, -187500.02, -187500.02, 187500.00, -0.002, -0.114, 1.016, 15:28:46.867
61, -10026.34, 36666.25, 187500.00, 187500.00, 187500.00, -187500.02, -187500.02, 187500.00, 0.000, 0.000, 0.000, 15:28:46.867
62, -10053.61, 36603.15, 187500.00, 187500.00, 187500.00, -187500.02, -187500.02, 187500.00, 0.000, 0.000, 0.000, 15:28:46.867
63, -10037.23, 36847.45, 187500.00, 187500.00, 187500.00, -187500.02, -187500.02, 187500.00, 0.000, 0.000, 0.000, 15:28:46.867
64, -10006.50, 36912.79, 187500.00, 187500.00, 187500.00, -187500.02, -187500.02, 187500.00, 0.000, 0.000, 0.000, 15:28:46.868
65, -10001.02, 36835.92, 187500.00, 187500.00, 187500.00, -187500.02, -187500.02, 187500.00, 0.000, 0.000, 0.000, 15:28:46.868
66, -10033.72, 36661.44, 187500.00, 187500.00, 187500.00, -187500.02, -187500.02, 187500.00, 0.000, 0.000, 0.000, 15:28:46.868
67, -10058.02, 36607.04, 187500.00, 187500.00, 187500.00, -187500.02, -187500.02, 187500.00, 0.000, 0.000, 0.000, 15:28:46.868
68, -10039.75, 36857.85, 187500.00, 187500.00, 187500.00, -187500.02, -187500.02, 187500.00, 0.000, 0.000, 0.000, 15:28:46.868
69, -10001.89, 36933.35, 187500.00, 187500.00, 187500.00, -187500.02, -187500.02, 187500.00, 0.000, 0.000, 0.000, 15:28:46.868
70, -10013.42, 36833.28, 187500.00, 187500.00, 187500.00, -187500.02, -187500.02, 187500.00, -0.002, -0.112, 1.014, 15:28:46.868
71, -10048.72, 36649.68, 187500.00, 187500.00, 187500.00, -187500.02, -187500.02, 187500.00, 0.000, 0.000, 0.000, 15:28:46.869
72, -10068.21, 36595.66, 187500.00, 187500.00, 187500.00, -187500.02, -187500.02, 187500.00, 0.000, 0.000, 0.000, 15:28:46.869
73, -10059.89, 36833.06, 187500.00, 187500.00, 187500.00, -187500.02, -187500.02, 187500.00, 0.000, 0.000, 0.000, 15:28:46.869
74, -10018.21, 36913.10, 187500.00, 187500.00, 187500.00, -187500.02, -187500.02, 187500.00, 0.000, 0.000, 0.000, 15:28:46.869
75, -10007.46, 36841.46, 187500.00, 187500.00, 187500.00, -187500.02, -187500.02, 187500.00, 0.000, 0.000, 0.000, 15:28:46.869
76, -10043.96, 36660.30, 187500.00, 187500.00, 187500.00, -187500.02, -187500.02, 187500.00, 0.000, 0.000, 0.000, 15:28:46.869
77, -10065.04, 36601.20, 187500.00, 187500.00, 187500.00, -187500.02, -187500.02, 187500.00, 0.000, 0.000, 0.000, 15:28:46.869
78, -10040.92, 36848.26, 187500.00, 187500.00, 187500.00, -187500.02, -187500.02, 187500.00, 0.000, 0.000, 0.000, 15:28:46.869
79, -10003.05, 36920.45, 187500.00, 187500.00, 187500.00, -187500.02, -187500.02, 187500.00, 0.000, 0.000, 0.000, 15:28:46.870
80, -10005.22, 36829.71, 187500.00, 187500.00, 187500.00, -187500.02, -187500.02, 187500.00, 0.002, -0.116, 1.020, 15:28:46.870
81, -10037.21, 36659.96, 187500.00, 187500.00, 187500.00, -187500.02, -187500.02, 187500.00, 0.000, 0.000, 0.000, 15:28:46.870
82, -10057.19, 36605.70, 187500.00, 187500.00, 187500.00, -187500.02, -187500.02, 187500.00, 0.000, 0.000, 0.000, 15:28:46.870
83, -10040.34, 36846.58, 187500.00, 187500.00, 187500.00, -187500.02, -187500.02, 187500.00, 0.000, 0.000, 0.000, 15:28:46.870
84, -10011.14, 36914.33, 187500.00, 187500.00, 187500.00, -187500.02, -187500.02, 187500.00, 0.000, 0.000, 0.000, 15:28:46.870
85, -10008.53, 36834.06, 187500.00, 187500.00, 187500.00, -187500.02, -187500.02, 187500.00, 0.000, 0.000, 0.000, 15:28:46.871
86, -10034.41, 36666.05, 187500.00, 187500.00, 187500.00, -187500.02, -187500.02, 187500.00, 0.000, 0.000, 0.000, 15:28:46.871
87, -10063.74, 36592.98, 187500.00, 187500.00, 187500.00, -187500.02, -187500.02, 187500.00, 0.000, 0.000, 0.000, 15:28:46.871
88, -10053.41, 36829.86, 187500.00, 187500.00, 187500.00, -187500.02, -187500.02, 187500.00, 0.000, 0.000, 0.000, 15:28:46.871
89, -10021.54, 36902.84, 187500.00, 187500.00, 187500.00, -187500.02, -187500.02, 187500.00, -0.002, -0.116, 1.014, 15:28:47.336
90, -10015.44, 36822.51, 187500.00, 187500.00, 187500.00, -187500.02, -187500.02, 187500.00, 0.000, 0.000, 0.000, 15:28:47.336
91, -10035.29, 36655.65, 187500.00, 187500.00, 187500.00, -187500.02, -187500.02, 187500.00, 0.000, 0.000, 0.000, 15:28:47.337
92, -10051.04, 36598.84, 187500.00, 187500.00, 187500.00, -187500.02, -187500.02, 187500.00, 0.000, 0.000, 0.000, 15:28:47.337
93, -10041.90, 36845.73, 187500.00, 187500.00, 187500.00, -187500.02, -187500.02, 187500.00, 0.000, 0.000, 0.000, 15:28:47.337
94, -10012.08, 36921.59, 187500.00, 187500.00, 187500.00, -187500.02, -187500.02, 187500.00, 0.000, 0.000, 0.000, 15:28:47.337
95, -10006.27, 36837.30, 187500.00, 187500.00, 187500.00, -187500.02, -187500.02, 187500.00, 0.000, 0.000, 0.000, 15:28:47.337
96, -10033.99, 36661.62, 187500.00, 187500.00, 187500.00, -187500.02, -187500.02, 187500.00, 0.000, 0.000, 0.000, 15:28:47.337
97, -10064.48, 36589.65, 187500.00, 187500.00, 187500.00, -187500.02, -187500.02, 187500.00, 0.000, 0.000, 0.000, 15:28:47.337
98, -10057.55, 36822.91, 187500.00, 187500.00, 187500.00, -187500.02, -187500.02, 187500.00, 0.000, 0.000, 0.000, 15:28:47.338
99, -10027.10, 36899.69, 187500.00, 187500.00, 187500.00, -187500.02, -187500.02, 187500.00, 0.002, -0.116, 1.016, 15:28:47.338
100, -10013.40, 36832.16, 187500.00, 187500.00, 187500.00, -187500.02, -187500.02, 187500.00, 0.000, 0.000, 0.000, 15:28:47.338
101, -10031.49, 36665.60, 187500.00, 187500.00, 187500.00, -187500.02, -187500.02, 187500.00, 0.000, 0.000, 0.000, 15:28:47.338
102, -10053.72, 36597.16, 187500.00, 187500.00, 187500.00, -187500.02, -187500.02, 187500.00, 0.000, 0.000, 0.000, 15:28:47.338
103, -10040.83, 36839.99, 187500.00, 187500.00, 187500.00, -187500.02, -187500.02, 187500.00, 0.000, 0.000, 0.000, 15:28:47.338
104, -10009.20, 36914.53, 187500.00, 187500.00, 187500.00, -187500.02, -187500.02, 187500.00, 0.000, 0.000, 0.000, 15:28:47.338
105, -10006.07, 36831.14, 187500.00, 187500.00, 187500.00, -187500.02, -187500.02, 187500.00, 0.000, 0.000, 0.000, 15:28:47.338
106, -10032.18, 36657.39, 187500.00, 187500.00, 187500.00, -187500.02, -187500.02, 187500.00, 0.000, 0.000, 0.000, 15:28:47.339
107, -10049.03, 36597.70, 187500.00, 187500.00, 187500.00, -187500.02, -187500.02, 187500.00, 0.000, 0.000, 0.000, 15:28:47.339
108, -10040.31, 36837.04, 187500.00, 187500.00, 187500.00, -187500.02, -187500.02, 187500.00, 0.000, 0.000, 0.000, 15:28:47.339
109, -10020.42, 36903.04, 187500.00, 187500.00, 187500.00, -187500.02, -187500.02, 187500.00, 0.004, -0.120, 1.020, 15:28:47.339
110, -10017.11, 36821.70, 187500.00, 187500.00, 187500.00, -187500.02, -187500.02, 187500.00, 0.000, 0.000, 0.000, 15:28:47.339
111, -10045.14, 36648.84, 187500.00, 187500.00, 187500.00, -187500.02, -187500.02, 187500.00, 0.000, 0.000, 0.000, 15:28:47.339
112, -10060.79, 36584.64, 187500.00, 187500.00, 187500.00, -187500.02, -187500.02, 187500.00, 0.000, 0.000, 0.000, 15:28:47.339
113, -10055.20, 36825.14, 187500.00, 187500.00, 187500.00, -187500.02, -187500.02, 187500.00, 0.000, 0.000, 0.000, 15:28:47.339
114, -10017.87, 36907.71, 187500.00, 187500.00, 187500.00, -187500.02, -187500.02, 187500.00, 0.000, 0.000, 0.000, 15:28:47.340
115, -10006.07, 36831.05, 187500.00, 187500.00, 187500.00, -187500.02, -187500.02, 187500.00, 0.000, 0.000, 0.000, 15:28:47.340
116, -10045.03, 36650.67, 187500.00, 187500.00, 187500.00, -187500.02, -187500.02, 187500.00, 0.000, 0.000, 0.000, 15:28:47.340
117, -10073.57, 36580.26, 187500.00, 187500.00, 187500.00, -187500.02, -187500.02, 187500.00, 0.000, 0.000, 0.000, 15:28:47.340
118, -10063.67, 36820.21, 187500.00, 187500.00, 187500.00, -187500.02, -187500.02, 187500.00, 0.000, 0.000, 0.000, 15:28:47.340
119, -10039.67, 36888.04, 187500.00, 187500.00, 187500.00, -187500.02, -187500.02, 187500.00, 0.010, -0.118, 1.024, 15:28:47.340
120, -10030.03, 36811.58, 187500.00, 187500.00, 187500.00, -187500.02, -187500.02, 187500.00, 0.000, 0.000, 0.000, 15:28:47.340
121, -10053.97, 36644.95, 187500.00, 187500.00, 187500.00, -187500.02, -187500.02, 187500.00, 0.000, 0.000, 0.000, 15:28:47.340
122, -10074.18, 36577.04, 187500.00, 187500.00, 187500.00, -187500.02, -187500.02, 187500.00, 0.000, 0.000, 0.000, 15:28:47.340
123, -10066.82, 36810.95, 187500.00, 187500.00, 187500.00, -187500.02, -187500.02, 187500.00, 0.000, 0.000, 0.000, 15:28:47.341
124, -10031.71, 36892.65, 187500.00, 187500.00, 187500.00, -187500.02, -187500.02, 187500.00, 0.000, 0.000, 0.000, 15:28:47.341
125, -10027.19, 36817.70, 187500.00, 187500.00, 187500.00, -187500.02, -187500.02, 187500.00, 0.000, 0.000, 0.000, 15:28:47.341
126, -10060.30, 36647.65, 187500.00, 187500.00, 187500.00, -187500.02, -187500.02, 187500.00, 0.000, 0.000, 0.000, 15:28:47.341
127, -10083.74, 36571.21, 187500.00, 187500.00, 187500.00, -187500.02, -187500.02, 187500.00, 0.000, 0.000, 0.000, 15:28:47.341
128, -10070.06, 36812.67, 187500.00, 187500.00, 187500.00, -187500.02, -187500.02, 187500.00, 0.000, 0.000, 0.000, 15:28:47.341
129, -10032.98, 36901.34, 187500.00, 187500.00, 187500.00, -187500.02, -187500.02, 187500.00, 0.006, -0.116, 1.022, 15:28:47.341
130, -10017.29, 36835.63, 187500.00, 187500.00, 187500.00, -187500.02, -187500.02, 187500.00, 0.000, 0.000, 0.000, 15:28:47.342
131, -10046.08, 36662.61, 187500.00, 187500.00, 187500.00, -187500.02, -187500.02, 187500.00, 0.000, 0.000, 0.000, 15:28:47.342
132, -10086.87, 36568.82, 187500.00, 187500.00, 187500.00, -187500.02, -187500.02, 187500.00, 0.000, 0.000, 0.000, 15:28:47.342
133, -10079.07, 36792.67, 187500.00, 187500.00, 187500.00, -187500.02, -187500.02, 187500.00, 0.000, 0.000, 0.000, 15:28:47.342
134, -10044.45, 36876.55, 187500.00, 187500.00, 187500.00, -187500.02, -187500.02, 187500.00, 0.000, 0.000, 0.000, 15:28:47.342
135, -10030.93, 36813.12, 187500.00, 187500.00, 187500.00, -187500.02, -187500.02, 187500.00, 0.000, 0.000, 0.000, 15:28:47.342
136, -10052.56, 36654.85, 187500.00, 187500.00, 187500.00, -187500.02, -187500.02, 187500.00, 0.000, 0.000, 0.000, 15:28:47.342
137, -10085.38, 36573.91, 187500.00, 187500.00, 187500.00, -187500.02, -187500.02, 187500.00, 0.000, 0.000, 0.000, 15:28:47.342
138, -10068.28, 36819.60, 187500.00, 187500.00, 187500.00, -187500.02, -187500.02, 187500.00, 0.000, 0.000, 0.000, 15:28:47.342
139, -10035.29, 36906.06, 187500.00, 187500.00, 187500.00, -187500.02, -187500.02, 187500.00, 0.006, -0.112, 1.026, 15:28:47.343
140, -10032.45, 36822.93, 187500.00, 187500.00, 187500.00, -187500.02, -187500.02, 187500.00, 0.000, 0.000, 0.000, 15:28:47.343
141, -10072.39, 36641.86, 187500.00, 187500.00, 187500.00, -187500.02, -187500.02, 187500.00, 0.000, 0.000, 0.000, 15:28:47.343
142, -10096.17, 36573.02, 187500.00, 187500.00, 187500.00, -187500.02, -187500.02, 187500.00, 0.000, 0.000, 0.000, 15:28:47.343
143, -10077.10, 36816.41, 187500.00, 187500.00, 187500.00, -187500.02, -187500.02, 187500.00, 0.000, 0.000, 0.000, 15:28:47.343
144, -10041.36, 36903.49, 187500.00, 187500.00, 187500.00, -187500.02, -187500.02, 187500.00, 0.000, 0.000, 0.000, 15:28:47.343
145, -10046.89, 36817.23, 187500.00, 187500.00, 187500.00, -187500.02, -187500.02, 187500.00, 0.000, 0.000, 0.000, 15:28:47.343
146, -10072.70, 36659.99, 187500.00, 187500.00, 187500.00, -187500.02, -187500.02, 187500.00, 0.000, 0.000, 0.000, 15:28:47.343
147, -10090.90, 36589.80, 187500.00, 187500.00, 187500.00, -187500.02, -187500.02, 187500.00, 0.000, 0.000, 0.000, 15:28:47.344
148, -10082.96, 36811.38, 187500.00, 187500.00, 187500.00, -187500.02, -187500.02, 187500.00, 0.000, 0.000, 0.000, 15:28:47.344
149, -10049.86, 36896.27, 187500.00, 187500.00, 187500.00, -187500.02, -187500.02, 187500.00, 0.010, -0.116, 1.032, 15:28:47.344
150, -10036.54, 36829.84, 187500.00, 187500.00, 187500.00, -187500.02, -187500.02, 187500.00, 0.000, 0.000, 0.000, 15:28:47.344
151, -10062.17, 36666.47, 187500.00, 187500.00, 187500.00, -187500.02, -187500.02, 187500.00, 0.000, 0.000, 0.000, 15:28:47.344
152, -10089.55, 36582.25, 187500.00, 187500.00, 187500.00, -187500.02, -187500.02, 187500.00, 0.000, 0.000, 0.000, 15:28:47.344
153, -10085.42, 36801.27, 187500.00, 187500.00, 187500.00, -187500.02, -187500.02, 187500.00, 0.000, 0.000, 0.000, 15:28:47.344
154, -10044.16, 36896.83, 187500.00, 187500.00, 187500.00, -187500.02, -187500.02, 187500.00, 0.000, 0.000, 0.000, 15:28:47.344
155, -10027.30, 36837.60, 187500.00, 187500.00, 187500.00, -187500.02, -187500.02, 187500.00, 0.000, 0.000, 0.000, 15:28:47.344
156, -10066.64, 36672.66, 187500.00, 187500.00, 187500.00, -187500.02, -187500.02, 187500.00, 0.000, 0.000, 0.000, 15:28:47.345
157, -10099.01, 36587.68, 187500.00, 187500.00, 187500.00, -187500.02, -187500.02, 187500.00, 0.000, 0.000, 0.000, 15:28:47.345
158, -10092.62, 36807.15, 187500.00, 187500.00, 187500.00, -187500.02, -187500.02, 187500.00, 0.000, 0.000, 0.000, 15:28:47.345
159, -10058.22, 36889.68, 187500.00, 187500.00, 187500.00, -187500.02, -187500.02, 187500.00, 0.006, -0.118, 1.026, 15:28:47.345
160, -10053.26, 36811.82, 187500.00, 187500.00, 187500.00, -187500.02, -187500.02, 187500.00, 0.000, 0.000, 0.000, 15:28:47.345
161, -10082.36, 36652.23, 187500.00, 187500.00, 187500.00, -187500.02, -187500.02, 187500.00, 0.000, 0.000, 0.000, 15:28:47.345
162, -10115.88, 36564.91, 187500.00, 187500.00, 187500.00, -187500.02, -187500.02, 187500.00, 0.000, 0.000, 0.000, 15:28:47.345
163, -10110.99, 36783.46, 187500.00, 187500.00, 187500.00, -187500.02, -187500.02, 187500.00, 0.000, 0.000, 0.000, 15:28:47.345
164, -10071.90, 36874.68, 187500.00, 187500.00, 187500.00, -187500.02, -187500.02, 187500.00, 0.000, 0.000, 0.000, 15:28:47.346
165, -10058.13, 36810.73, 187500.00, 187500.00, 187500.00, -187500.02, -187500.02, 187500.00, 0.000, 0.000, 0.000, 15:28:47.346
166, -10090.65, 36637.79, 187500.00, 187500.00, 187500.00, -187500.02, -187500.02, 187500.00, 0.000, 0.000, 0.000, 15:28:47.346
167, -10123.66, 36545.41, 187500.00, 187500.00, 187500.00, -187500.02, -187500.02, 187500.00, 0.000, 0.000, 0.000, 15:28:47.346
168, -10099.95, 36785.74, 187500.00, 187500.00, 187500.00, -187500.02, -187500.02, 187500.00, 0.000, 0.000, 0.000, 15:28:47.346
169, -10065.08, 36881.70, 187500.00, 187500.00, 187500.00, -187500.02, -187500.02, 187500.00, 0.004, -0.118, 1.028, 15:28:47.346
170, -10069.08, 36796.29, 187500.00, 187500.00, 187500.00, -187500.02, -187500.02, 187500.00, 0.000, 0.000, 0.000, 15:28:47.346
171, -10099.95, 36631.22, 187500.00, 187500.00, 187500.00, -187500.02, -187500.02, 187500.00, 0.000, 0.000, 0.000, 15:28:47.346
172, -10121.61, 36553.95, 187500.00, 187500.00, 187500.00, -187500.02, -187500.02, 187500.00, 0.000, 0.000, 0.000, 15:28:47.346
173, -10112.51, 36776.75, 187500.00, 187500.00, 187500.00, -187500.02, -187500.02, 187500.00, 0.000, 0.000, 0.000, 15:28:47.347
174, -10079.23, 36859.14, 187500.00, 187500.00, 187500.00, -187500.02, -187500.02, 187500.00, 0.000, 0.000, 0.000, 15:28:47.347
175, -10064.50, 36793.81, 187500.00, 187500.00, 187500.00, -187500.02, -187500.02, 187500.00, 0.000, 0.000, 0.000, 15:28:47.347
176, -10101.33, 36626.53, 187500.00, 187500.00, 187500.00, -187500.02, -187500.02, 187500.00, 0.000, 0.000, 0.000, 15:28:47.347
177, -10128.36, 36541.35, 187500.00, 187500.00, 187500.00, -187500.02, -187500.02, 187500.00, 0.000, 0.000, 0.000, 15:28:47.347
178, -10116.22, 36769.36, 187500.00, 187500.00, 187500.00, -187500.02, -187500.02, 187500.00, 0.000, 0.000, 0.000, 15:28:47.347
179, -10107.32, 36836.88, 187500.00, 187500.00, 187500.00, -187500.02, -187500.02, 187500.00, 0.004, -0.110, 1.024, 15:28:47.347
180, -10110.65, 36758.56, 187500.00, 187500.00, 187500.00, -187500.02, -187500.02, 187500.00, 0.000, 0.000, 0.000, 15:28:47.347
181, -10123.37, 36618.08, 187500.00, 187500.00, 187500.00, -187500.02, -187500.02, 187500.00, 0.000, 0.000, 0.000, 15:28:47.348
182, -10137.23, 36549.48, 187500.00, 187500.00, 187500.00, -187500.02, -187500.02, 187500.00, 0.000, 0.000, 0.000, 15:28:47.348
183, -10129.50, 36774.52, 187500.00, 187500.00, 187500.00, -187500.02, -187500.02, 187500.00, 0.000, 0.000, 0.000, 15:28:47.348
184, -10107.91, 36854.07, 187500.00, 187500.00, 187500.00, -187500.02, -187500.02, 187500.00, 0.000, 0.000, 0.000, 15:28:47.348
185, -10106.79, 36778.16, 187500.00, 187500.00, 187500.00, -187500.02, -187500.02, 187500.00, 0.000, 0.000, 0.000, 15:28:47.348
186, -10147.07, 36615.15, 187500.00, 187500.00, 187500.00, -187500.02, -187500.02, 187500.00, 0.000, 0.000, 0.000, 15:28:47.348
187, -10181.60, 36529.14, 187500.00, 187500.00, 187500.00, -187500.02, -187500.02, 187500.00, 0.000, 0.000, 0.000, 15:28:47.348
188, -10158.98, 36766.81, 187500.00, 187500.00, 187500.00, -187500.02, -187500.02, 187500.00, 0.000, 0.000, 0.000, 15:28:47.348
189, -10120.36, 36862.63, 187500.00, 187500.00, 187500.00, -187500.02, -187500.02, 187500.00, 0.004, -0.112, 1.032, 15:28:47.349
190, -10119.37, 36787.82, 187500.00, 187500.00, 187500.00, -187500.02, -187500.02, 187500.00, 0.000, 0.000, 0.000, 15:28:47.349
191, -10150.69, 36629.86, 187500.00, 187500.00, 187500.00, -187500.02, -187500.02, 187500.00, 0.000, 0.000, 0.000, 15:28:47.349
192, -10181.02, 36537.05, 187500.00, 187500.00, 187500.00, -187500.02, -187500.02, 187500.00, 0.000, 0.000, 0.000, 15:28:47.349
193, -10172.77, 36757.87, 187500.00, 187500.00, 187500.00, -187500.02, -187500.02, 187500.00, 0.000, 0.000, 0.000, 15:28:47.349
194, -10142.15, 36852.91, 187500.00, 187500.00, 187500.00, -187500.02, -187500.02, 187500.00, 0.000, 0.000, 0.000, 15:28:47.349
195, -10138.39, 36783.32, 187500.00, 187500.00, 187500.00, -187500.02, -187500.02, 187500.00, 0.000, 0.000, 0.000, 15:28:47.349
196, -10162.00, 36633.61, 187500.00, 187500.00, 187500.00, -187500.02, -187500.02, 187500.00, 0.000, 0.000, 0.000, 15:28:47.349
197, -10201.00, 36523.80, 187500.00, 187500.00, 187500.00, -187500.02, -187500.02, 187500.00, 0.000, 0.000, 0.000, 15:28:47.350
198, -10193.51, 36747.47, 187500.00, 187500.00, 187500.00, -187500.02, -187500.02, 187500.00, 0.002, -0.112, 1.028, 15:28:47.350
199, -10159.87, 36850.71, 187500.00, 187500.00, 187500.00, -187500.02, -187500.02, 187500.00, 0.000, 0.000, 0.000, 15:28:47.350
200, -10138.86, 36792.24, 187500.00, 187500.00, 187500.00, -187500.02, -187500.02, 187500.00, 0.000, 0.000, 0.000, 15:28:47.350
201, -10168.88, 36628.50, 187500.00, 187500.00, 187500.00, -187500.02, -187500.02, 187500.00, 0.000, 0.000, 0.000, 15:28:47.350
202, -10206.28, 36527.73, 187500.00, 187500.00, 187500.00, -187500.02, -187500.02, 187500.00, 0.000, 0.000, 0.000, 15:28:47.350
203, -10191.88, 36756.14, 187500.00, 187500.00, 187500.00, -187500.02, -187500.02, 187500.00, 0.000, 0.000, 0.000, 15:28:47.350
204, -10143.00, 36867.68, 187500.00, 187500.00, 187500.00, -187500.02, -187500.02, 187500.00, 0.000, 0.000, 0.000, 15:28:47.350
205, -10116.80, 36817.68, 187500.00, 187500.00, 187500.00, -187500.02, -187500.02, 187500.00, 0.000, 0.000, 0.000, 15:28:47.350
206, -10159.92, 36648.95, 187500.00, 187500.00, 187500.00, -187500.02, -187500.02, 187500.00, 0.000, 0.000, 0.000, 15:28:47.351
207, -10206.34, 36535.67, 187500.00, 187500.00, 187500.00, -187500.02, -187500.02, 187500.00, 0.000, 0.000, 0.000, 15:28:47.351
208, -10180.19, 36774.32, 187500.00, 187500.00, 187500.00, -187500.02, -187500.02, 187500.00, 0.006, -0.108, 1.018, 15:28:47.351
209, -10140.94, 36879.62, 187500.00, 187500.00, 187500.00, -187500.02, -187500.02, 187500.00, 0.000, 0.000, 0.000, 15:28:47.816
210, -10140.79, 36795.55, 187500.00, 187500.00, 187500.00, -187500.02, -187500.02, 187500.00, 0.000, 0.000, 0.000, 15:28:47.816
211, -10174.36, 36630.42, 187500.00, 187500.00, 187500.00, -187500.02, -187500.02, 187500.00, 0.000, 0.000, 0.000, 15:28:47.816
212, -10194.88, 36544.83, 187500.00, 187500.00, 187500.00, -187500.02, -187500.02, 187500.00, 0.000, 0.000, 0.000, 15:28:47.816
213, -10183.99, 36772.89, 187500.00, 187500.00, 187500.00, -187500.02, -187500.02, 187500.00, 0.000, 0.000, 0.000, 15:28:47.817
214, -10144.47, 36884.58, 187500.00, 187500.00, 187500.00, -187500.02, -187500.02, 187500.00, 0.000, 0.000, 0.000, 15:28:47.817
215, -10127.17, 36825.77, 187500.00, 187500.00, 187500.00, -187500.02, -187500.02, 187500.00, 0.000, 0.000, 0.000, 15:28:47.817
216, -10163.14, 36656.37, 187500.00, 187500.00, 187500.00, -187500.02, -187500.02, 187500.00, 0.000, 0.000, 0.000, 15:28:47.817
217, -10204.33, 36538.73, 187500.00, 187500.00, 187500.00, -187500.02, -187500.02, 187500.00, 0.000, 0.000, 0.000, 15:28:47.817
218, -10189.13, 36762.58, 187500.00, 187500.00, 187500.00, -187500.02, -187500.02, 187500.00, 0.000, -0.108, 1.016, 15:28:47.817
219, -10149.01, 36873.16, 187500.00, 187500.00, 187500.00, -187500.02, -187500.02, 187500.00, 0.000, 0.000, 0.000, 15:28:47.817
220, -10149.43, 36792.13, 187500.00, 187500.00, 187500.00, -187500.02, -187500.02, 187500.00, 0.000, 0.000, 0.000, 15:28:47.817
221, -10164.28, 36642.98, 187500.00, 187500.00, 187500.00, -187500.02, -187500.02, 187500.00, 0.000, 0.000, 0.000, 15:28:47.818
222, -10180.15, 36553.82, 187500.00, 187500.00, 187500.00, -187500.02, -187500.02, 187500.00, 0.000, 0.000, 0.000, 15:28:47.818
223, -10168.30, 36780.58, 187500.00, 187500.00, 187500.00, -187500.02, -187500.02, 187500.00, 0.000, 0.000, 0.000, 15:28:47.818
224, -10131.11, 36884.24, 187500.00, 187500.00, 187500.00, -187500.02, -187500.02, 187500.00, 0.000, 0.000, 0.000, 15:28:47.818
225, -10122.97, 36812.50, 187500.00, 187500.00, 187500.00, -187500.02, -187500.02, 187500.00, 0.000, 0.000, 0.000, 15:28:47.818
226, -10161.46, 36642.78, 187500.00, 187500.00, 187500.00, -187500.02, -187500.02, 187500.00, 0.000, 0.000, 0.000, 15:28:47.818
227, -10190.21, 36546.42, 187500.00, 187500.00, 187500.00, -187500.02, -187500.02, 187500.00, 0.000, 0.000, 0.000, 15:28:47.818
228, -10173.37, 36777.85, 187500.00, 187500.00, 187500.00, -187500.02, -187500.02, 187500.00, -0.004, -0.108, 1.022, 15:28:47.818
229, -10148.65, 36870.18, 187500.00, 187500.00, 187500.00, -187500.02, -187500.02, 187500.00, 0.000, 0.000, 0.000, 15:28:47.819
230, -10150.17, 36786.37, 187500.00, 187500.00, 187500.00, -187500.02, -187500.02, 187500.00, 0.000, 0.000, 0.000, 15:28:47.819
231, -10174.22, 36628.20, 187500.00, 187500.00, 187500.00, -187500.02, -187500.02, 187500.00, 0.000, 0.000, 0.000, 15:28:47.819
232, -10189.85, 36542.82, 187500.00, 187500.00, 187500.00, -187500.02, -187500.02, 187500.00, 0.000, 0.000, 0.000, 15:28:47.819
233, -10159.90, 36788.42, 187500.00, 187500.00, 187500.00, -187500.02, -187500.02, 187500.00, 0.000, 0.000, 0.000, 15:28:47.819
234, -10126.10, 36891.15, 187500.00, 187500.00, 187500.00, -187500.02, -187500.02, 187500.00, 0.000, 0.000, 0.000, 15:28:47.819
235, -10123.64, 36807.06, 187500.00, 187500.00, 187500.00, -187500.02, -187500.02, 187500.00, 0.000, 0.000, 0.000, 15:28:47.819
236, -10155.85, 36636.92, 187500.00, 187500.00, 187500.00, -187500.02, -187500.02, 187500.00, 0.000, 0.000, 0.000, 15:28:47.819
237, -10168.12, 36546.87, 187500.00, 187500.00, 187500.00, -187500.02, -187500.02, 187500.00, 0.000, 0.000, 0.000, 15:28:47.819
238, -10145.46, 36787.02, 187500.00, 187500.00, 187500.00, -187500.02, -187500.02, 187500.00, -0.006, -0.112, 1.028, 15:28:47.820
239, -10107.46, 36895.84, 187500.00, 187500.00, 187500.00, -187500.02, -187500.02, 187500.00, 0.000, 0.000, 0.000, 15:28:47.820
240, -10108.31, 36812.47, 187500.00, 187500.00, 187500.00, -187500.02, -187500.02, 187500.00, 0.000, 0.000, 0.000, 15:28:47.820
241, -10133.19, 36660.68, 187500.00, 187500.00, 187500.00, -187500.02, -187500.02, 187500.00, 0.000, 0.000, 0.000, 15:28:47.820
242, -10155.67, 36565.13, 187500.00, 187500.00, 187500.00, -187500.02, -187500.02, 187500.00, 0.000, 0.000, 0.000, 15:28:47.820
243, -10141.52, 36797.03, 187500.00, 187500.00, 187500.00, -187500.02, -187500.02, 187500.00, 0.000, 0.000, 0.000, 15:28:47.821
244, -10113.45, 36895.06, 187500.00, 187500.00, 187500.00, -187500.02, -187500.02, 187500.00, 0.000, 0.000, 0.000, 15:28:47.821
245, -10100.55, 36818.78, 187500.00, 187500.00, 187500.00, -187500.02, -187500.02, 187500.00, 0.000, 0.000, 0.000, 15:28:47.821
246, -10131.53, 36655.59, 187500.00, 187500.00, 187500.00, -187500.02, -187500.02, 187500.00, 0.000, 0.000, 0.000, 15:28:47.821
247, -10152.14, 36558.22, 187500.00, 187500.00, 187500.00, -187500.02, -187500.02, 187500.00, 0.000, 0.000, 0.000, 15:28:47.821
248, -10146.19, 36780.22, 187500.00, 187500.00, 187500.00, -187500.02, -187500.02, 187500.00, -0.006, -0.110, 1.014, 15:28:47.821
249, -10114.23, 36882.88, 187500.00, 187500.00, 187500.00, -187500.02, -187500.02, 187500.00, 0.000, 0.000, 0.000, 15:28:47.822
250, -10099.79, 36811.96, 187500.00, 187500.00, 187500.00, -187500.02, -187500.02, 187500.00, 0.000, 0.000, 0.000, 15:28:47.822
251, -10129.27, 36655.16, 187500.00, 187500.00, 187500.00, -187500.02, -187500.02, 187500.00, 0.000, 0.000, 0.000, 15:28:47.822
252, -10164.66, 36544.90, 187500.00, 187500.00, 187500.00, -187500.02, -187500.02, 187500.00, 0.000, 0.000, 0.000, 15:28:47.822
253, -10153.37, 36764.80, 187500.00, 187500.00, 187500.00, -187500.02, -187500.02, 187500.00, 0.000, 0.000, 0.000, 15:28:47.822
254, -10118.39, 36874.63, 187500.00, 187500.00, 187500.00, -187500.02, -187500.02, 187500.00, 0.000, 0.000, 0.000, 15:28:47.822
255, -10102.67, 36812.81, 187500.00, 187500.00, 187500.00, -187500.02, -187500.02, 187500.00, 0.000, 0.000, 0.000, 15:28:47.823
0, -10127.31, 36660.04, 187500.00, 187500.00, 187500.00, -187500.02, -187500.02, 187500.00, 0.000, 0.000, 0.000, 15:28:47.823
1, -10163.87, 36552.54, 187500.00, 187500.00, 187500.00, -187500.02, -187500.02, 187500.00, 0.000, 0.000, 0.000, 15:28:47.823
2, -10165.84, 36764.89, 187500.00, 187500.00, 187500.00, -187500.02, -187500.02, 187500.00, -0.008, -0.108, 1.016, 15:28:47.823
3, -10129.85, 36868.55, 187500.00, 187500.00, 187500.00, -187500.02, -187500.02, 187500.00, 0.000, 0.000, 0.000, 15:28:47.823
4, -10123.80, 36793.68, 187500.00, 187500.00, 187500.00, -187500.02, -187500.02, 187500.00, 0.000, 0.000, 0.000, 15:28:47.823
5, -10158.08, 36631.58, 187500.00, 187500.00, 187500.00, -187500.02, -187500.02, 187500.00, 0.000, 0.000, 0.000, 15:28:47.824
6, -10178.85, 36533.99, 187500.00, 187500.00, 187500.00, -187500.02, -187500.02, 187500.00, 0.000, 0.000, 0.000, 15:28:47.824
7, -10164.50, 36766.92, 187500.00, 187500.00, 187500.00, -187500.02, -187500.02, 187500.00, 0.000, 0.000, 0.000, 15:28:47.824
8, -10127.51, 36884.13, 187500.00, 187500.00, 187500.00, -187500.02, -187500.02, 187500.00, 0.000, 0.000, 0.000, 15:28:47.824
9, -10116.09, 36811.24, 187500.00, 187500.00, 187500.00, -187500.02, -187500.02, 187500.00, 0.000, 0.000, 0.000, 15:28:47.824
10, -10148.34, 36650.89, 187500.00, 187500.00, 187500.00, -187500.02, -187500.02, 187500.00, 0.000, 0.000, 0.000, 15:28:47.824
11, -10185.18, 36532.70, 187500.00, 187500.00, 187500.00, -187500.02, -187500.02, 187500.00, 0.000, 0.000, 0.000, 15:28:47.825
12, -10174.42, 36753.00, 187500.00, 187500.00, 187500.00, -187500.02, -187500.02, 187500.00, -0.004, -0.106, 1.016, 15:28:47.825
13, -10124.69, 36880.09, 187500.00, 187500.00, 187500.00, -187500.02, -187500.02, 187500.00, 0.000, 0.000, 0.000, 15:28:47.825
14, -10112.53, 36812.25, 187500.00, 187500.00, 187500.00, -187500.02, -187500.02, 187500.00, 0.000, 0.000, 0.000, 15:28:47.825
15, -10153.77, 36637.10, 187500.00, 187500.00, 187500.00, -187500.02, -187500.02, 187500.00, 0.000, 0.000, 0.000, 15:28:47.825
16, -10180.08, 36526.79, 187500.00, 187500.00, 187500.00, -187500.02, -187500.02, 187500.00, 0.000, 0.000, 0.000, 15:28:47.825
17, -10152.72, 36764.68, 187500.00, 187500.00, 187500.00, -187500.02, -187500.02, 187500.00, 0.000, 0.000, 0.000, 15:28:47.826
18, -10123.22, 36879.66, 187500.00, 187500.00, 187500.00, -187500.02, -187500.02, 187500.00, 0.000, 0.000, 0.000, 15:28:47.826
19, -10111.28, 36812.05, 187500.00, 187500.00, 187500.00, -187500.02, -187500.02, 187500.00, 0.000, 0.000, 0.000, 15:28:47.826
20, -10143.11, 36647.34, 187500.00, 187500.00, 187500.00, -187500.02, -187500.02, 187500.00, 0.000, 0.000, 0.000, 15:28:47.826
21, -10179.88, 36527.87, 187500.00, 187500.00, 187500.00, -187500.02, -187500.02, 187500.00, 0.000, 0.000, 0.000, 15:28:47.826
22, -10166.27, 36750.36, 187500.00, 187500.00, 187500.00, -187500.02, -187500.02, 187500.00, -0.004, -0.106, 1.020, 15:28:47.826
23, -10126.46, 36866.68, 187500.00, 187500.00, 187500.00, -187500.02, -187500.02, 187500.00, 0.000, 0.000, 0.000, 15:28:47.827
24, -10113.25, 36795.57, 187500.00, 187500.00, 187500.00, -187500.02, -187500.02, 187500.00, 0.000, 0.000, 0.000, 15:28:47.827
25, -10134.24, 36644.03, 187500.00, 187500.00, 187500.00, -187500.02, -187500.02, 187500.00, 0.000, 0.000, 0.000, 15:28:47.827
26, -10169.37, 36526.08, 187500.00, 187500.00, 187500.00, -187500.02, -187500.02, 187500.00, 0.000, 0.000, 0.000, 15:28:47.827
27, -10159.74, 36746.11, 187500.00, 187500.00, 187500.00, -187500.02, -187500.02, 187500.00, 0.000, 0.000, 0.000, 15:28:47.827
28, -10124.69, 36862.47, 187500.00, 187500.00, 187500.00, -187500.02, -187500.02, 187500.00, 0.000, 0.000, 0.000, 15:28:47.828
29, -10122.41, 36786.14, 187500.00, 187500.00, 187500.00, -187500.02, -187500.02, 187500.00, 0.000, 0.000, 0.000, 15:28:47.828
30, -10156.54, 36624.74, 187500.00, 187500.00, 187500.00, -187500.02, -187500.02, 187500.00, 0.000, 0.000, 0.000, 15:28:47.828
31, -10185.18, 36510.81, 187500.00, 187500.00, 187500.00, -187500.02, -187500.02, 187500.00, 0.000, 0.000, 0.000, 15:28:47.828
32, -10155.20, 36749.24, 187500.00, 187500.00, 187500.00, -187500.02, -187500.02, 187500.00, -0.006, -0.112, 1.016, 15:28:47.828
33, -10115.64, 36866.61, 187500.00, 187500.00, 187500.00, -187500.02, -187500.02, 187500.00, 0.000, 0.000, 0.000, 15:28:47.828
34, -10105.87, 36798.97, 187500.00, 187500.00, 187500.00, -187500.02, -187500.02, 187500.00, 0.000, 0.000, 0.000, 15:28:47.829
35, -10135.02, 36645.64, 187500.00, 187500.00, 187500.00, -187500.02, -187500.02, 187500.00, 0.000, 0.000, 0.000, 15:28:47.829
36, -10169.35, 36524.80, 187500.00, 187500.00, 187500.00, -187500.02, -187500.02, 187500.00, 0.000, 0.000, 0.000, 15:28:47.829
37, -10155.85, 36744.75, 187500.00, 187500.00, 187500.00, -187500.02, -187500.02, 187500.00, 0.000, 0.000, 0.000, 15:28:47.829
38, -10110.72, 36871.95, 187500.00, 187500.00, 187500.00, -187500.02, -187500.02, 187500.00, 0.000, 0.000, 0.000, 15:28:47.829
39, -10106.83, 36795.91, 187500.00, 187500.00, 187500.00, -187500.02, -187500.02, 187500.00, 0.000, 0.000, 0.000, 15:28:47.829
40, -10143.15, 36636.48, 187500.00, 187500.00, 187500.00, -187500.02, -187500.02, 187500.00, 0.000, 0.000, 0.000, 15:28:47.830
41, -10165.30, 36531.06, 187500.00, 187500.00, 187500.00, -187500.02, -187500.02, 187500.00, 0.000, 0.000, 0.000, 15:28:47.830
42, -10145.84, 36756.28, 187500.00, 187500.00, 187500.00, -187500.02, -187500.02, 187500.00, -0.002, -0.116, 1.004, 15:28:47.830
43, -10111.37, 36876.51, 187500.00, 187500.00, 187500.00, -187500.02, -187500.02, 187500.00, 0.000, 0.000, 0.000, 15:28:47.830
44, -10096.93, 36812.85, 187500.00, 187500.00, 187500.00, -187500.02, -187500.02, 187500.00, 0.000, 0.000, 0.000, 15:28:47.831
45, -10126.35, 36654.67, 187500.00, 187500.00, 187500.00, -187500.02, -187500.02, 187500.00, 0.000, 0.000, 0.000, 15:28:47.831
46, -10168.72, 36517.63, 187500.00, 187500.00, 187500.00, -187500.02, -187500.02, 187500.00, 0.000, 0.000, 0.000, 15:28:47.831
47, -10153.66, 36733.55, 187500.00, 187500.00, 187500.00, -187500.02, -187500.02, 187500.00, 0.000, 0.000, 0.000, 15:28:47.831
48, -10121.79, 36855.39, 187500.00, 187500.00, 187500.00, -187500.02, -187500.02, 187500.00, 0.000, 0.000, 0.000, 15:28:47.831
49, -10120.40, 36782.72, 187500.00, 187500.00, 187500.00, -187500.02, -187500.02, 187500.00, 0.000, 0.000, 0.000, 15:28:47.831
50, -10139.96, 36645.28, 187500.00, 187500.00, 187500.00, -187500.02, -187500.02, 187500.00, 0.000, 0.000, 0.000, 15:28:47.832
51, -10169.46, 36529.54, 187500.00, 187500.00, 187500.00, -187500.02, -187500.02, 187500.00, 0.000, 0.000, 0.000, 15:28:47.832
52, -10149.61, 36753.55, 187500.00, 187500.00, 187500.00, -187500.02, -187500.02, 187500.00, 0.000, -0.110, 1.010, 15:28:47.832
53, -10117.27, 36872.44, 187500.00, 187500.00, 187500.00, -187500.02, -187500.02, 187500.00, 0.000, 0.000, 0.000, 15:28:47.832
54, -10113.76, 36801.32, 187500.00, 187500.00, 187500.00, -187500.02, -187500.02, 187500.00, 0.000, 0.000, 0.000, 15:28:47.832
55, -10133.21, 36655.03, 187500.00, 187500.00, 187500.00, -187500.02, -187500.02, 187500.00, 0.000, 0.000, 0.000, 15:28:47.832
56, -10156.05, 36537.41, 187500.00, 187500.00, 187500.00, -187500.02, -187500.02, 187500.00, 0.000, 0.000, 0.000, 15:28:47.833
57, -10142.53, 36759.43, 187500.00, 187500.00, 187500.00, -187500.02, -187500.02, 187500.00, 0.000, 0.000, 0.000, 15:28:47.833
58, -10118.63, 36877.05, 187500.00, 187500.00, 187500.00, -187500.02, -187500.02, 187500.00, 0.000, 0.000, 0.000, 15:28:47.833
59, -10109.25, 36810.33, 187500.00, 187500.00, 187500.00, -187500.02, -187500.02, 187500.00, 0.000, 0.000, 0.000, 15:28:47.833
60, -10142.35, 36655.38, 187500.00, 187500.00, 187500.00, -187500.02, -187500.02, 187500.00, 0.000, 0.000, 0.000, 15:28:47.833
61, -10171.74, 36538.30, 187500.00, 187500.00, 187500.00, -187500.02, -187500.02, 187500.00, -0.002, -0.116, 1.020, 15:28:47.834
62, -10159.34, 36755.27, 187500.00, 187500.00, 187500.00, -187500.02, -187500.02, 187500.00, 0.000, 0.000, 0.000, 15:28:47.834
63, -10119.64, 36887.38, 187500.00, 187500.00, 187500.00, -187500.02, -187500.02, 187500.00, 0.000, 0.000, 0.000, 15:28:47.834
64, -10112.98, 36814.75, 187500.00, 187500.00, 187500.00, -187500.02, -187500.02, 187500.00, 0.000, 0.000, 0.000, 15:28:47.834
65, -10147.71, 36652.86, 187500.00, 187500.00, 187500.00, -187500.02, -187500.02, 187500.00, 0.000, 0.000, 0.000, 15:28:47.834
66, -10175.09, 36533.75, 187500.00, 187500.00, 187500.00, -187500.02, -187500.02, 187500.00, 0.000, 0.000, 0.000, 15:28:47.834
67, -10168.39, 36749.80, 187500.00, 187500.00, 187500.00, -187500.02, -187500.02, 187500.00, 0.000, 0.000, 0.000, 15:28:47.834
68, -10143.36, 36863.46, 187500.00, 187500.00, 187500.00, -187500.02, -187500.02, 187500.00, 0.000, 0.000, 0.000, 15:28:47.835
69, -10135.53, 36787.39, 187500.00, 187500.00, 187500.00, -187500.02, -187500.02, 187500.00, 0.000, 0.000, 0.000, 15:28:47.835
70, -10155.60, 36640.18, 187500.00, 187500.00, 187500.00, -187500.02, -187500.02, 187500.00, 0.000, 0.000, 0.000, 15:28:47.835
71, -10179.59, 36519.04, 187500.00, 187500.00, 187500.00, -187500.02, -187500.02, 187500.00, 0.000, -0.116, 1.012, 15:28:47.835
72, -10170.38, 36727.40, 187500.00, 187500.00, 187500.00, -187500.02, -187500.02, 187500.00, 0.000, 0.000, 0.000, 15:28:47.835
73, -10133.97, 36852.86, 187500.00, 187500.00, 187500.00, -187500.02, -187500.02, 187500.00, 0.000, 0.000, 0.000, 15:28:48.296
74, -10110.30, 36801.21, 187500.00, 187500.00, 187500.00, -187500.02, -187500.02, 187500.00, 0.000, 0.000, 0.000, 15:28:48.296
75, -10127.08, 36659.23, 187500.00, 187500.00, 187500.00, -187500.02, -187500.02, 187500.00, 0.000, 0.000, 0.000, 15:28:48.296
76, -10168.84, 36518.59, 187500.00, 187500.00, 187500.00, -187500.02, -187500.02, 187500.00, 0.000, 0.000, 0.000, 15:28:48.296
77, -10163.76, 36724.63, 187500.00, 187500.00, 187500.00, -187500.02, -187500.02, 187500.00, 0.000, 0.000, 0.000, 15:28:48.296
78, -10124.42, 36857.78, 187500.00, 187500.00, 187500.00, -187500.02, -187500.02, 187500.00, 0.000, 0.000, 0.000, 15:28:48.297
79, -10106.32, 36797.77, 187500.00, 187500.00, 187500.00, -187500.02, -187500.02, 187500.00, 0.000, 0.000, 0.000, 15:28:48.297
80, -10130.68, 36650.29, 187500.00, 187500.00, 187500.00, -187500.02, -187500.02, 187500.00, 0.000, 0.000, 0.000, 15:28:48.297
81, -10157.12, 36532.27, 187500.00, 187500.00, 187500.00, -187500.02, -187500.02, 187500.00, -0.004, -0.112, 1.012, 15:28:48.297
82, -10155.78, 36743.00, 187500.00, 187500.00, 187500.00, -187500.02, -187500.02, 187500.00, 0.000, 0.000, 0.000, 15:28:48.297
83, -10126.68, 36865.65, 187500.00, 187500.00, 187500.00, -187500.02, -187500.02, 187500.00, 0.000, 0.000, 0.000, 15:28:48.297
84, -10120.98, 36787.64, 187500.00, 187500.00, 187500.00, -187500.02, -187500.02, 187500.00, 0.000, 0.000, 0.000, 15:28:48.298
85, -10145.72, 36637.44, 187500.00, 187500.00, 187500.00, -187500.02, -187500.02, 187500.00, 0.000, 0.000, 0.000, 15:28:48.298
86, -10168.93, 36519.53, 187500.00, 187500.00, 187500.00, -187500.02, -187500.02, 187500.00, 0.000, 0.000, 0.000, 15:28:48.298
87, -10157.84, 36738.58, 187500.00, 187500.00, 187500.00, -187500.02, -187500.02, 187500.00, 0.000, 0.000, 0.000, 15:28:48.298
88, -10116.78, 36878.12, 187500.00, 187500.00, 187500.00, -187500.02, -187500.02, 187500.00, 0.000, 0.000, 0.000, 15:28:48.298
89, -10108.33, 36810.39, 187500.00, 187500.00, 187500.00, -187500.02, -187500.02, 187500.00, 0.000, 0.000, 0.000, 15:28:48.298
90, -10136.18, 36656.82, 187500.00, 187500.00, 187500.00, -187500.02, -187500.02, 187500.00, 0.000, 0.000, 0.000, 15:28:48.299
91, -10163.27, 36524.09, 187500.00, 187500.00, 187500.00, -187500.02, -187500.02, 187500.00, -0.002, -0.116, 1.014, 15:28:48.299
92, -10146.40, 36741.98, 187500.00, 187500.00, 187500.00, -187500.02, -187500.02, 187500.00, 0.000, 0.000, 0.000, 15:28:48.299
93, -10110.90, 36871.73, 187500.00, 187500.00, 187500.00, -187500.02, -187500.02, 187500.00, 0.000, 0.000, 0.000, 15:28:48.299
94, -10102.45, 36798.10, 187500.00, 187500.00, 187500.00, -187500.02, -187500.02, 187500.00, 0.000, 0.000, 0.000, 15:28:48.299
95, -10134.97, 36642.04, 187500.00, 187500.00, 187500.00, -187500.02, -187500.02, 187500.00, 0.000, 0.000, 0.000, 15:28:48.299
96, -10171.09, 36506.28, 187500.00, 187500.00, 187500.00, -187500.02, -187500.02, 187500.00, 0.000, 0.000, 0.000, 15:28:48.300
97, -10159.56, 36718.39, 187500.00, 187500.00, 187500.00, -187500.02, -187500.02, 187500.00, 0.000, 0.000, 0.000, 15:28:48.300
98, -10119.35, 36856.10, 187500.00, 187500.00, 187500.00, -187500.02, -187500.02, 187500.00, 0.000, 0.000, 0.000, 15:28:48.300
99, -10097.98, 36799.17, 187500.00, 187500.00, 187500.00, -187500.02, -187500.02, 187500.00, 0.000, 0.000, 0.000, 15:28:48.300
100, -10127.28, 36648.16, 187500.00, 187500.00, 187500.00, -187500.02, -187500.02, 187500.00, 0.000, 0.000, 0.000, 15:28:48.300
101, -10152.99, 36522.88, 187500.00, 187500.00, 187500.00, -187500.02, -187500.02, 187500.00, -0.004, -0.118, 1.020, 15:28:48.300
102, -10141.48, 36740.77, 187500.00, 187500.00, 187500.00, -187500.02, -187500.02, 187500.00, 0.000, 0.000, 0.000, 15:28:48.301
103, -10112.06, 36874.92, 187500.00, 187500.00, 187500.00, -187500.02, -187500.02, 187500.00, 0.000, 0.000, 0.000, 15:28:48.301
104, -10100.35, 36807.87, 187500.00, 187500.00, 187500.00, -187500.02, -187500.02, 187500.00, 0.000, 0.000, 0.000, 15:28:48.301
105, -10138.48, 36636.72, 187500.00, 187500.00, 187500.00, -187500.02, -187500.02, 187500.00, 0.000, 0.000, 0.000, 15:28:48.301
106, -10177.55, 36495.61, 187500.00, 187500.00, 187500.00, -187500.02, -187500.02, 187500.00, 0.000, 0.000, 0.000, 15:28:48.301
107, -10163.16, 36715.36, 187500.00, 187500.00, 187500.00, -187500.02, -187500.02, 187500.00, 0.000, 0.000, 0.000, 15:28:48.301
108, -10110.50, 36867.21, 187500.00, 187500.00, 187500.00, -187500.02, -187500.02, 187500.00, 0.000, 0.000, 0.000, 15:28:48.302
109, -10091.28, 36807.13, 187500.00, 187500.00, 187500.00, -187500.02, -187500.02, 187500.00, 0.000, 0.000, 0.000, 15:28:48.302
110, -10128.63, 36642.29, 187500.00, 187500.00, 187500.00, -187500.02, -187500.02, 187500.00, 0.000, 0.000, 0.000, 15:28:48.302
111, -10171.90, 36494.50, 187500.00, 187500.00, 187500.00, -187500.02, -187500.02, 187500.00, -0.004, -0.112, 1.020, 15:28:48.302
112, -10148.72, 36709.48, 187500.00, 187500.00, 187500.00, -187500.02, -187500.02, 187500.00, 0.000, 0.000, 0.000, 15:28:48.302
113, -10090.72, 36863.59, 187500.00, 187500.00, 187500.00, -187500.02, -187500.02, 187500.00, 0.000, 0.000, 0.000, 15:28:48.302
114, -10078.71, 36795.20, 187500.00, 187500.00, 187500.00, -187500.02, -187500.02, 187500.00, 0.000, 0.000, 0.000, 15:28:48.303
115, -10112.46, 36638.38, 187500.00, 187500.00, 187500.00, -187500.02, -187500.02, 187500.00, 0.000, 0.000, 0.000, 15:28:48.303
116, -10163.81, 36486.83, 187500.00, 187500.00, 187500.00, -187500.02, -187500.02, 187500.00, 0.000, 0.000, 0.000, 15:28:48.303
117, -10154.51, 36700.29, 187500.00, 187500.00, 187500.00, -187500.02, -187500.02, 187500.00, 0.000, 0.000, 0.000, 15:28:48.303
118, -10115.46, 36847.36, 187500.00, 187500.00, 187500.00, -187500.02, -187500.02, 187500.00, 0.000, 0.000, 0.000, 15:28:48.303
119, -10100.08, 36790.25, 187500.00, 187500.00, 187500.00, -187500.02, -187500.02, 187500.00, 0.000, 0.000, 0.000, 15:28:48.304
120, -10127.35, 36643.63, 187500.00, 187500.00, 187500.00, -187500.02, -187500.02, 187500.00, 0.000, 0.000, 0.000, 15:28:48.304
121, -10162.00, 36505.74, 187500.00, 187500.00, 187500.00, -187500.02, -187500.02, 187500.00, -0.006, -0.110, 1.020, 15:28:48.304
122, -10144.56, 36721.93, 187500.00, 187500.00, 187500.00, -187500.02, -187500.02, 187500.00, 0.000, 0.000, 0.000, 15:28:48.305
123, -10120.02, 36846.25, 187500.00, 187500.00, 187500.00, -187500.02, -187500.02, 187500.00, 0.000, 0.000, 0.000, 15:28:48.305
124, -10117.83, 36769.94, 187500.00, 187500.00, 187500.00, -187500.02, -187500.02, 187500.00, 0.000, 0.000, 0.000, 15:28:48.305
125, -10138.26, 36626.77, 187500.00, 187500.00, 187500.00, -187500.02, -187500.02, 187500.00, 0.000, 0.000, 0.000, 15:28:48.305
126, -10172.32, 36485.38, 187500.00, 187500.00, 187500.00, -187500.02, -187500.02, 187500.00, 0.000, 0.000, 0.000, 15:28:48.306
127, -10165.44, 36692.49, 187500.00, 187500.00, 187500.00, -187500.02, -187500.02, 187500.00, 0.000, 0.000, 0.000, 15:28:48.306
128, -10116.62, 36849.04, 187500.00, 187500.00, 187500.00, -187500.02, -187500.02, 187500.00, 0.000, 0.000, 0.000, 15:28:48.306
129, -10102.54, 36784.73, 187500.00, 187500.00, 187500.00, -187500.02, -187500.02, 187500.00, 0.000, 0.000, 0.000, 15:28:48.306
130, -10144.83, 36616.94, 187500.00, 187500.00, 187500.00, -187500.02, -187500.02, 187500.00, 0.000, 0.000, 0.000, 15:28:48.306
131, -10191.97, 36459.83, 187500.00, 187500.00, 187500.00, -187500.02, -187500.02, 187500.00, -0.002, -0.114, 1.014, 15:28:48.306
132, -10187.70, 36659.72, 187500.00, 187500.00, 187500.00, -187500.02, -187500.02, 187500.00, 0.000, 0.000, 0.000, 15:28:48.306
133, -10148.56, 36804.29, 187500.00, 187500.00, 187500.00, -187500.02, -187500.02, 187500.00, 0.000, 0.000, 0.000, 15:28:48.306
134, -10114.14, 36765.67, 187500.00, 187500.00, 187500.00, -187500.02, -187500.02, 187500.00, 0.000, 0.000, 0.000, 15:28:48.307
135, -10138.10, 36615.78, 187500.00, 187500.00, 187500.00, -187500.02, -187500.02, 187500.00, 0.000, 0.000, 0.000, 15:28:48.307
136, -10183.45, 36457.97, 187500.00, 187500.00, 187500.00, -187500.02, -187500.02, 187500.00, 0.000, 0.000, 0.000, 15:28:48.307
137, -10185.78, 36652.03, 187500.00, 187500.00, 187500.00, -187500.02, -187500.02, 187500.00, 0.000, 0.000, 0.000, 15:28:48.307
138, -10152.54, 36795.73, 187500.00, 187500.00, 187500.00, -187500.02, -187500.02, 187500.00, 0.000, 0.000, 0.000, 15:28:48.307
139, -10133.59, 36744.03, 187500.00, 187500.00, 187500.00, -187500.02, -187500.02, 187500.00, 0.000, 0.000, 0.000, 15:28:48.307
140, -10142.48, 36615.22, 187500.00, 187500.00, 187500.00, -187500.02, -187500.02, 187500.00, 0.000, 0.000, 0.000, 15:28:48.307
141, -10181.78, 36468.81, 187500.00, 187500.00, 187500.00, -187500.02, -187500.02, 187500.00, -0.004, -0.110, 1.020, 15:28:48.307
142, -10188.93, 36652.97, 187500.00, 187500.00, 187500.00, -187500.02, -187500.02, 187500.00, 0.000, 0.000, 0.000, 15:28:48.308
143, -10146.28, 36803.06, 187500.00, 187500.00, 187500.00, -187500.02, -187500.02, 187500.00, 0.000, 0.000, 0.000, 15:28:48.308
144, -10122.25, 36752.39, 187500.00, 187500.00, 187500.00, -187500.02, -187500.02, 187500.00, 0.000, 0.000, 0.000, 15:28:48.308
145, -10151.18, 36608.42, 187500.00, 187500.00, 187500.00, -187500.02, -187500.02, 187500.00, 0.000, 0.000, 0.000, 15:28:48.308
146, -10189.24, 36456.66, 187500.00, 187500.00, 187500.00, -187500.02, -187500.02, 187500.00, 0.000, 0.000, 0.000, 15:28:48.308
147, -10182.27, 36657.48, 187500.00, 187500.00, 187500.00, -187500.02, -187500.02, 187500.00, 0.000, 0.000, 0.000, 15:28:48.308
148, -10150.17, 36801.83, 187500.00, 187500.00, 187500.00, -187500.02, -187500.02, 187500.00, 0.000, 0.000, 0.000, 15:28:48.308
149, -10125.54, 36751.03, 187500.00, 187500.00, 187500.00, -187500.02, -187500.02, 187500.00, 0.000, 0.000, 0.000, 15:28:48.308
150, -10145.03, 36605.92, 187500.00, 187500.00, 187500.00, -187500.02, -187500.02, 187500.00, 0.000, 0.000, 0.000, 15:28:48.308
151, -10183.34, 36452.52, 187500.00, 187500.00, 187500.00, -187500.02, -187500.02, 187500.00, 0.000, -0.112, 1.018, 15:28:48.309
152, -10176.66, 36652.75, 187500.00, 187500.00, 187500.00, -187500.02, -187500.02, 187500.00, 0.000, 0.000, 0.000, 15:28:48.309
153, -10134.75, 36808.54, 187500.00, 187500.00, 187500.00, -187500.02, -187500.02, 187500.00, 0.000, 0.000, 0.000, 15:28:48.309
154, -10118.68, 36750.02, 187500.00, 187500.00, 187500.00, -187500.02, -187500.02, 187500.00, 0.000, 0.000, 0.000, 15:28:48.309
155, -10136.34, 36611.66, 187500.00, 187500.00, 187500.00, -187500.02, -187500.02, 187500.00, 0.000, 0.000, 0.000, 15:28:48.309
156, -10178.27, 36455.94, 187500.00, 187500.00, 187500.00, -187500.02, -187500.02, 187500.00, 0.000, 0.000, 0.000, 15:28:48.309
157, -10185.42, 36644.12, 187500.00, 187500.00, 187500.00, -187500.02, -187500.02, 187500.00, 0.000, 0.000, 0.000, 15:28:48.309
158, -10147.96, 36793.96, 187500.00, 187500.00, 187500.00, -187500.02, -187500.02, 187500.00, 0.000, 0.000, 0.000, 15:28:48.309
159, -10117.56, 36742.67, 187500.00, 187500.00, 187500.00, -187500.02, -187500.02, 187500.00, 0.000, 0.000, 0.000, 15:28:48.310
160, -10138.53, 36601.50, 187500.00, 187500.00, 187500.00, -187500.02, -187500.02, 187500.00, 0.000, 0.000, 0.000, 15:28:48.310
161, -10176.30, 36456.32, 187500.00, 187500.00, 187500.00, -187500.02, -187500.02, 187500.00, 0.000, -0.114, 1.014, 15:28:48.310
162, -10175.09, 36648.50, 187500.00, 187500.00, 187500.00, -187500.02, -187500.02, 187500.00, 0.000, 0.000, 0.000, 15:28:48.310
163, -10146.06, 36787.75, 187500.00, 187500.00, 187500.00, -187500.02, -187500.02, 187500.00, 0.000, 0.000, 0.000, 15:28:48.310
164, -10119.80, 36741.26, 187500.00, 187500.00, 187500.00, -187500.02, -187500.02, 187500.00, 0.000, 0.000, 0.000, 15:28:48.310
165, -10146.28, 36597.23, 187500.00, 187500.00, 187500.00, -187500.02, -187500.02, 187500.00, 0.000, 0.000, 0.000, 15:28:48.310
166, -10187.72, 36445.21, 187500.00, 187500.00, 187500.00, -187500.02, -187500.02, 187500.00, 0.000, 0.000, 0.000, 15:28:48.310
167, -10180.30, 36647.61, 187500.00, 187500.00, 187500.00, -187500.02, -187500.02, 187500.00, 0.000, 0.000, 0.000, 15:28:48.311
168, -10142.71, 36804.47, 187500.00, 187500.00, 187500.00, -187500.02, -187500.02, 187500.00, 0.000, 0.000, 0.000, 15:28:48.311
169, -10114.63, 36764.46, 187500.00, 187500.00, 187500.00, -187500.02, -187500.02, 187500.00, 0.000, 0.000, 0.000, 15:28:48.311
170, -10144.61, 36612.69, 187500.00, 187500.00, 187500.00, -187500.02, -187500.02, 187500.00, -0.004, -0.112, 1.016, 15:28:48.311
171, -10179.07, 36455.11, 187500.00, 187500.00, 187500.00, -187500.02, -187500.02, 187500.00, 0.000, 0.000, 0.000, 15:28:48.311
172, -10174.31, 36647.72, 187500.00, 187500.00, 187500.00, -187500.02, -187500.02, 187500.00, 0.000, 0.000, 0.000, 15:28:48.311
173, -10149.97, 36794.84, 187500.00, 187500.00, 187500.00, -187500.02, -187500.02, 187500.00, 0.000, 0.000, 0.000, 15:28:48.311
