%OpenBCI Raw EEG Data
%
%Sample Rate = 250.0 Hz
%First Column = SampleIndex
%Last Column = Timestamp 
%Other Columns = EEG data in microvolts followed by Accel Data (in G) interleaved with Aux Data
0, 41657.82, 25476.99, -187500.02, -187500.02, -187500.02, -172853.44, -187500.02, -187500.02, -0.010, -0.010, 1.032, 14:53:04.833
1, 41489.89, 25379.67, -187500.02, -187500.02, -187500.02, -172829.52, -187500.02, -187500.02, 0.000, 0.000, 0.000, 14:53:04.834
2, 41122.47, 25295.38, -187500.02, -187500.02, -187500.02, -173115.06, -187500.02, -187500.02, 0.000, 0.000, 0.000, 14:53:04.834
3, 41253.90, 25392.36, -187500.02, -187500.02, -187500.02, -173217.20, -187500.02, -187500.02, 0.000, 0.000, 0.000, 14:53:04.834
4, 41488.68, 25467.44, -187500.02, -187500.02, -187500.02, -173095.17, -187500.02, -187500.02, 0.000, 0.000, 0.000, 14:53:04.834
5, 41656.68, 25475.65, -187500.02, -187500.02, -187500.02, -172849.47, -187500.02, -187500.02, 0.000, 0.000, 0.000, 14:53:04.834
6, 41498.20, 25384.85, -187500.02, -187500.02, -187500.02, -172819.81, -187500.02, -187500.02, 0.000, 0.000, 0.000, 14:53:04.834
7, 41139.61, 25309.17, -187500.02, -187500.02, -187500.02, -173112.17, -187500.02, -187500.02, -0.032, 0.008, 1.012, 14:53:04.835
8, 41270.39, 25404.41, -187500.02, -187500.02, -187500.02, -173271.20, -187500.02, -187500.02, 0.000, 0.000, 0.000, 14:53:04.835
9, 41502.07, 25475.40, -187500.02, -187500.02, -187500.02, -173170.42, -187500.02, -187500.02, 0.000, 0.000, 0.000, 14:53:04.835
10, 41663.41, 25482.28, -187500.02, -187500.02, -187500.02, -172951.06, -187500.02, -187500.02, 0.000, 0.000, 0.000, 14:53:04.835
11, 41496.10, 25378.88, -187500.02, -187500.02, -187500.02, -172909.16, -187500.02, -187500.02, 0.000, 0.000, 0.000, 14:53:04.835
12, 41129.42, 25297.39, -187500.02, -187500.02, -187500.02, -173171.77, -187500.02, -187500.02, 0.000, 0.000, 0.000, 14:53:04.835
13, 41250.48, 25389.50, -187500.02, -187500.02, -187500.02, -173266.89, -187500.02, -187500.02, 0.000, 0.000, 0.000, 14:53:04.836
14, 41489.64, 25466.08, -187500.02, -187500.02, -187500.02, -173182.56, -187500.02, -187500.02, 0.000, 0.000, 0.000, 14:53:04.836
15, 41653.52, 25467.33, -187500.02, -187500.02, -187500.02, -172919.77, -187500.02, -187500.02, 0.000, 0.000, 0.000, 14:53:04.836
16, 41492.14, 25375.85, -187500.02, -187500.02, -187500.02, -172885.47, -187500.02, -187500.02, 0.000, 0.000, 0.000, 14:53:04.836
17, 41122.78, 25298.57, -187500.02, -187500.02, -187500.02, -173175.59, -187500.02, -187500.02, -0.028, -0.004, 1.030, 14:53:04.836
18, 41243.19, 25386.46, -187500.02, -187500.02, -187500.02, -173283.75, -187500.02, -187500.02, 0.000, 0.000, 0.000, 14:53:04.836
19, 41505.54, 25482.35, -187500.02, -187500.02, -187500.02, -173203.91, -187500.02, -187500.02, 0.000, 0.000, 0.000, 14:53:04.837
20, 41671.72, 25479.56, -187500.02, -187500.02, -187500.02, -172954.19, -187500.02, -187500.02, 0.000, 0.000, 0.000, 14:53:04.837
21, 41487.54, 25361.67, -187500.02, -187500.02, -187500.02, -172899.75, -187500.02, -187500.02, 0.000, 0.000, 0.000, 14:53:04.837
22, 41121.69, 25280.00, -187500.02, -187500.02, -187500.02, -173159.89, -187500.02, -187500.02, 0.000, 0.000, 0.000, 14:53:04.837
23, 41259.53, 25389.46, -187500.02, -187500.02, -187500.02, -173286.30, -187500.02, -187500.02, 0.000, 0.000, 0.000, 14:53:04.837
24, 41493.96, 25462.86, -187500.02, -187500.02, -187500.02, -173170.56, -187500.02, -187500.02, 0.000, 0.000, 0.000, 14:53:04.837
25, 41668.70, 25462.75, -187500.02, -187500.02, -187500.02, -172949.13, -187500.02, -187500.02, 0.000, 0.000, 0.000, 14:53:04.838
26, 41523.71, 25377.63, -187500.02, -187500.02, -187500.02, -172931.39, -187500.02, -187500.02, 0.000, 0.000, 0.000, 14:53:04.838
27, 41148.06, 25291.18, -187500.02, -187500.02, -187500.02, -173208.05, -187500.02, -187500.02, -0.024, -0.010, 1.018, 14:53:04.838
28, 41267.20, 25381.28, -187500.02, -187500.02, -187500.02, -173329.55, -187500.02, -187500.02, 0.000, 0.000, 0.000, 14:53:04.838
29, 41504.37, 25454.63, -187500.02, -187500.02, -187500.02, -173212.83, -187500.02, -187500.02, 0.000, 0.000, 0.000, 14:53:04.838
30, 41669.48, 25461.63, -187500.02, -187500.02, -187500.02, -172996.02, -187500.02, -187500.02, 0.000, 0.000, 0.000, 14:53:04.838
31, 41518.34, 25375.73, -187500.02, -187500.02, -187500.02, -172983.08, -187500.02, -187500.02, 0.000, 0.000, 0.000, 14:53:04.839
32, 41153.23, 25301.30, -187500.02, -187500.02, -187500.02, -173293.73, -187500.02, -187500.02, 0.000, 0.000, 0.000, 14:53:04.839
33, 41268.02, 25387.18, -187500.02, -187500.02, -187500.02, -173427.77, -187500.02, -187500.02, 0.000, 0.000, 0.000, 14:53:04.839
34, 41508.80, 25460.40, -187500.02, -187500.02, -187500.02, -173319.09, -187500.02, -187500.02, 0.000, 0.000, 0.000, 14:53:04.839
35, 41670.51, 25463.24, -187500.02, -187500.02, -187500.02, -173091.19, -187500.02, -187500.02, 0.000, 0.000, 0.000, 14:53:04.839
36, 41510.18, 25366.90, -187500.02, -187500.02, -187500.02, -173012.59, -187500.02, -187500.02, -0.020, -0.016, 1.030, 14:53:04.839
37, 41148.00, 25292.12, -187500.02, -187500.02, -187500.02, -173293.56, -187500.02, -187500.02, 0.000, 0.000, 0.000, 14:53:04.840
38, 41278.66, 25390.89, -187500.02, -187500.02, -187500.02, -173440.64, -187500.02, -187500.02, 0.000, 0.000, 0.000, 14:53:04.840
39, 41516.15, 25461.92, -187500.02, -187500.02, -187500.02, -173342.13, -187500.02, -187500.02, 0.000, 0.000, 0.000, 14:53:04.840
40, 41676.79, 25462.35, -187500.02, -187500.02, -187500.02, -173080.48, -187500.02, -187500.02, 0.000, 0.000, 0.000, 14:53:04.840
41, 41508.24, 25360.45, -187500.02, -187500.02, -187500.02, -173011.59, -187500.02, -187500.02, 0.000, 0.000, 0.000, 14:53:04.840
42, 41142.92, 25283.91, -187500.02, -187500.02, -187500.02, -173281.05, -187500.02, -187500.02, 0.000, 0.000, 0.000, 14:53:04.840
43, 41252.80, 25372.40, -187500.02, -187500.02, -187500.02, -173397.23, -187500.02, -187500.02, 0.000, 0.000, 0.000, 14:53:04.841
44, 41500.32, 25449.65, -187500.02, -187500.02, -187500.02, -173315.39, -187500.02, -187500.02, 0.000, 0.000, 0.000, 14:53:04.841
45, 41678.16, 25462.90, -187500.02, -187500.02, -187500.02, -173070.94, -187500.02, -187500.02, 0.000, 0.000, 0.000, 14:53:04.841
46, 41529.59, 25377.34, -187500.02, -187500.02, -187500.02, -173049.70, -187500.02, -187500.02, -0.022, -0.016, 1.032, 14:53:04.841
47, 41153.85, 25291.18, -187500.02, -187500.02, -187500.02, -173335.53, -187500.02, -187500.02, 0.000, 0.000, 0.000, 14:53:04.841
48, 41266.53, 25379.51, -187500.02, -187500.02, -187500.02, -173418.27, -187500.02, -187500.02, 0.000, 0.000, 0.000, 14:53:04.841
49, 41507.84, 25461.97, -187500.02, -187500.02, -187500.02, -173335.06, -187500.02, -187500.02, 0.000, 0.000, 0.000, 14:53:04.842
50, 41668.25, 25467.15, -187500.02, -187500.02, -187500.02, -173110.44, -187500.02, -187500.02, 0.000, 0.000, 0.000, 14:53:04.842
51, 41510.00, 25370.59, -187500.02, -187500.02, -187500.02, -173066.02, -187500.02, -187500.02, 0.000, 0.000, 0.000, 14:53:04.842
52, 41139.75, 25289.28, -187500.02, -187500.02, -187500.02, -173319.44, -187500.02, -187500.02, 0.000, 0.000, 0.000, 14:53:04.842
53, 41254.70, 25381.32, -187500.02, -187500.02, -187500.02, -173426.78, -187500.02, -187500.02, 0.000, 0.000, 0.000, 14:53:04.842
54, 41493.09, 25464.76, -187500.02, -187500.02, -187500.02, -173354.47, -187500.02, -187500.02, 0.000, 0.000, 0.000, 14:53:04.842
55, 41656.07, 25471.49, -187500.02, -187500.02, -187500.02, -173129.44, -187500.02, -187500.02, 0.000, 0.000, 0.000, 14:53:04.843
56, 41504.64, 25379.69, -187500.02, -187500.02, -187500.02, -173101.05, -187500.02, -187500.02, -0.022, -0.010, 1.018, 14:53:04.843
57, 41140.80, 25306.49, -187500.02, -187500.02, -187500.02, -173384.13, -187500.02, -187500.02, 0.000, 0.000, 0.000, 14:53:04.843
58, 41261.95, 25410.94, -187500.02, -187500.02, -187500.02, -173543.83, -187500.02, -187500.02, 0.000, 0.000, 0.000, 14:53:04.843
59, 41497.06, 25484.07, -187500.02, -187500.02, -187500.02, -173460.30, -187500.02, -187500.02, 0.000, 0.000, 0.000, 14:53:04.843
60, 41660.88, 25484.97, -187500.02, -187500.02, -187500.02, -173200.13, -187500.02, -187500.02, 0.000, 0.000, 0.000, 14:53:04.844
61, 41508.04, 25384.00, -187500.02, -187500.02, -187500.02, -173140.31, -187500.02, -187500.02, 0.000, 0.000, 0.000, 14:53:04.844
62, 41135.61, 25295.58, -187500.02, -187500.02, -187500.02, -173402.08, -187500.02, -187500.02, 0.000, 0.000, 0.000, 14:53:04.844
63, 41256.36, 25389.37, -187500.02, -187500.02, -187500.02, -173540.41, -187500.02, -187500.02, 0.000, 0.000, 0.000, 14:53:04.845
64, 41494.49, 25469.74, -187500.02, -187500.02, -187500.02, -173453.55, -187500.02, -187500.02, 0.000, 0.000, 0.000, 14:53:04.845
65, 41656.95, 25472.81, -187500.02, -187500.02, -187500.02, -173177.38, -187500.02, -187500.02, 0.000, 0.000, 0.000, 14:53:04.845
66, 41505.15, 25379.38, -187500.02, -187500.02, -187500.02, -173124.11, -187500.02, -187500.02, -0.020, -0.010, 1.024, 14:53:04.845
67, 41126.45, 25289.52, -187500.02, -187500.02, -187500.02, -173404.94, -187500.02, -187500.02, 0.000, 0.000, 0.000, 14:53:04.846
68, 41245.36, 25387.27, -187500.02, -187500.02, -187500.02, -173541.89, -187500.02, -187500.02, 0.000, 0.000, 0.000, 14:53:04.846
69, 41487.14, 25473.99, -187500.02, -187500.02, -187500.02, -173458.06, -187500.02, -187500.02, 0.000, 0.000, 0.000, 14:53:04.846
70, 41659.79, 25486.04, -187500.02, -187500.02, -187500.02, -173200.11, -187500.02, -187500.02, 0.000, 0.000, 0.000, 14:53:04.846
71, 41504.39, 25386.37, -187500.02, -187500.02, -187500.02, -173146.36, -187500.02, -187500.02, 0.000, 0.000, 0.000, 14:53:04.846
72, 41135.48, 25305.37, -187500.02, -187500.02, -187500.02, -173453.55, -187500.02, -187500.02, 0.000, 0.000, 0.000, 14:53:04.847
73, 41246.07, 25398.13, -187500.02, -187500.02, -187500.02, -173546.11, -187500.02, -187500.02, 0.000, 0.000, 0.000, 14:53:04.847
74, 41501.09, 25483.40, -187500.02, -187500.02, -187500.02, -173462.89, -187500.02, -187500.02, 0.000, 0.000, 0.000, 14:53:04.847
75, 41672.68, 25491.09, -187500.02, -187500.02, -187500.02, -173243.17, -187500.02, -187500.02, 0.000, 0.000, 0.000, 14:53:04.847
76, 41516.31, 25393.06, -187500.02, -187500.02, -187500.02, -173197.11, -187500.02, -187500.02, -0.022, -0.010, 1.024, 14:53:04.847
77, 41139.64, 25302.67, -187500.02, -187500.02, -187500.02, -173467.23, -187500.02, -187500.02, 0.000, 0.000, 0.000, 14:53:04.847
78, 41250.23, 25399.54, -187500.02, -187500.02, -187500.02, -173588.02, -187500.02, -187500.02, 0.000, 0.000, 0.000, 14:53:04.848
79, 41505.49, 25491.05, -187500.02, -187500.02, -187500.02, -173532.50, -187500.02, -187500.02, 0.000, 0.000, 0.000, 14:53:04.848
80, 41656.01, 25478.37, -187500.02, -187500.02, -187500.02, -173279.34, -187500.02, -187500.02, 0.000, 0.000, 0.000, 14:53:04.848
81, 41503.68, 25381.72, -187500.02, -187500.02, -187500.02, -173212.52, -187500.02, -187500.02, 0.000, 0.000, 0.000, 14:53:04.848
82, 41148.04, 25312.72, -187500.02, -187500.02, -187500.02, -173487.95, -187500.02, -187500.02, 0.000, 0.000, 0.000, 14:53:04.848
83, 41267.13, 25404.59, -187500.02, -187500.02, -187500.02, -173638.98, -187500.02, -187500.02, 0.000, 0.000, 0.000, 14:53:04.849
84, 41508.21, 25482.96, -187500.02, -187500.02, -187500.02, -173554.34, -187500.02, -187500.02, 0.000, 0.000, 0.000, 14:53:04.849
85, 41664.12, 25478.06, -187500.02, -187500.02, -187500.02, -173296.06, -187500.02, -187500.02, 0.000, 0.000, 0.000, 14:53:04.849
86, 41513.11, 25383.00, -187500.02, -187500.02, -187500.02, -173235.64, -187500.02, -187500.02, -0.022, -0.006, 1.028, 14:53:04.849
87, 41152.09, 25306.26, -187500.02, -187500.02, -187500.02, -173526.16, -187500.02, -187500.02, 0.000, 0.000, 0.000, 14:53:04.849
88, 41271.49, 25394.02, -187500.02, -187500.02, -187500.02, -173647.44, -187500.02, -187500.02, 0.000, 0.000, 0.000, 14:53:04.850
89, 41513.11, 25476.21, -187500.02, -187500.02, -187500.02, -173542.09, -187500.02, -187500.02, 0.000, 0.000, 0.000, 14:53:04.850
90, 41673.84, 25478.24, -187500.02, -187500.02, -187500.02, -173298.67, -187500.02, -187500.02, 0.000, 0.000, 0.000, 14:53:04.850
91, 41544.14, 25392.99, -187500.02, -187500.02, -187500.02, -173253.31, -187500.02, -187500.02, 0.000, 0.000, 0.000, 14:53:04.850
92, 41171.09, 25301.15, -187500.02, -187500.02, -187500.02, -173506.44, -187500.02, -187500.02, 0.000, 0.000, 0.000, 14:53:04.850
93, 41291.92, 25398.51, -187500.02, -187500.02, -187500.02, -173658.88, -187500.02, -187500.02, 0.000, 0.000, 0.000, 14:53:04.851
94, 41532.25, 25477.26, -187500.02, -187500.02, -187500.02, -173586.45, -187500.02, -187500.02, 0.000, 0.000, 0.000, 14:53:04.851
95, 41685.24, 25469.77, -187500.02, -187500.02, -187500.02, -173332.47, -187500.02, -187500.02, 0.000, 0.000, 0.000, 14:53:04.851
96, 41541.95, 25377.70, -187500.02, -187500.02, -187500.02, -173300.27, -187500.02, -187500.02, -0.030, -0.006, 1.032, 14:53:04.851
97, 41159.44, 25285.39, -187500.02, -187500.02, -187500.02, -173605.41, -187500.02, -187500.02, 0.000, 0.000, 0.000, 14:53:04.851
98, 41264.94, 25365.50, -187500.02, -187500.02, -187500.02, -173705.08, -187500.02, -187500.02, 0.000, 0.000, 0.000, 14:53:04.851
99, 41504.86, 25450.21, -187500.02, -187500.02, -187500.02, -173583.08, -187500.02, -187500.02, 0.000, 0.000, 0.000, 14:53:04.851
100, 41672.46, 25458.28, -187500.02, -187500.02, -187500.02, -173350.78, -187500.02, -187500.02, 0.000, 0.000, 0.000, 14:53:04.852
101, 41536.71, 25364.45, -187500.02, -187500.02, -187500.02, -173303.78, -187500.02, -187500.02, 0.000, 0.000, 0.000, 14:53:04.852
102, 41154.25, 25274.86, -187500.02, -187500.02, -187500.02, -173559.75, -187500.02, -187500.02, 0.000, 0.000, 0.000, 14:53:04.852
103, 41265.16, 25368.78, -187500.02, -187500.02, -187500.02, -173675.31, -187500.02, -187500.02, 0.000, 0.000, 0.000, 14:53:04.852
104, 41503.37, 25447.75, -187500.02, -187500.02, -187500.02, -173596.83, -187500.02, -187500.02, 0.000, 0.000, 0.000, 14:53:04.852
105, 41659.18, 25440.60, -187500.02, -187500.02, -187500.02, -173292.31, -187500.02, -187500.02, 0.000, 0.000, 0.000, 14:53:04.852
106, 41532.73, 25362.66, -187500.02, -187500.02, -187500.02, -173233.17, -187500.02, -187500.02, -0.018, -0.008, 1.034, 14:53:04.852
107, 41166.68, 25284.27, -187500.02, -187500.02, -187500.02, -173562.31, -187500.02, -187500.02, 0.000, 0.000, 0.000, 14:53:04.852
108, 41281.75, 25389.14, -187500.02, -187500.02, -187500.02, -173709.03, -187500.02, -187500.02, 0.000, 0.000, 0.000, 14:53:04.853
109, 41524.64, 25477.90, -187500.02, -187500.02, -187500.02, -173604.03, -187500.02, -187500.02, 0.000, 0.000, 0.000, 14:53:04.853
110, 41690.99, 25480.96, -187500.02, -187500.02, -187500.02, -173351.50, -187500.02, -187500.02, 0.000, 0.000, 0.000, 14:53:04.853
111, 41544.38, 25382.39, -187500.02, -187500.02, -187500.02, -173292.64, -187500.02, -187500.02, 0.000, 0.000, 0.000, 14:53:04.853
112, 41168.74, 25295.83, -187500.02, -187500.02, -187500.02, -173573.22, -187500.02, -187500.02, 0.000, 0.000, 0.000, 14:53:04.853
113, 41273.01, 25386.98, -187500.02, -187500.02, -187500.02, -173713.73, -187500.02, -187500.02, 0.000, 0.000, 0.000, 14:53:04.853
114, 41512.08, 25461.79, -187500.02, -187500.02, -187500.02, -173609.88, -187500.02, -187500.02, 0.000, 0.000, 0.000, 14:53:04.853
115, 41671.34, 25461.90, -187500.02, -187500.02, -187500.02, -173357.42, -187500.02, -187500.02, 0.000, 0.000, 0.000, 14:53:04.854
116, 41528.27, 25363.69, -187500.02, -187500.02, -187500.02, -173306.17, -187500.02, -187500.02, -0.022, -0.010, 1.032, 14:53:04.854
117, 41141.02, 25278.99, -187500.02, -187500.02, -187500.02, -173563.25, -187500.02, -187500.02, 0.000, 0.000, 0.000, 14:53:04.854
118, 41259.31, 25379.69, -187500.02, -187500.02, -187500.02, -173708.86, -187500.02, -187500.02, 0.000, 0.000, 0.000, 14:53:04.854
119, 41516.20, 25465.32, -187500.02, -187500.02, -187500.02, -173627.14, -187500.02, -187500.02, 0.000, 0.000, 0.000, 14:53:04.854
120, 41679.34, 25465.30, -187500.02, -187500.02, -187500.02, -173389.27, -187500.02, -187500.02, 0.000, 0.000, 0.000, 14:53:05.314
121, 41536.87, 25367.02, -187500.02, -187500.02, -187500.02, -173335.53, -187500.02, -187500.02, 0.000, 0.000, 0.000, 14:53:05.314
122, 41162.39, 25284.38, -187500.02, -187500.02, -187500.02, -173596.77, -187500.02, -187500.02, 0.000, 0.000, 0.000, 14:53:05.314
123, 41250.12, 25365.52, -187500.02, -187500.02, -187500.02, -173712.64, -187500.02, -187500.02, 0.000, 0.000, 0.000, 14:53:05.314
124, 41492.30, 25452.67, -187500.02, -187500.02, -187500.02, -173624.66, -187500.02, -187500.02, 0.000, 0.000, 0.000, 14:53:05.315
125, 41669.55, 25466.50, -187500.02, -187500.02, -187500.02, -173380.84, -187500.02, -187500.02, 0.000, 0.000, 0.000, 14:53:05.315
126, 41533.63, 25373.83, -187500.02, -187500.02, -187500.02, -173295.58, -187500.02, -187500.02, -0.026, -0.008, 1.028, 14:53:05.315
127, 41169.65, 25302.42, -187500.02, -187500.02, -187500.02, -173578.36, -187500.02, -187500.02, 0.000, 0.000, 0.000, 14:53:05.315
128, 41277.37, 25399.02, -187500.02, -187500.02, -187500.02, -173740.08, -187500.02, -187500.02, 0.000, 0.000, 0.000, 14:53:05.315
129, 41522.28, 25479.60, -187500.02, -187500.02, -187500.02, -173656.94, -187500.02, -187500.02, 0.000, 0.000, 0.000, 14:53:05.315
130, 41686.88, 25487.51, -187500.02, -187500.02, -187500.02, -173422.50, -187500.02, -187500.02, 0.000, 0.000, 0.000, 14:53:05.315
131, 41544.98, 25390.89, -187500.02, -187500.02, -187500.02, -173328.05, -187500.02, -187500.02, 0.000, 0.000, 0.000, 14:53:05.315
132, 41166.08, 25307.36, -187500.02, -187500.02, -187500.02, -173616.66, -187500.02, -187500.02, 0.000, 0.000, 0.000, 14:53:05.316
133, 41270.53, 25400.25, -187500.02, -187500.02, -187500.02, -173786.02, -187500.02, -187500.02, 0.000, 0.000, 0.000, 14:53:05.316
134, 41522.30, 25487.76, -187500.02, -187500.02, -187500.02, -173690.34, -187500.02, -187500.02, 0.000, 0.000, 0.000, 14:53:05.316
135, 41682.85, 25482.08, -187500.02, -187500.02, -187500.02, -173436.25, -187500.02, -187500.02, 0.000, 0.000, 0.000, 14:53:05.316
136, 41555.18, 25391.74, -187500.02, -187500.02, -187500.02, -173388.78, -187500.02, -187500.02, -0.026, -0.010, 1.032, 14:53:05.316
137, 41174.80, 25305.26, -187500.02, -187500.02, -187500.02, -173664.20, -187500.02, -187500.02, 0.000, 0.000, 0.000, 14:53:05.316
138, 41277.59, 25396.50, -187500.02, -187500.02, -187500.02, -173805.61, -187500.02, -187500.02, 0.000, 0.000, 0.000, 14:53:05.316
139, 41517.09, 25476.16, -187500.02, -187500.02, -187500.02, -173726.64, -187500.02, -187500.02, 0.000, 0.000, 0.000, 14:53:05.316
140, 41678.27, 25474.91, -187500.02, -187500.02, -187500.02, -173473.31, -187500.02, -187500.02, 0.000, 0.000, 0.000, 14:53:05.317
141, 41549.07, 25386.66, -187500.02, -187500.02, -187500.02, -173397.88, -187500.02, -187500.02, 0.000, 0.000, 0.000, 14:53:05.317
142, 41177.86, 25304.70, -187500.02, -187500.02, -187500.02, -173681.59, -187500.02, -187500.02, 0.000, 0.000, 0.000, 14:53:05.317
143, 41276.61, 25391.22, -187500.02, -187500.02, -187500.02, -173819.55, -187500.02, -187500.02, 0.000, 0.000, 0.000, 14:53:05.317
144, 41518.12, 25469.88, -187500.02, -187500.02, -187500.02, -173735.31, -187500.02, -187500.02, 0.000, 0.000, 0.000, 14:53:05.317
145, 41678.89, 25470.73, -187500.02, -187500.02, -187500.02, -173480.52, -187500.02, -187500.02, 0.000, 0.000, 0.000, 14:53:05.317
146, 41562.69, 25389.39, -187500.02, -187500.02, -187500.02, -173422.42, -187500.02, -187500.02, -0.030, -0.014, 1.034, 14:53:05.317
147, 41192.18, 25308.86, -187500.02, -187500.02, -187500.02, -173692.63, -187500.02, -187500.02, 0.000, 0.000, 0.000, 14:53:05.318
148, 41280.90, 25390.55, -187500.02, -187500.02, -187500.02, -173826.09, -187500.02, -187500.02, 0.000, 0.000, 0.000, 14:53:05.318
149, 41528.71, 25476.09, -187500.02, -187500.02, -187500.02, -173727.39, -187500.02, -187500.02, 0.000, 0.000, 0.000, 14:53:05.318
150, 41704.29, 25492.19, -187500.02, -187500.02, -187500.02, -173498.02, -187500.02, -187500.02, 0.000, 0.000, 0.000, 14:53:05.318
151, 41577.89, 25404.08, -187500.02, -187500.02, -187500.02, -173441.33, -187500.02, -187500.02, 0.000, 0.000, 0.000, 14:53:05.318
152, 41188.34, 25302.58, -187500.02, -187500.02, -187500.02, -173715.98, -187500.02, -187500.02, 0.000, 0.000, 0.000, 14:53:05.318
153, 41283.04, 25388.52, -187500.02, -187500.02, -187500.02, -173828.38, -187500.02, -187500.02, 0.000, 0.000, 0.000, 14:53:05.318
154, 41546.73, 25492.86, -187500.02, -187500.02, -187500.02, -173749.98, -187500.02, -187500.02, 0.000, 0.000, 0.000, 14:53:05.319
155, 41712.71, 25500.63, -187500.02, -187500.02, -187500.02, -173512.56, -187500.02, -187500.02, 0.000, 0.000, 0.000, 14:53:05.319
156, 41585.44, 25403.49, -187500.02, -187500.02, -187500.02, -173431.30, -187500.02, -187500.02, -0.024, -0.012, 1.032, 14:53:05.319
157, 41208.59, 25312.59, -187500.02, -187500.02, -187500.02, -173721.59, -187500.02, -187500.02, 0.000, 0.000, 0.000, 14:53:05.319
158, 41295.81, 25398.96, -187500.02, -187500.02, -187500.02, -173885.56, -187500.02, -187500.02, 0.000, 0.000, 0.000, 14:53:05.319
159, 41543.13, 25476.43, -187500.02, -187500.02, -187500.02, -173802.91, -187500.02, -187500.02, 0.000, 0.000, 0.000, 14:53:05.319
160, 41716.91, 25485.64, -187500.02, -187500.02, -187500.02, -173525.92, -187500.02, -187500.02, 0.000, 0.000, 0.000, 14:53:05.319
161, 41593.20, 25401.33, -187500.02, -187500.02, -187500.02, -173454.56, -187500.02, -187500.02, 0.000, 0.000, 0.000, 14:53:05.319
162, 41209.46, 25305.39, -187500.02, -187500.02, -187500.02, -173742.45, -187500.02, -187500.02, 0.000, 0.000, 0.000, 14:53:05.319
163, 41303.45, 25390.51, -187500.02, -187500.02, -187500.02, -173869.13, -187500.02, -187500.02, 0.000, 0.000, 0.000, 14:53:05.320
164, 41537.45, 25467.38, -187500.02, -187500.02, -187500.02, -173779.98, -187500.02, -187500.02, 0.000, 0.000, 0.000, 14:53:05.320
165, 41709.61, 25481.28, -187500.02, -187500.02, -187500.02, -173515.63, -187500.02, -187500.02, -0.020, -0.012, 1.026, 14:53:05.320
166, 41593.42, 25397.66, -187500.02, -187500.02, -187500.02, -173473.41, -187500.02, -187500.02, 0.000, 0.000, 0.000, 14:53:05.320
167, 41205.13, 25303.49, -187500.02, -187500.02, -187500.02, -173771.75, -187500.02, -187500.02, 0.000, 0.000, 0.000, 14:53:05.320
168, 41289.35, 25381.88, -187500.02, -187500.02, -187500.02, -173886.23, -187500.02, -187500.02, 0.000, 0.000, 0.000, 14:53:05.320
169, 41538.05, 25471.02, -187500.02, -187500.02, -187500.02, -173809.44, -187500.02, -187500.02, 0.000, 0.000, 0.000, 14:53:05.320
170, 41700.11, 25472.88, -187500.02, -187500.02, -187500.02, -173537.42, -187500.02, -187500.02, 0.000, 0.000, 0.000, 14:53:05.320
171, 41598.74, 25397.97, -187500.02, -187500.02, -187500.02, -173467.09, -187500.02, -187500.02, 0.000, 0.000, 0.000, 14:53:05.321
172, 41217.75, 25314.02, -187500.02, -187500.02, -187500.02, -173770.09, -187500.02, -187500.02, 0.000, 0.000, 0.000, 14:53:05.321
173, 41291.56, 25386.06, -187500.02, -187500.02, -187500.02, -173889.77, -187500.02, -187500.02, 0.000, 0.000, 0.000, 14:53:05.321
174, 41531.60, 25462.53, -187500.02, -187500.02, -187500.02, -173772.16, -187500.02, -187500.02, 0.000, 0.000, 0.000, 14:53:05.321
175, 41703.75, 25473.08, -187500.02, -187500.02, -187500.02, -173534.95, -187500.02, -187500.02, -0.020, -0.012, 1.026, 14:53:05.321
176, 41589.69, 25382.73, -187500.02, -187500.02, -187500.02, -173459.83, -187500.02, -187500.02, 0.000, 0.000, 0.000, 14:53:05.321
177, 41205.17, 25288.12, -187500.02, -187500.02, -187500.02, -173755.66, -187500.02, -187500.02, 0.000, 0.000, 0.000, 14:53:05.321
178, 41293.75, 25376.74, -187500.02, -187500.02, -187500.02, -173883.80, -187500.02, -187500.02, 0.000, 0.000, 0.000, 14:53:05.321
179, 41532.89, 25455.06, -187500.02, -187500.02, -187500.02, -173755.03, -187500.02, -187500.02, 0.000, 0.000, 0.000, 14:53:05.321
180, 41708.49, 25476.88, -187500.02, -187500.02, -187500.02, -173514.94, -187500.02, -187500.02, 0.000, 0.000, 0.000, 14:53:05.322
181, 41603.70, 25401.33, -187500.02, -187500.02, -187500.02, -173470.67, -187500.02, -187500.02, 0.000, 0.000, 0.000, 14:53:05.322
182, 41215.12, 25302.91, -187500.02, -187500.02, -187500.02, -173789.14, -187500.02, -187500.02, 0.000, 0.000, 0.000, 14:53:05.322
183, 41297.84, 25384.63, -187500.02, -187500.02, -187500.02, -173947.02, -187500.02, -187500.02, 0.000, 0.000, 0.000, 14:53:05.322
184, 41534.43, 25464.22, -187500.02, -187500.02, -187500.02, -173875.95, -187500.02, -187500.02, 0.000, 0.000, 0.000, 14:53:05.322
185, 41690.47, 25465.86, -187500.02, -187500.02, -187500.02, -173623.78, -187500.02, -187500.02, -0.020, -0.010, 1.032, 14:53:05.322
186, 41585.15, 25386.08, -187500.02, -187500.02, -187500.02, -173522.55, -187500.02, -187500.02, 0.000, 0.000, 0.000, 14:53:05.322
187, 41205.20, 25287.27, -187500.02, -187500.02, -187500.02, -173804.19, -187500.02, -187500.02, 0.000, 0.000, 0.000, 14:53:05.322
188, 41293.04, 25378.19, -187500.02, -187500.02, -187500.02, -173963.11, -187500.02, -187500.02, 0.000, 0.000, 0.000, 14:53:05.323
189, 41534.93, 25459.78, -187500.02, -187500.02, -187500.02, -173884.47, -187500.02, -187500.02, 0.000, 0.000, 0.000, 14:53:05.323
190, 41714.23, 25469.21, -187500.02, -187500.02, -187500.02, -173651.61, -187500.02, -187500.02, 0.000, 0.000, 0.000, 14:53:05.323
191, 41602.92, 25388.36, -187500.02, -187500.02, -187500.02, -173575.73, -187500.02, -187500.02, 0.000, 0.000, 0.000, 14:53:05.323
192, 41218.25, 25300.77, -187500.02, -187500.02, -187500.02, -173854.70, -187500.02, -187500.02, 0.000, 0.000, 0.000, 14:53:05.323
193, 41293.46, 25383.47, -187500.02, -187500.02, -187500.02, -174005.91, -187500.02, -187500.02, 0.000, 0.000, 0.000, 14:53:05.323
194, 41538.77, 25464.87, -187500.02, -187500.02, -187500.02, -173880.19, -187500.02, -187500.02, 0.000, 0.000, 0.000, 14:53:05.323
195, 41713.96, 25472.40, -187500.02, -187500.02, -187500.02, -173631.91, -187500.02, -187500.02, -0.022, -0.010, 1.026, 14:53:05.323
196, 41598.03, 25380.29, -187500.02, -187500.02, -187500.02, -173536.39, -187500.02, -187500.02, 0.000, 0.000, 0.000, 14:53:05.324
197, 41207.12, 25280.85, -187500.02, -187500.02, -187500.02, -173791.63, -187500.02, -187500.02, 0.000, 0.000, 0.000, 14:53:05.324
198, 41301.30, 25370.50, -187500.02, -187500.02, -187500.02, -173962.41, -187500.02, -187500.02, 0.000, 0.000, 0.000, 14:53:05.324
199, 41551.02, 25461.74, -187500.02, -187500.02, -187500.02, -173890.91, -187500.02, -187500.02, 0.000, 0.000, 0.000, 14:53:05.324
200, 41714.12, 25464.65, -187500.02, -187500.02, -187500.02, -173639.16, -187500.02, -187500.02, 0.000, 0.000, 0.000, 14:53:05.324
201, 41600.75, 25379.40, -187500.02, -187500.02, -187500.02, -173562.39, -187500.02, -187500.02, 0.000, 0.000, 0.000, 14:53:05.324
202, 41215.34, 25288.81, -187500.02, -187500.02, -187500.02, -173859.17, -187500.02, -187500.02, 0.000, 0.000, 0.000, 14:53:05.324
203, 41296.10, 25372.69, -187500.02, -187500.02, -187500.02, -174011.20, -187500.02, -187500.02, 0.000, 0.000, 0.000, 14:53:05.324
204, 41544.14, 25449.99, -187500.02, -187500.02, -187500.02, -173908.91, -187500.02, -187500.02, 0.000, 0.000, 0.000, 14:53:05.325
205, 41715.30, 25461.41, -187500.02, -187500.02, -187500.02, -173673.77, -187500.02, -187500.02, -0.020, -0.010, 1.022, 14:53:05.325
206, 41614.72, 25393.28, -187500.02, -187500.02, -187500.02, -173583.44, -187500.02, -187500.02, 0.000, 0.000, 0.000, 14:53:05.325
207, 41224.19, 25293.55, -187500.02, -187500.02, -187500.02, -173858.66, -187500.02, -187500.02, 0.000, 0.000, 0.000, 14:53:05.325
208, 41301.75, 25379.58, -187500.02, -187500.02, -187500.02, -174032.44, -187500.02, -187500.02, 0.000, 0.000, 0.000, 14:53:05.325
209, 41542.08, 25461.03, -187500.02, -187500.02, -187500.02, -173951.84, -187500.02, -187500.02, 0.000, 0.000, 0.000, 14:53:05.325
210, 41714.75, 25470.48, -187500.02, -187500.02, -187500.02, -173748.19, -187500.02, -187500.02, 0.000, 0.000, 0.000, 14:53:05.325
211, 41612.42, 25391.94, -187500.02, -187500.02, -187500.02, -173670.97, -187500.02, -187500.02, 0.000, 0.000, 0.000, 14:53:05.325
212, 41225.54, 25299.94, -187500.02, -187500.02, -187500.02, -173954.70, -187500.02, -187500.02, 0.000, 0.000, 0.000, 14:53:05.325
213, 41304.52, 25387.63, -187500.02, -187500.02, -187500.02, -174081.22, -187500.02, -187500.02, 0.000, 0.000, 0.000, 14:53:05.326
214, 41552.90, 25479.69, -187500.02, -187500.02, -187500.02, -173995.27, -187500.02, -187500.02, 0.000, 0.000, 0.000, 14:53:05.326
215, 41711.50, 25483.31, -187500.02, -187500.02, -187500.02, -173766.86, -187500.02, -187500.02, -0.022, -0.008, 1.026, 14:53:05.326
216, 41612.22, 25399.31, -187500.02, -187500.02, -187500.02, -173706.23, -187500.02, -187500.02, 0.000, 0.000, 0.000, 14:53:05.326
217, 41221.62, 25299.51, -187500.02, -187500.02, -187500.02, -173975.11, -187500.02, -187500.02, 0.000, 0.000, 0.000, 14:53:05.326
218, 41286.62, 25376.40, -187500.02, -187500.02, -187500.02, -174079.09, -187500.02, -187500.02, 0.000, 0.000, 0.000, 14:53:05.326
219, 41544.14, 25473.61, -187500.02, -187500.02, -187500.02, -173994.83, -187500.02, -187500.02, 0.000, 0.000, 0.000, 14:53:05.326
220, 41723.87, 25499.72, -187500.02, -187500.02, -187500.02, -173767.64, -187500.02, -187500.02, 0.000, 0.000, 0.000, 14:53:05.326
221, 41609.02, 25417.40, -187500.02, -187500.02, -187500.02, -173670.48, -187500.02, -187500.02, 0.000, 0.000, 0.000, 14:53:05.327
222, 41214.11, 25312.52, -187500.02, -187500.02, -187500.02, -173922.42, -187500.02, -187500.02, 0.000, 0.000, 0.000, 14:53:05.327
223, 41306.71, 25403.94, -187500.02, -187500.02, -187500.02, -174063.17, -187500.02, -187500.02, 0.000, 0.000, 0.000, 14:53:05.327
224, 41558.26, 25490.11, -187500.02, -187500.02, -187500.02, -173979.47, -187500.02, -187500.02, 0.000, 0.000, 0.000, 14:53:05.327
225, 41729.10, 25498.42, -187500.02, -187500.02, -187500.02, -173750.97, -187500.02, -187500.02, -0.020, -0.006, 1.024, 14:53:05.327
226, 41622.19, 25412.55, -187500.02, -187500.02, -187500.02, -173656.38, -187500.02, -187500.02, 0.000, 0.000, 0.000, 14:53:05.327
227, 41219.97, 25308.61, -187500.02, -187500.02, -187500.02, -173925.91, -187500.02, -187500.02, 0.000, 0.000, 0.000, 14:53:05.327
228, 41289.82, 25386.98, -187500.02, -187500.02, -187500.02, -174079.22, -187500.02, -187500.02, 0.000, 0.000, 0.000, 14:53:05.327
229, 41531.30, 25460.60, -187500.02, -187500.02, -187500.02, -173987.05, -187500.02, -187500.02, 0.000, 0.000, 0.000, 14:53:05.327
230, 41702.74, 25465.03, -187500.02, -187500.02, -187500.02, -173750.52, -187500.02, -187500.02, 0.000, 0.000, 0.000, 14:53:05.328
231, 41614.52, 25395.54, -187500.02, -187500.02, -187500.02, -173666.92, -187500.02, -187500.02, 0.000, 0.000, 0.000, 14:53:05.328
232, 41231.17, 25309.77, -187500.02, -187500.02, -187500.02, -173973.52, -187500.02, -187500.02, 0.000, 0.000, 0.000, 14:53:05.328
233, 41303.36, 25394.51, -187500.02, -187500.02, -187500.02, -174162.19, -187500.02, -187500.02, 0.000, 0.000, 0.000, 14:53:05.328
234, 41553.50, 25483.29, -187500.02, -187500.02, -187500.02, -174096.41, -187500.02, -187500.02, 0.000, 0.000, 0.000, 14:53:05.328
235, 41716.00, 25482.62, -187500.02, -187500.02, -187500.02, -173819.36, -187500.02, -187500.02, -0.026, -0.012, 1.020, 14:53:05.328
236, 41621.20, 25401.35, -187500.02, -187500.02, -187500.02, -173719.67, -187500.02, -187500.02, 0.000, 0.000, 0.000, 14:53:05.328
237, 41223.28, 25297.55, -187500.02, -187500.02, -187500.02, -173989.66, -187500.02, -187500.02, 0.000, 0.000, 0.000, 14:53:05.328
238, 41279.63, 25370.55, -187500.02, -187500.02, -187500.02, -174118.00, -187500.02, -187500.02, 0.000, 0.000, 0.000, 14:53:05.329
239, 41534.48, 25460.16, -187500.02, -187500.02, -187500.02, -174009.86, -187500.02, -187500.02, 0.000, 0.000, 0.000, 14:53:05.329
240, 41715.39, 25476.41, -187500.02, -187500.02, -187500.02, -173798.91, -187500.02, -187500.02, 0.000, 0.000, 0.000, 14:53:05.329
241, 41629.96, 25407.14, -187500.02, -187500.02, -187500.02, -173740.58, -187500.02, -187500.02, 0.000, 0.000, 0.000, 14:53:05.329
242, 41228.53, 25302.80, -187500.02, -187500.02, -187500.02, -174021.58, -187500.02, -187500.02, 0.000, 0.000, 0.000, 14:53:05.806
243, 41292.32, 25381.59, -187500.02, -187500.02, -187500.02, -174143.06, -187500.02, -187500.02, 0.000, 0.000, 0.000, 14:53:05.806
244, 41554.55, 25472.00, -187500.02, -187500.02, -187500.02, -174053.30, -187500.02, -187500.02, 0.000, 0.000, 0.000, 14:53:05.806
245, 41733.54, 25478.57, -187500.02, -187500.02, -187500.02, -173820.69, -187500.02, -187500.02, -0.022, -0.018, 1.020, 14:53:05.806
246, 41633.36, 25403.16, -187500.02, -187500.02, -187500.02, -173766.20, -187500.02, -187500.02, 0.000, 0.000, 0.000, 14:53:05.806
247, 41226.09, 25293.48, -187500.02, -187500.02, -187500.02, -174015.98, -187500.02, -187500.02, 0.000, 0.000, 0.000, 14:53:05.806
248, 41301.93, 25373.99, -187500.02, -187500.02, -187500.02, -174181.03, -187500.02, -187500.02, 0.000, 0.000, 0.000, 14:53:05.806
249, 41542.82, 25454.26, -187500.02, -187500.02, -187500.02, -174107.03, -187500.02, -187500.02, 0.000, 0.000, 0.000, 14:53:05.806
250, 41700.62, 25464.18, -187500.02, -187500.02, -187500.02, -173862.02, -187500.02, -187500.02, 0.000, 0.000, 0.000, 14:53:05.807
251, 41592.10, 25377.14, -187500.02, -187500.02, -187500.02, -173759.42, -187500.02, -187500.02, 0.000, 0.000, 0.000, 14:53:05.807
252, 41210.91, 25287.60, -187500.02, -187500.02, -187500.02, -174014.25, -187500.02, -187500.02, 0.000, 0.000, 0.000, 14:53:05.807
253, 41275.87, 25360.09, -187500.02, -187500.02, -187500.02, -174143.58, -187500.02, -187500.02, 0.000, 0.000, 0.000, 14:53:05.807
254, 41527.55, 25451.01, -187500.02, -187500.02, -187500.02, -174088.92, -187500.02, -187500.02, 0.000, 0.000, 0.000, 14:53:05.807
255, 41696.53, 25461.50, -187500.02, -187500.02, -187500.02, -173851.13, -187500.02, -187500.02, -0.020, -0.010, 1.026, 14:53:05.807
0, 41602.09, 25379.69, -187500.02, -187500.02, -187500.02, -173728.75, -187500.02, -187500.02, 0.000, 0.000, 0.000, 14:53:05.808
1, 41222.92, 25293.52, -187500.02, -187500.02, -187500.02, -174025.58, -187500.02, -187500.02, 0.000, 0.000, 0.000, 14:53:05.808
2, 41299.92, 25389.93, -187500.02, -187500.02, -187500.02, -174224.38, -187500.02, -187500.02, 0.000, 0.000, 0.000, 14:53:05.808
3, 41533.86, 25466.10, -187500.02, -187500.02, -187500.02, -174151.47, -187500.02, -187500.02, 0.000, 0.000, 0.000, 14:53:05.808
4, 41706.75, 25478.55, -187500.02, -187500.02, -187500.02, -173886.84, -187500.02, -187500.02, 0.000, 0.000, 0.000, 14:53:05.808
5, 41617.83, 25402.27, -187500.02, -187500.02, -187500.02, -173788.94, -187500.02, -187500.02, 0.000, 0.000, 0.000, 14:53:05.808
6, 41219.99, 25299.98, -187500.02, -187500.02, -187500.02, -174054.50, -187500.02, -187500.02, 0.000, 0.000, 0.000, 14:53:05.809
7, 41272.23, 25369.32, -187500.02, -187500.02, -187500.02, -174162.34, -187500.02, -187500.02, 0.000, 0.000, 0.000, 14:53:05.809
8, 41527.33, 25468.18, -187500.02, -187500.02, -187500.02, -174070.89, -187500.02, -187500.02, 0.000, 0.000, 0.000, 14:53:05.809
9, 41713.90, 25488.65, -187500.02, -187500.02, -187500.02, -173835.97, -187500.02, -187500.02, -0.024, -0.010, 1.032, 14:53:05.809
10, 41630.66, 25410.51, -187500.02, -187500.02, -187500.02, -173721.27, -187500.02, -187500.02, 0.000, 0.000, 0.000, 14:53:05.809
11, 41228.66, 25304.65, -187500.02, -187500.02, -187500.02, -173998.52, -187500.02, -187500.02, 0.000, 0.000, 0.000, 14:53:05.809
12, 41292.37, 25383.65, -187500.02, -187500.02, -187500.02, -174164.81, -187500.02, -187500.02, 0.000, 0.000, 0.000, 14:53:05.810
13, 41541.74, 25467.53, -187500.02, -187500.02, -187500.02, -174085.45, -187500.02, -187500.02, 0.000, 0.000, 0.000, 14:53:05.810
14, 41718.97, 25481.93, -187500.02, -187500.02, -187500.02, -173884.08, -187500.02, -187500.02, 0.000, 0.000, 0.000, 14:53:05.810
15, 41630.82, 25400.81, -187500.02, -187500.02, -187500.02, -173765.39, -187500.02, -187500.02, 0.000, 0.000, 0.000, 14:53:05.810
16, 41227.79, 25291.54, -187500.02, -187500.02, -187500.02, -174047.84, -187500.02, -187500.02, 0.000, 0.000, 0.000, 14:53:05.810
17, 41288.99, 25371.20, -187500.02, -187500.02, -187500.02, -174236.02, -187500.02, -187500.02, 0.000, 0.000, 0.000, 14:53:05.810
18, 41534.37, 25460.45, -187500.02, -187500.02, -187500.02, -174175.16, -187500.02, -187500.02, 0.000, 0.000, 0.000, 14:53:05.810
19, 41700.60, 25464.54, -187500.02, -187500.02, -187500.02, -173932.58, -187500.02, -187500.02, -0.020, -0.012, 1.026, 14:53:05.810
20, 41610.57, 25384.52, -187500.02, -187500.02, -187500.02, -173812.50, -187500.02, -187500.02, 0.000, 0.000, 0.000, 14:53:05.811
21, 41235.14, 25302.71, -187500.02, -187500.02, -187500.02, -174125.81, -187500.02, -187500.02, 0.000, 0.000, 0.000, 14:53:05.811
22, 41296.55, 25378.66, -187500.02, -187500.02, -187500.02, -174300.63, -187500.02, -187500.02, 0.000, 0.000, 0.000, 14:53:05.811
23, 41545.72, 25465.54, -187500.02, -187500.02, -187500.02, -174228.20, -187500.02, -187500.02, 0.000, 0.000, 0.000, 14:53:05.811
24, 41715.95, 25480.29, -187500.02, -187500.02, -187500.02, -173992.05, -187500.02, -187500.02, 0.000, 0.000, 0.000, 14:53:05.811
25, 41624.20, 25396.68, -187500.02, -187500.02, -187500.02, -173896.81, -187500.02, -187500.02, 0.000, 0.000, 0.000, 14:53:05.811
26, 41228.44, 25290.35, -187500.02, -187500.02, -187500.02, -174160.00, -187500.02, -187500.02, 0.000, 0.000, 0.000, 14:53:05.811
27, 41287.83, 25365.41, -187500.02, -187500.02, -187500.02, -174271.20, -187500.02, -187500.02, 0.000, 0.000, 0.000, 14:53:05.812
28, 41553.14, 25466.77, -187500.02, -187500.02, -187500.02, -174188.28, -187500.02, -187500.02, 0.000, 0.000, 0.000, 14:53:05.812
29, 41721.34, 25480.94, -187500.02, -187500.02, -187500.02, -173974.06, -187500.02, -187500.02, -0.018, -0.006, 1.026, 14:53:05.812
30, 41644.34, 25408.52, -187500.02, -187500.02, -187500.02, -173882.86, -187500.02, -187500.02, 0.000, 0.000, 0.000, 14:53:05.812
31, 41249.65, 25309.82, -187500.02, -187500.02, -187500.02, -174127.69, -187500.02, -187500.02, 0.000, 0.000, 0.000, 14:53:05.812
32, 41316.93, 25389.57, -187500.02, -187500.02, -187500.02, -174303.91, -187500.02, -187500.02, 0.000, 0.000, 0.000, 14:53:05.812
33, 41560.47, 25483.74, -187500.02, -187500.02, -187500.02, -174229.58, -187500.02, -187500.02, 0.000, 0.000, 0.000, 14:53:05.813
34, 41732.80, 25503.47, -187500.02, -187500.02, -187500.02, -173976.25, -187500.02, -187500.02, 0.000, 0.000, 0.000, 14:53:05.813
35, 41646.84, 25421.24, -187500.02, -187500.02, -187500.02, -173856.63, -187500.02, -187500.02, 0.000, 0.000, 0.000, 14:53:05.813
36, 41248.87, 25318.13, -187500.02, -187500.02, -187500.02, -174114.41, -187500.02, -187500.02, 0.000, 0.000, 0.000, 14:53:05.813
37, 41293.08, 25385.68, -187500.02, -187500.02, -187500.02, -174247.36, -187500.02, -187500.02, 0.000, 0.000, 0.000, 14:53:05.813
38, 41543.71, 25470.57, -187500.02, -187500.02, -187500.02, -174185.59, -187500.02, -187500.02, -0.020, -0.010, 1.028, 14:53:05.813
39, 41710.70, 25481.35, -187500.02, -187500.02, -187500.02, -173978.44, -187500.02, -187500.02, 0.000, 0.000, 0.000, 14:53:05.814
40, 41630.55, 25403.14, -187500.02, -187500.02, -187500.02, -173912.14, -187500.02, -187500.02, 0.000, 0.000, 0.000, 14:53:05.814
41, 41233.89, 25296.25, -187500.02, -187500.02, -187500.02, -174180.34, -187500.02, -187500.02, 0.000, 0.000, 0.000, 14:53:05.814
42, 41295.38, 25379.58, -187500.02, -187500.02, -187500.02, -174344.97, -187500.02, -187500.02, 0.000, 0.000, 0.000, 14:53:05.814
43, 41541.36, 25467.35, -187500.02, -187500.02, -187500.02, -174241.16, -187500.02, -187500.02, 0.000, 0.000, 0.000, 14:53:05.814
44, 41718.05, 25478.98, -187500.02, -187500.02, -187500.02, -173984.67, -187500.02, -187500.02, 0.000, 0.000, 0.000, 14:53:05.814
45, 41643.06, 25409.53, -187500.02, -187500.02, -187500.02, -173886.81, -187500.02, -187500.02, 0.000, 0.000, 0.000, 14:53:05.815
46, 41241.14, 25311.65, -187500.02, -187500.02, -187500.02, -174197.44, -187500.02, -187500.02, 0.000, 0.000, 0.000, 14:53:05.815
47, 41294.02, 25382.66, -187500.02, -187500.02, -187500.02, -174382.73, -187500.02, -187500.02, 0.000, 0.000, 0.000, 14:53:05.815
48, 41545.27, 25470.75, -187500.02, -187500.02, -187500.02, -174302.36, -187500.02, -187500.02, -0.022, -0.010, 1.024, 14:53:05.815
49, 41717.12, 25491.00, -187500.02, -187500.02, -187500.02, -174046.30, -187500.02, -187500.02, 0.000, 0.000, 0.000, 14:53:05.815
50, 41647.82, 25421.17, -187500.02, -187500.02, -187500.02, -173953.86, -187500.02, -187500.02, 0.000, 0.000, 0.000, 14:53:05.815
51, 41248.09, 25313.93, -187500.02, -187500.02, -187500.02, -174238.09, -187500.02, -187500.02, 0.000, 0.000, 0.000, 14:53:05.815
52, 41310.00, 25393.99, -187500.02, -187500.02, -187500.02, -174379.41, -187500.02, -187500.02, 0.000, 0.000, 0.000, 14:53:05.815
53, 41570.93, 25493.93, -187500.02, -187500.02, -187500.02, -174326.33, -187500.02, -187500.02, 0.000, 0.000, 0.000, 14:53:05.816
54, 41736.38, 25501.17, -187500.02, -187500.02, -187500.02, -174060.97, -187500.02, -187500.02, 0.000, 0.000, 0.000, 14:53:05.816
55, 41664.57, 25425.40, -187500.02, -187500.02, -187500.02, -173899.63, -187500.02, -187500.02, 0.000, 0.000, 0.000, 14:53:05.816
56, 41272.18, 25323.03, -187500.02, -187500.02, -187500.02, -174145.98, -187500.02, -187500.02, 0.000, 0.000, 0.000, 14:53:05.816
57, 41319.79, 25391.51, -187500.02, -187500.02, -187500.02, -174279.03, -187500.02, -187500.02, 0.000, 0.000, 0.000, 14:53:05.816
58, 41569.75, 25483.92, -187500.02, -187500.02, -187500.02, -174212.64, -187500.02, -187500.02, -0.026, -0.012, 1.026, 14:53:05.816
59, 41751.14, 25497.93, -187500.02, -187500.02, -187500.02, -174000.45, -187500.02, -187500.02, 0.000, 0.000, 0.000, 14:53:05.816
60, 41672.90, 25416.28, -187500.02, -187500.02, -187500.02, -173923.64, -187500.02, -187500.02, 0.000, 0.000, 0.000, 14:53:05.816
61, 41257.03, 25305.79, -187500.02, -187500.02, -187500.02, -174193.94, -187500.02, -187500.02, 0.000, 0.000, 0.000, 14:53:05.817
62, 41310.80, 25391.31, -187500.02, -187500.02, -187500.02, -174348.42, -187500.02, -187500.02, 0.000, 0.000, 0.000, 14:53:05.817
63, 41571.43, 25489.66, -187500.02, -187500.02, -187500.02, -174262.67, -187500.02, -187500.02, 0.000, 0.000, 0.000, 14:53:05.817
64, 41743.51, 25500.05, -187500.02, -187500.02, -187500.02, -174045.47, -187500.02, -187500.02, 0.000, 0.000, 0.000, 14:53:05.817
65, 41663.07, 25416.19, -187500.02, -187500.02, -187500.02, -173934.05, -187500.02, -187500.02, 0.000, 0.000, 0.000, 14:53:05.817
66, 41253.43, 25299.00, -187500.02, -187500.02, -187500.02, -174176.80, -187500.02, -187500.02, 0.000, 0.000, 0.000, 14:53:05.817
67, 41300.88, 25372.67, -187500.02, -187500.02, -187500.02, -174344.50, -187500.02, -187500.02, 0.000, 0.000, 0.000, 14:53:05.817
68, 41555.80, 25473.03, -187500.02, -187500.02, -187500.02, -174254.50, -187500.02, -187500.02, -0.018, -0.008, 1.026, 14:53:05.818
69, 41727.42, 25488.72, -187500.02, -187500.02, -187500.02, -174009.64, -187500.02, -187500.02, 0.000, 0.000, 0.000, 14:53:05.818
70, 41665.24, 25428.15, -187500.02, -187500.02, -187500.02, -173897.77, -187500.02, -187500.02, 0.000, 0.000, 0.000, 14:53:05.818
71, 41288.03, 25345.87, -187500.02, -187500.02, -187500.02, -174224.67, -187500.02, -187500.02, 0.000, 0.000, 0.000, 14:53:05.818
72, 41336.89, 25420.30, -187500.02, -187500.02, -187500.02, -174417.73, -187500.02, -187500.02, 0.000, 0.000, 0.000, 14:53:05.818
73, 41570.45, 25492.52, -187500.02, -187500.02, -187500.02, -174337.59, -187500.02, -187500.02, 0.000, 0.000, 0.000, 14:53:05.818
74, 41745.19, 25506.71, -187500.02, -187500.02, -187500.02, -174119.06, -187500.02, -187500.02, 0.000, 0.000, 0.000, 14:53:05.818
75, 41690.65, 25440.91, -187500.02, -187500.02, -187500.02, -174031.03, -187500.02, -187500.02, 0.000, 0.000, 0.000, 14:53:05.818
76, 41291.58, 25334.45, -187500.02, -187500.02, -187500.02, -174276.55, -187500.02, -187500.02, 0.000, 0.000, 0.000, 14:53:05.819
77, 41331.13, 25403.38, -187500.02, -187500.02, -187500.02, -174394.11, -187500.02, -187500.02, 0.000, 0.000, 0.000, 14:53:05.819
78, 41589.53, 25498.58, -187500.02, -187500.02, -187500.02, -174324.02, -187500.02, -187500.02, -0.016, -0.006, 1.030, 14:53:05.819
79, 41760.30, 25510.36, -187500.02, -187500.02, -187500.02, -174107.30, -187500.02, -187500.02, 0.000, 0.000, 0.000, 14:53:05.819
80, 41682.14, 25427.99, -187500.02, -187500.02, -187500.02, -173983.63, -187500.02, -187500.02, 0.000, 0.000, 0.000, 14:53:05.819
81, 41284.81, 25327.97, -187500.02, -187500.02, -187500.02, -174247.33, -187500.02, -187500.02, 0.000, 0.000, 0.000, 14:53:05.819
82, 41338.52, 25407.96, -187500.02, -187500.02, -187500.02, -174447.09, -187500.02, -187500.02, 0.000, 0.000, 0.000, 14:53:05.819
83, 41584.12, 25489.21, -187500.02, -187500.02, -187500.02, -174384.84, -187500.02, -187500.02, 0.000, 0.000, 0.000, 14:53:05.819
84, 41740.23, 25486.62, -187500.02, -187500.02, -187500.02, -174139.69, -187500.02, -187500.02, 0.000, 0.000, 0.000, 14:53:05.819
85, 41654.35, 25399.63, -187500.02, -187500.02, -187500.02, -173997.70, -187500.02, -187500.02, 0.000, 0.000, 0.000, 14:53:05.820
86, 41259.38, 25304.25, -187500.02, -187500.02, -187500.02, -174252.05, -187500.02, -187500.02, 0.000, 0.000, 0.000, 14:53:05.820
87, 41315.70, 25384.83, -187500.02, -187500.02, -187500.02, -174406.39, -187500.02, -187500.02, 0.000, 0.000, 0.000, 14:53:05.820
88, 41574.76, 25478.51, -187500.02, -187500.02, -187500.02, -174350.33, -187500.02, -187500.02, -0.018, -0.008, 1.028, 14:53:05.820
89, 41737.39, 25483.22, -187500.02, -187500.02, -187500.02, -174112.08, -187500.02, -187500.02, 0.000, 0.000, 0.000, 14:53:05.820
90, 41659.87, 25407.21, -187500.02, -187500.02, -187500.02, -174014.84, -187500.02, -187500.02, 0.000, 0.000, 0.000, 14:53:05.820
91, 41255.30, 25293.66, -187500.02, -187500.02, -187500.02, -174292.48, -187500.02, -187500.02, 0.000, 0.000, 0.000, 14:53:05.820
92, 41295.59, 25363.69, -187500.02, -187500.02, -187500.02, -174439.88, -187500.02, -187500.02, 0.000, 0.000, 0.000, 14:53:05.820
93, 41567.18, 25466.88, -187500.02, -187500.02, -187500.02, -174359.20, -187500.02, -187500.02, 0.000, 0.000, 0.000, 14:53:05.821
94, 41751.67, 25492.41, -187500.02, -187500.02, -187500.02, -174152.30, -187500.02, -187500.02, 0.000, 0.000, 0.000, 14:53:05.821
95, 41693.85, 25428.10, -187500.02, -187500.02, -187500.02, -174025.63, -187500.02, -187500.02, 0.000, 0.000, 0.000, 14:53:05.821
96, 41304.82, 25328.33, -187500.02, -187500.02, -187500.02, -174305.92, -187500.02, -187500.02, 0.000, 0.000, 0.000, 14:53:05.821
97, 41346.84, 25403.16, -187500.02, -187500.02, -187500.02, -174501.41, -187500.02, -187500.02, 0.000, 0.000, 0.000, 14:53:05.821
98, 41595.90, 25490.55, -187500.02, -187500.02, -187500.02, -174459.98, -187500.02, -187500.02, -0.022, -0.010, 1.024, 14:53:05.821
99, 41763.09, 25496.23, -187500.02, -187500.02, -187500.02, -174214.67, -187500.02, -187500.02, 0.000, 0.000, 0.000, 14:53:05.821
100, 41694.27, 25418.87, -187500.02, -187500.02, -187500.02, -174065.36, -187500.02, -187500.02, 0.000, 0.000, 0.000, 14:53:05.821
101, 41290.15, 25311.09, -187500.02, -187500.02, -187500.02, -174323.06, -187500.02, -187500.02, 0.000, 0.000, 0.000, 14:53:05.821
102, 41331.48, 25383.33, -187500.02, -187500.02, -187500.02, -174480.48, -187500.02, -187500.02, 0.000, 0.000, 0.000, 14:53:05.822
103, 41579.79, 25475.24, -187500.02, -187500.02, -187500.02, -174401.92, -187500.02, -187500.02, 0.000, 0.000, 0.000, 14:53:05.822
104, 41749.97, 25486.40, -187500.02, -187500.02, -187500.02, -174170.78, -187500.02, -187500.02, 0.000, 0.000, 0.000, 14:53:05.822
105, 41689.24, 25404.90, -187500.02, -187500.02, -187500.02, -174056.20, -187500.02, -187500.02, 0.000, 0.000, 0.000, 14:53:05.822
106, 41291.20, 25300.52, -187500.02, -187500.02, -187500.02, -174302.39, -187500.02, -187500.02, 0.000, 0.000, 0.000, 14:53:06.286
107, 41327.64, 25372.89, -187500.02, -187500.02, -187500.02, -174472.14, -187500.02, -187500.02, 0.000, 0.000, 0.000, 14:53:06.286
108, 41579.03, 25465.52, -187500.02, -187500.02, -187500.02, -174415.13, -187500.02, -187500.02, -0.014, -0.014, 1.022, 14:53:06.286
109, 41736.23, 25467.49, -187500.02, -187500.02, -187500.02, -174178.31, -187500.02, -187500.02, 0.000, 0.000, 0.000, 14:53:06.286
110, 41675.47, 25395.34, -187500.02, -187500.02, -187500.02, -174058.02, -187500.02, -187500.02, 0.000, 0.000, 0.000, 14:53:06.287
111, 41274.75, 25286.62, -187500.02, -187500.02, -187500.02, -174342.17, -187500.02, -187500.02, 0.000, 0.000, 0.000, 14:53:06.287
112, 41318.05, 25365.59, -187500.02, -187500.02, -187500.02, -174501.00, -187500.02, -187500.02, 0.000, 0.000, 0.000, 14:53:06.287
113, 41573.62, 25463.53, -187500.02, -187500.02, -187500.02, -174426.28, -187500.02, -187500.02, 0.000, 0.000, 0.000, 14:53:06.287
114, 41731.64, 25468.72, -187500.02, -187500.02, -187500.02, -174153.80, -187500.02, -187500.02, 0.000, 0.000, 0.000, 14:53:06.287
115, 41676.01, 25403.90, -187500.02, -187500.02, -187500.02, -174026.67, -187500.02, -187500.02, 0.000, 0.000, 0.000, 14:53:06.287
116, 41294.60, 25313.42, -187500.02, -187500.02, -187500.02, -174326.72, -187500.02, -187500.02, 0.000, 0.000, 0.000, 14:53:06.287
117, 41329.58, 25385.28, -187500.02, -187500.02, -187500.02, -174521.81, -187500.02, -187500.02, 0.000, 0.000, 0.000, 14:53:06.287
118, 41563.31, 25465.41, -187500.02, -187500.02, -187500.02, -174445.34, -187500.02, -187500.02, -0.014, -0.010, 1.024, 14:53:06.288
119, 41746.02, 25487.43, -187500.02, -187500.02, -187500.02, -174202.36, -187500.02, -187500.02, 0.000, 0.000, 0.000, 14:53:06.288
120, 41694.65, 25424.84, -187500.02, -187500.02, -187500.02, -174084.36, -187500.02, -187500.02, 0.000, 0.000, 0.000, 14:53:06.288
121, 41289.66, 25313.26, -187500.02, -187500.02, -187500.02, -174352.70, -187500.02, -187500.02, 0.000, 0.000, 0.000, 14:53:06.288
122, 41315.86, 25375.51, -187500.02, -187500.02, -187500.02, -174526.66, -187500.02, -187500.02, 0.000, 0.000, 0.000, 14:53:06.288
123, 41567.18, 25469.83, -187500.02, -187500.02, -187500.02, -174442.22, -187500.02, -187500.02, 0.000, 0.000, 0.000, 14:53:06.288
124, 41741.46, 25485.53, -187500.02, -187500.02, -187500.02, -174224.72, -187500.02, -187500.02, 0.000, 0.000, 0.000, 14:53:06.288
125, 41685.18, 25419.52, -187500.02, -187500.02, -187500.02, -174102.06, -187500.02, -187500.02, 0.000, 0.000, 0.000, 14:53:06.288
126, 41287.00, 25304.65, -187500.02, -187500.02, -187500.02, -174351.73, -187500.02, -187500.02, 0.000, 0.000, 0.000, 14:53:06.289
127, 41321.22, 25368.85, -187500.02, -187500.02, -187500.02, -174508.91, -187500.02, -187500.02, 0.000, 0.000, 0.000, 14:53:06.289
128, 41572.88, 25460.49, -187500.02, -187500.02, -187500.02, -174450.63, -187500.02, -187500.02, -0.016, -0.010, 1.020, 14:53:06.289
129, 41744.30, 25478.98, -187500.02, -187500.02, -187500.02, -174220.42, -187500.02, -187500.02, 0.000, 0.000, 0.000, 14:53:06.289
130, 41685.87, 25408.66, -187500.02, -187500.02, -187500.02, -174064.89, -187500.02, -187500.02, 0.000, 0.000, 0.000, 14:53:06.289
131, 41278.84, 25299.47, -187500.02, -187500.02, -187500.02, -174346.97, -187500.02, -187500.02, 0.000, 0.000, 0.000, 14:53:06.289
132, 41302.96, 25358.23, -187500.02, -187500.02, -187500.02, -174519.70, -187500.02, -187500.02, 0.000, 0.000, 0.000, 14:53:06.289
133, 41562.57, 25454.28, -187500.02, -187500.02, -187500.02, -174474.63, -187500.02, -187500.02, 0.000, 0.000, 0.000, 14:53:06.289
134, 41739.58, 25467.69, -187500.02, -187500.02, -187500.02, -174236.02, -187500.02, -187500.02, 0.000, 0.000, 0.000, 14:53:06.289
135, 41685.42, 25397.91, -187500.02, -187500.02, -187500.02, -174110.86, -187500.02, -187500.02, 0.000, 0.000, 0.000, 14:53:06.290
136, 41284.92, 25286.84, -187500.02, -187500.02, -187500.02, -174381.47, -187500.02, -187500.02, 0.000, 0.000, 0.000, 14:53:06.290
137, 41311.75, 25356.89, -187500.02, -187500.02, -187500.02, -174550.44, -187500.02, -187500.02, 0.000, 0.000, 0.000, 14:53:06.290
138, 41568.10, 25456.31, -187500.02, -187500.02, -187500.02, -174481.75, -187500.02, -187500.02, -0.018, -0.014, 1.024, 14:53:06.290
139, 41747.09, 25477.41, -187500.02, -187500.02, -187500.02, -174276.52, -187500.02, -187500.02, 0.000, 0.000, 0.000, 14:53:06.290
140, 41693.51, 25405.73, -187500.02, -187500.02, -187500.02, -174107.81, -187500.02, -187500.02, 0.000, 0.000, 0.000, 14:53:06.290
141, 41300.70, 25302.73, -187500.02, -187500.02, -187500.02, -174374.02, -187500.02, -187500.02, 0.000, 0.000, 0.000, 14:53:06.290
142, 41340.06, 25380.38, -187500.02, -187500.02, -187500.02, -174606.66, -187500.02, -187500.02, 0.000, 0.000, 0.000, 14:53:06.290
143, 41584.55, 25466.19, -187500.02, -187500.02, -187500.02, -174518.33, -187500.02, -187500.02, 0.000, 0.000, 0.000, 14:53:06.291
144, 41749.46, 25478.51, -187500.02, -187500.02, -187500.02, -174270.59, -187500.02, -187500.02, 0.000, 0.000, 0.000, 14:53:06.291
145, 41707.28, 25411.25, -187500.02, -187500.02, -187500.02, -174147.06, -187500.02, -187500.02, 0.000, 0.000, 0.000, 14:53:06.291
146, 41297.77, 25296.54, -187500.02, -187500.02, -187500.02, -174405.50, -187500.02, -187500.02, 0.000, 0.000, 0.000, 14:53:06.291
147, 41316.37, 25361.23, -187500.02, -187500.02, -187500.02, -174553.13, -187500.02, -187500.02, 0.000, 0.000, 0.000, 14:53:06.291
148, 41573.24, 25458.68, -187500.02, -187500.02, -187500.02, -174482.31, -187500.02, -187500.02, -0.022, -0.016, 1.028, 14:53:06.291
149, 41755.47, 25476.74, -187500.02, -187500.02, -187500.02, -174267.06, -187500.02, -187500.02, 0.000, 0.000, 0.000, 14:53:06.292
150, 41709.96, 25413.89, -187500.02, -187500.02, -187500.02, -174147.48, -187500.02, -187500.02, 0.000, 0.000, 0.000, 14:53:06.292
151, 41299.00, 25300.56, -187500.02, -187500.02, -187500.02, -174400.98, -187500.02, -187500.02, 0.000, 0.000, 0.000, 14:53:06.292
152, 41322.32, 25362.77, -187500.02, -187500.02, -187500.02, -174556.30, -187500.02, -187500.02, 0.000, 0.000, 0.000, 14:53:06.292
153, 41585.00, 25464.71, -187500.02, -187500.02, -187500.02, -174517.00, -187500.02, -187500.02, 0.000, 0.000, 0.000, 14:53:06.292
154, 41755.85, 25475.42, -187500.02, -187500.02, -187500.02, -174287.09, -187500.02, -187500.02, 0.000, 0.000, 0.000, 14:53:06.292
155, 41697.02, 25398.49, -187500.02, -187500.02, -187500.02, -174162.22, -187500.02, -187500.02, 0.000, 0.000, 0.000, 14:53:06.292
156, 41296.66, 25295.22, -187500.02, -187500.02, -187500.02, -174437.52, -187500.02, -187500.02, 0.000, 0.000, 0.000, 14:53:06.292
157, 41335.50, 25369.52, -187500.02, -187500.02, -187500.02, -174621.36, -187500.02, -187500.02, 0.000, 0.000, 0.000, 14:53:06.293
158, 41579.74, 25458.88, -187500.02, -187500.02, -187500.02, -174532.63, -187500.02, -187500.02, -0.024, -0.012, 1.032, 14:53:06.293
159, 41739.89, 25465.59, -187500.02, -187500.02, -187500.02, -174281.22, -187500.02, -187500.02, 0.000, 0.000, 0.000, 14:53:06.293
160, 41689.29, 25397.82, -187500.02, -187500.02, -187500.02, -174115.92, -187500.02, -187500.02, 0.000, 0.000, 0.000, 14:53:06.293
161, 41305.60, 25304.77, -187500.02, -187500.02, -187500.02, -174449.70, -187500.02, -187500.02, 0.000, 0.000, 0.000, 14:53:06.293
162, 41344.56, 25380.38, -187500.02, -187500.02, -187500.02, -174685.16, -187500.02, -187500.02, 0.000, 0.000, 0.000, 14:53:06.293
163, 41601.54, 25473.77, -187500.02, -187500.02, -187500.02, -174606.66, -187500.02, -187500.02, 0.000, 0.000, 0.000, 14:53:06.294
164, 41767.18, 25488.12, -187500.02, -187500.02, -187500.02, -174366.84, -187500.02, -187500.02, 0.000, 0.000, 0.000, 14:53:06.294
165, 41725.23, 25427.43, -187500.02, -187500.02, -187500.02, -174251.47, -187500.02, -187500.02, 0.000, 0.000, 0.000, 14:53:06.294
166, 41314.14, 25301.93, -187500.02, -187500.02, -187500.02, -174495.23, -187500.02, -187500.02, 0.000, 0.000, 0.000, 14:53:06.294
167, 41317.94, 25360.65, -187500.02, -187500.02, -187500.02, -174627.16, -187500.02, -187500.02, 0.000, 0.000, 0.000, 14:53:06.294
168, 41588.50, 25471.33, -187500.02, -187500.02, -187500.02, -174567.36, -187500.02, -187500.02, -0.026, -0.008, 1.022, 14:53:06.294
169, 41767.03, 25485.62, -187500.02, -187500.02, -187500.02, -174355.30, -187500.02, -187500.02, 0.000, 0.000, 0.000, 14:53:06.295
170, 41724.60, 25418.67, -187500.02, -187500.02, -187500.02, -174230.67, -187500.02, -187500.02, 0.000, 0.000, 0.000, 14:53:06.295
171, 41306.27, 25297.88, -187500.02, -187500.02, -187500.02, -174491.53, -187500.02, -187500.02, 0.000, 0.000, 0.000, 14:53:06.295
172, 41313.98, 25358.03, -187500.02, -187500.02, -187500.02, -174676.50, -187500.02, -187500.02, 0.000, 0.000, 0.000, 14:53:06.295
173, 41567.38, 25452.91, -187500.02, -187500.02, -187500.02, -174601.63, -187500.02, -187500.02, 0.000, 0.000, 0.000, 14:53:06.295
174, 41748.90, 25471.22, -187500.02, -187500.02, -187500.02, -174370.94, -187500.02, -187500.02, 0.000, 0.000, 0.000, 14:53:06.296
175, 41715.53, 25405.37, -187500.02, -187500.02, -187500.02, -174248.11, -187500.02, -187500.02, 0.000, 0.000, 0.000, 14:53:06.296
176, 41300.41, 25289.17, -187500.02, -187500.02, -187500.02, -174487.75, -187500.02, -187500.02, 0.000, 0.000, 0.000, 14:53:06.296
177, 41313.71, 25354.37, -187500.02, -187500.02, -187500.02, -174635.72, -187500.02, -187500.02, -0.022, -0.008, 1.018, 14:53:06.296
178, 41577.30, 25453.03, -187500.02, -187500.02, -187500.02, -174554.58, -187500.02, -187500.02, 0.000, 0.000, 0.000, 14:53:06.296
179, 41753.21, 25474.08, -187500.02, -187500.02, -187500.02, -174336.58, -187500.02, -187500.02, 0.000, 0.000, 0.000, 14:53:06.296
180, 41711.30, 25404.16, -187500.02, -187500.02, -187500.02, -174178.52, -187500.02, -187500.02, 0.000, 0.000, 0.000, 14:53:06.297
181, 41308.10, 25288.85, -187500.02, -187500.02, -187500.02, -174430.95, -187500.02, -187500.02, 0.000, 0.000, 0.000, 14:53:06.297
182, 41311.97, 25351.73, -187500.02, -187500.02, -187500.02, -174631.53, -187500.02, -187500.02, 0.000, 0.000, 0.000, 14:53:06.297
183, 41576.50, 25452.73, -187500.02, -187500.02, -187500.02, -174548.81, -187500.02, -187500.02, 0.000, 0.000, 0.000, 14:53:06.297
184, 41766.65, 25475.80, -187500.02, -187500.02, -187500.02, -174335.55, -187500.02, -187500.02, 0.000, 0.000, 0.000, 14:53:06.297
185, 41731.02, 25417.93, -187500.02, -187500.02, -187500.02, -174235.44, -187500.02, -187500.02, 0.000, 0.000, 0.000, 14:53:06.298
186, 41326.41, 25307.56, -187500.02, -187500.02, -187500.02, -174480.42, -187500.02, -187500.02, 0.000, 0.000, 0.000, 14:53:06.298
187, 41336.93, 25364.94, -187500.02, -187500.02, -187500.02, -174655.97, -187500.02, -187500.02, -0.024, -0.012, 1.028, 14:53:06.298
188, 41589.35, 25456.94, -187500.02, -187500.02, -187500.02, -174595.55, -187500.02, -187500.02, 0.000, 0.000, 0.000, 14:53:06.298
189, 41761.53, 25476.94, -187500.02, -187500.02, -187500.02, -174414.17, -187500.02, -187500.02, 0.000, 0.000, 0.000, 14:53:06.298
190, 41717.65, 25414.67, -187500.02, -187500.02, -187500.02, -174272.80, -187500.02, -187500.02, 0.000, 0.000, 0.000, 14:53:06.299
191, 41305.89, 25297.90, -187500.02, -187500.02, -187500.02, -174516.25, -187500.02, -187500.02, 0.000, 0.000, 0.000, 14:53:06.299
192, 41318.96, 25367.46, -187500.02, -187500.02, -187500.02, -174677.02, -187500.02, -187500.02, 0.000, 0.000, 0.000, 14:53:06.299
193, 41578.60, 25469.34, -187500.02, -187500.02, -187500.02, -174603.91, -187500.02, -187500.02, 0.000, 0.000, 0.000, 14:53:06.299
194, 41749.14, 25476.27, -187500.02, -187500.02, -187500.02, -174387.77, -187500.02, -187500.02, 0.000, 0.000, 0.000, 14:53:06.299
195, 41709.74, 25406.80, -187500.02, -187500.02, -187500.02, -174248.20, -187500.02, -187500.02, 0.000, 0.000, 0.000, 14:53:06.299
196, 41301.73, 25296.12, -187500.02, -187500.02, -187500.02, -174485.69, -187500.02, -187500.02, 0.000, 0.000, 0.000, 14:53:06.300
197, 41307.65, 25357.70, -187500.02, -187500.02, -187500.02, -174648.52, -187500.02, -187500.02, -0.022, -0.010, 1.032, 14:53:06.300
198, 41573.04, 25460.85, -187500.02, -187500.02, -187500.02, -174597.03, -187500.02, -187500.02, 0.000, 0.000, 0.000, 14:53:06.300
199, 41753.06, 25485.41, -187500.02, -187500.02, -187500.02, -174412.58, -187500.02, -187500.02, 0.000, 0.000, 0.000, 14:53:06.300
200, 41717.36, 25417.91, -187500.02, -187500.02, -187500.02, -174281.08, -187500.02, -187500.02, 0.000, 0.000, 0.000, 14:53:06.300
201, 41307.00, 25301.19, -187500.02, -187500.02, -187500.02, -174528.31, -187500.02, -187500.02, 0.000, 0.000, 0.000, 14:53:06.301
202, 41321.27, 25367.57, -187500.02, -187500.02, -187500.02, -174727.69, -187500.02, -187500.02, 0.000, 0.000, 0.000, 14:53:06.301
203, 41579.32, 25463.87, -187500.02, -187500.02, -187500.02, -174669.58, -187500.02, -187500.02, 0.000, 0.000, 0.000, 14:53:06.301
204, 41747.47, 25473.19, -187500.02, -187500.02, -187500.02, -174412.59, -187500.02, -187500.02, 0.000, 0.000, 0.000, 14:53:06.301
205, 41715.28, 25407.85, -187500.02, -187500.02, -187500.02, -174236.56, -187500.02, -187500.02, 0.000, 0.000, 0.000, 14:53:06.301
206, 41313.42, 25296.77, -187500.02, -187500.02, -187500.02, -174488.69, -187500.02, -187500.02, 0.000, 0.000, 0.000, 14:53:06.301
207, 41334.14, 25365.72, -187500.02, -187500.02, -187500.02, -174688.31, -187500.02, -187500.02, -0.018, -0.014, 1.032, 14:53:06.302
208, 41588.62, 25464.04, -187500.02, -187500.02, -187500.02, -174649.34, -187500.02, -187500.02, 0.000, 0.000, 0.000, 14:53:06.302
209, 41749.88, 25472.83, -187500.02, -187500.02, -187500.02, -174433.81, -187500.02, -187500.02, 0.000, 0.000, 0.000, 14:53:06.302
210, 41718.17, 25403.52, -187500.02, -187500.02, -187500.02, -174256.19, -187500.02, -187500.02, 0.000, 0.000, 0.000, 14:53:06.302
211, 41319.03, 25298.40, -187500.02, -187500.02, -187500.02, -174512.73, -187500.02, -187500.02, 0.000, 0.000, 0.000, 14:53:06.302
212, 41336.84, 25371.33, -187500.02, -187500.02, -187500.02, -174741.33, -187500.02, -187500.02, 0.000, 0.000, 0.000, 14:53:06.302
213, 41588.75, 25465.50, -187500.02, -187500.02, -187500.02, -174695.17, -187500.02, -187500.02, 0.000, 0.000, 0.000, 14:53:06.303
214, 41767.27, 25487.47, -187500.02, -187500.02, -187500.02, -174488.02, -187500.02, -187500.02, 0.000, 0.000, 0.000, 14:53:06.303
215, 41736.72, 25418.92, -187500.02, -187500.02, -187500.02, -174360.05, -187500.02, -187500.02, 0.000, 0.000, 0.000, 14:53:06.303
216, 41324.98, 25296.99, -187500.02, -187500.02, -187500.02, -174606.45, -187500.02, -187500.02, 0.000, 0.000, 0.000, 14:53:06.303
217, 41323.93, 25349.65, -187500.02, -187500.02, -187500.02, -174750.17, -187500.02, -187500.02, -0.016, -0.010, 1.028, 14:53:06.303
218, 41592.53, 25453.90, -187500.02, -187500.02, -187500.02, -174695.58, -187500.02, -187500.02, 0.000, 0.000, 0.000, 14:53:06.303
219, 41774.52, 25480.18, -187500.02, -187500.02, -187500.02, -174485.88, -187500.02, -187500.02, 0.000, 0.000, 0.000, 14:53:06.304
220, 41739.18, 25414.20, -187500.02, -187500.02, -187500.02, -174330.38, -187500.02, -187500.02, 0.000, 0.000, 0.000, 14:53:06.304
221, 41321.24, 25294.75, -187500.02, -187500.02, -187500.02, -174584.31, -187500.02, -187500.02, 0.000, 0.000, 0.000, 14:53:06.304
222, 41321.54, 25353.90, -187500.02, -187500.02, -187500.02, -174758.98, -187500.02, -187500.02, 0.000, 0.000, 0.000, 14:53:06.304
223, 41586.16, 25458.95, -187500.02, -187500.02, -187500.02, -174703.23, -187500.02, -187500.02, 0.000, 0.000, 0.000, 14:53:06.304
224, 41756.12, 25472.34, -187500.02, -187500.02, -187500.02, -174451.58, -187500.02, -187500.02, 0.000, 0.000, 0.000, 14:53:06.304
225, 41731.09, 25411.88, -187500.02, -187500.02, -187500.02, -174311.81, -187500.02, -187500.02, 0.000, 0.000, 0.000, 14:53:06.305
226, 41328.51, 25308.23, -187500.02, -187500.02, -187500.02, -174574.58, -187500.02, -187500.02, 0.000, 0.000, 0.000, 14:53:06.766
227, 41331.86, 25369.54, -187500.02, -187500.02, -187500.02, -174774.72, -187500.02, -187500.02, -0.022, -0.012, 1.030, 14:53:06.766
228, 41579.65, 25463.60, -187500.02, -187500.02, -187500.02, -174721.69, -187500.02, -187500.02, 0.000, 0.000, 0.000, 14:53:06.767
229, 41761.84, 25485.10, -187500.02, -187500.02, -187500.02, -174506.97, -187500.02, -187500.02, 0.000, 0.000, 0.000, 14:53:06.767
230, 41740.09, 25419.59, -187500.02, -187500.02, -187500.02, -174351.14, -187500.02, -187500.02, 0.000, 0.000, 0.000, 14:53:06.767
231, 41336.93, 25311.32, -187500.02, -187500.02, -187500.02, -174616.11, -187500.02, -187500.02, 0.000, 0.000, 0.000, 14:53:06.767
232, 41338.30, 25377.77, -187500.02, -187500.02, -187500.02, -174796.16, -187500.02, -187500.02, 0.000, 0.000, 0.000, 14:53:06.767
233, 41595.61, 25476.67, -187500.02, -187500.02, -187500.02, -174752.95, -187500.02, -187500.02, 0.000, 0.000, 0.000, 14:53:06.767
234, 41763.32, 25487.76, -187500.02, -187500.02, -187500.02, -174523.22, -187500.02, -187500.02, 0.000, 0.000, 0.000, 14:53:06.767
235, 41739.45, 25415.18, -187500.02, -187500.02, -187500.02, -174324.06, -187500.02, -187500.02, 0.000, 0.000, 0.000, 14:53:06.767
236, 41337.07, 25304.16, -187500.02, -187500.02, -187500.02, -174579.28, -187500.02, -187500.02, 0.000, 0.000, 0.000, 14:53:06.768
237, 41346.01, 25378.15, -187500.02, -187500.02, -187500.02, -174770.03, -187500.02, -187500.02, -0.016, -0.010, 1.026, 14:53:06.768
238, 41613.98, 25487.38, -187500.02, -187500.02, -187500.02, -174755.63, -187500.02, -187500.02, 0.000, 0.000, 0.000, 14:53:06.768
239, 41783.99, 25503.96, -187500.02, -187500.02, -187500.02, -174554.42, -187500.02, -187500.02, 0.000, 0.000, 0.000, 14:53:06.768
240, 41750.57, 25428.44, -187500.02, -187500.02, -187500.02, -174397.09, -187500.02, -187500.02, 0.000, 0.000, 0.000, 14:53:06.768
241, 41338.21, 25302.31, -187500.02, -187500.02, -187500.02, -174609.16, -187500.02, -187500.02, 0.000, 0.000, 0.000, 14:53:06.768
242, 41337.27, 25364.33, -187500.02, -187500.02, -187500.02, -174825.75, -187500.02, -187500.02, 0.000, 0.000, 0.000, 14:53:06.768
243, 41598.38, 25466.55, -187500.02, -187500.02, -187500.02, -174778.00, -187500.02, -187500.02, 0.000, 0.000, 0.000, 14:53:06.769
244, 41777.18, 25482.87, -187500.02, -187500.02, -187500.02, -174531.80, -187500.02, -187500.02, 0.000, 0.000, 0.000, 14:53:06.769
245, 41749.19, 25413.33, -187500.02, -187500.02, -187500.02, -174348.00, -187500.02, -187500.02, 0.000, 0.000, 0.000, 14:53:06.769
246, 41346.66, 25303.02, -187500.02, -187500.02, -187500.02, -174595.89, -187500.02, -187500.02, 0.000, 0.000, 0.000, 14:53:06.769
247, 41347.42, 25365.18, -187500.02, -187500.02, -187500.02, -174770.23, -187500.02, -187500.02, -0.016, -0.006, 1.024, 14:53:06.769
248, 41594.05, 25461.01, -187500.02, -187500.02, -187500.02, -174713.50, -187500.02, -187500.02, 0.000, 0.000, 0.000, 14:53:06.769
249, 41767.07, 25475.04, -187500.02, -187500.02, -187500.02, -174484.11, -187500.02, -187500.02, 0.000, 0.000, 0.000, 14:53:06.769
250, 41752.86, 25422.78, -187500.02, -187500.02, -187500.02, -174332.02, -187500.02, -187500.02, 0.000, 0.000, 0.000, 14:53:06.769
251, 41342.34, 25311.58, -187500.02, -187500.02, -187500.02, -174617.36, -187500.02, -187500.02, 0.000, 0.000, 0.000, 14:53:06.770
252, 41348.91, 25381.63, -187500.02, -187500.02, -187500.02, -174818.22, -187500.02, -187500.02, 0.000, 0.000, 0.000, 14:53:06.770
253, 41609.47, 25478.24, -187500.02, -187500.02, -187500.02, -174757.67, -187500.02, -187500.02, 0.000, 0.000, 0.000, 14:53:06.770
254, 41776.50, 25491.05, -187500.02, -187500.02, -187500.02, -174565.08, -187500.02, -187500.02, 0.000, 0.000, 0.000, 14:53:06.770
255, 41750.38, 25424.42, -187500.02, -187500.02, -187500.02, -174420.84, -187500.02, -187500.02, 0.000, 0.000, 0.000, 14:53:06.770
0, 41340.64, 25308.07, -187500.02, -187500.02, -187500.02, -174662.50, -187500.02, -187500.02, 0.000, 0.000, 0.000, 14:53:06.770
1, 41326.81, 25362.50, -187500.02, -187500.02, -187500.02, -174834.75, -187500.02, -187500.02, -0.018, -0.012, 1.030, 14:53:06.770
2, 41596.17, 25468.05, -187500.02, -187500.02, -187500.02, -174761.95, -187500.02, -187500.02, 0.000, 0.000, 0.000, 14:53:06.770
3, 41769.46, 25485.59, -187500.02, -187500.02, -187500.02, -174548.19, -187500.02, -187500.02, 0.000, 0.000, 0.000, 14:53:06.770
4, 41756.25, 25430.23, -187500.02, -187500.02, -187500.02, -174352.97, -187500.02, -187500.02, 0.000, 0.000, 0.000, 14:53:06.771
5, 41356.70, 25321.06, -187500.02, -187500.02, -187500.02, -174619.05, -187500.02, -187500.02, 0.000, 0.000, 0.000, 14:53:06.771
6, 41345.68, 25385.05, -187500.02, -187500.02, -187500.02, -174846.45, -187500.02, -187500.02, 0.000, 0.000, 0.000, 14:53:06.771
7, 41602.92, 25480.16, -187500.02, -187500.02, -187500.02, -174815.98, -187500.02, -187500.02, 0.000, 0.000, 0.000, 14:53:06.771
8, 41775.03, 25494.49, -187500.02, -187500.02, -187500.02, -174607.89, -187500.02, -187500.02, 0.000, 0.000, 0.000, 14:53:06.771
9, 41761.55, 25432.53, -187500.02, -187500.02, -187500.02, -174479.36, -187500.02, -187500.02, 0.000, 0.000, 0.000, 14:53:06.771
10, 41342.90, 25301.37, -187500.02, -187500.02, -187500.02, -174696.20, -187500.02, -187500.02, 0.000, 0.000, 0.000, 14:53:06.771
11, 41329.71, 25358.57, -187500.02, -187500.02, -187500.02, -174879.06, -187500.02, -187500.02, -0.020, -0.014, 1.026, 14:53:06.771
12, 41590.36, 25456.83, -187500.02, -187500.02, -187500.02, -174811.06, -187500.02, -187500.02, 0.000, 0.000, 0.000, 14:53:06.772
13, 41776.10, 25481.86, -187500.02, -187500.02, -187500.02, -174560.56, -187500.02, -187500.02, 0.000, 0.000, 0.000, 14:53:06.772
14, 41766.67, 25431.41, -187500.02, -187500.02, -187500.02, -174384.66, -187500.02, -187500.02, 0.000, 0.000, 0.000, 14:53:06.772
15, 41357.61, 25314.29, -187500.02, -187500.02, -187500.02, -174646.80, -187500.02, -187500.02, 0.000, 0.000, 0.000, 14:53:06.772
16, 41349.56, 25370.19, -187500.02, -187500.02, -187500.02, -174871.02, -187500.02, -187500.02, 0.000, 0.000, 0.000, 14:53:06.772
17, 41604.78, 25468.02, -187500.02, -187500.02, -187500.02, -174818.11, -187500.02, -187500.02, 0.000, 0.000, 0.000, 14:53:06.772
18, 41764.52, 25478.64, -187500.02, -187500.02, -187500.02, -174589.02, -187500.02, -187500.02, 0.000, 0.000, 0.000, 14:53:06.772
19, 41744.99, 25407.61, -187500.02, -187500.02, -187500.02, -174394.50, -187500.02, -187500.02, 0.000, 0.000, 0.000, 14:53:06.772
20, 41339.62, 25285.03, -187500.02, -187500.02, -187500.02, -174646.47, -187500.02, -187500.02, 0.000, 0.000, 0.000, 14:53:06.772
21, 41331.04, 25346.83, -187500.02, -187500.02, -187500.02, -174874.05, -187500.02, -187500.02, -0.020, -0.020, 1.024, 14:53:06.773
22, 41603.64, 25466.53, -187500.02, -187500.02, -187500.02, -174820.44, -187500.02, -187500.02, 0.000, 0.000, 0.000, 14:53:06.773
23, 41769.08, 25477.14, -187500.02, -187500.02, -187500.02, -174596.11, -187500.02, -187500.02, 0.000, 0.000, 0.000, 14:53:06.773
24, 41753.73, 25416.73, -187500.02, -187500.02, -187500.02, -174423.22, -187500.02, -187500.02, 0.000, 0.000, 0.000, 14:53:06.773
25, 41351.44, 25304.54, -187500.02, -187500.02, -187500.02, -174694.30, -187500.02, -187500.02, 0.000, 0.000, 0.000, 14:53:06.773
26, 41325.04, 25354.32, -187500.02, -187500.02, -187500.02, -174870.63, -187500.02, -187500.02, 0.000, 0.000, 0.000, 14:53:06.773
27, 41576.95, 25448.96, -187500.02, -187500.02, -187500.02, -174803.22, -187500.02, -187500.02, 0.000, 0.000, 0.000, 14:53:06.773
28, 41754.33, 25467.53, -187500.02, -187500.02, -187500.02, -174579.88, -187500.02, -187500.02, 0.000, 0.000, 0.000, 14:53:06.773
29, 41750.80, 25414.69, -187500.02, -187500.02, -187500.02, -174401.41, -187500.02, -187500.02, 0.000, 0.000, 0.000, 14:53:06.774
30, 41364.43, 25321.13, -187500.02, -187500.02, -187500.02, -174708.77, -187500.02, -187500.02, 0.000, 0.000, 0.000, 14:53:06.774
31, 41349.23, 25381.21, -187500.02, -187500.02, -187500.02, -174920.28, -187500.02, -187500.02, -0.018, -0.014, 1.022, 14:53:06.774
32, 41607.59, 25483.31, -187500.02, -187500.02, -187500.02, -174856.47, -187500.02, -187500.02, 0.000, 0.000, 0.000, 14:53:06.774
33, 41766.22, 25482.75, -187500.02, -187500.02, -187500.02, -174654.36, -187500.02, -187500.02, 0.000, 0.000, 0.000, 14:53:06.774
34, 41757.06, 25430.41, -187500.02, -187500.02, -187500.02, -174491.06, -187500.02, -187500.02, 0.000, 0.000, 0.000, 14:53:06.774
35, 41370.42, 25330.74, -187500.02, -187500.02, -187500.02, -174716.81, -187500.02, -187500.02, 0.000, 0.000, 0.000, 14:53:06.775
36, 41348.51, 25368.85, -187500.02, -187500.02, -187500.02, -174891.53, -187500.02, -187500.02, 0.000, 0.000, 0.000, 14:53:06.775
37, 41599.21, 25458.61, -187500.02, -187500.02, -187500.02, -174831.94, -187500.02, -187500.02, 0.000, 0.000, 0.000, 14:53:06.775
38, 41768.21, 25479.04, -187500.02, -187500.02, -187500.02, -174628.45, -187500.02, -187500.02, 0.000, 0.000, 0.000, 14:53:06.775
39, 41761.04, 25427.23, -187500.02, -187500.02, -187500.02, -174481.83, -187500.02, -187500.02, 0.000, 0.000, 0.000, 14:53:06.775
40, 41361.77, 25307.47, -187500.02, -187500.02, -187500.02, -174693.73, -187500.02, -187500.02, 0.000, 0.000, 0.000, 14:53:06.775
41, 41334.99, 25358.08, -187500.02, -187500.02, -187500.02, -174867.02, -187500.02, -187500.02, -0.014, -0.010, 1.022, 14:53:06.776
42, 41595.43, 25456.51, -187500.02, -187500.02, -187500.02, -174830.42, -187500.02, -187500.02, 0.000, 0.000, 0.000, 14:53:06.776
43, 41777.27, 25477.26, -187500.02, -187500.02, -187500.02, -174624.27, -187500.02, -187500.02, 0.000, 0.000, 0.000, 14:53:06.776
44, 41771.12, 25421.98, -187500.02, -187500.02, -187500.02, -174475.00, -187500.02, -187500.02, 0.000, 0.000, 0.000, 14:53:06.776
45, 41366.68, 25302.38, -187500.02, -187500.02, -187500.02, -174725.86, -187500.02, -187500.02, 0.000, 0.000, 0.000, 14:53:06.776
46, 41332.02, 25349.65, -187500.02, -187500.02, -187500.02, -174878.56, -187500.02, -187500.02, 0.000, 0.000, 0.000, 14:53:06.776
47, 41587.90, 25460.11, -187500.02, -187500.02, -187500.02, -174845.80, -187500.02, -187500.02, 0.000, 0.000, 0.000, 14:53:06.777
48, 41768.32, 25487.76, -187500.02, -187500.02, -187500.02, -174636.94, -187500.02, -187500.02, 0.000, 0.000, 0.000, 14:53:06.777
49, 41755.25, 25422.34, -187500.02, -187500.02, -187500.02, -174463.92, -187500.02, -187500.02, 0.000, 0.000, 0.000, 14:53:06.777
50, 41350.52, 25303.92, -187500.02, -187500.02, -187500.02, -174708.58, -187500.02, -187500.02, 0.000, 0.000, 0.000, 14:53:06.777
51, 41336.40, 25370.19, -187500.02, -187500.02, -187500.02, -174943.45, -187500.02, -187500.02, -0.016, -0.010, 1.018, 14:53:06.777
52, 41598.70, 25470.08, -187500.02, -187500.02, -187500.02, -174893.91, -187500.02, -187500.02, 0.000, 0.000, 0.000, 14:53:06.778
53, 41776.62, 25490.33, -187500.02, -187500.02, -187500.02, -174666.50, -187500.02, -187500.02, 0.000, 0.000, 0.000, 14:53:06.778
54, 41772.64, 25433.74, -187500.02, -187500.02, -187500.02, -174520.09, -187500.02, -187500.02, 0.000, 0.000, 0.000, 14:53:06.778
55, 41365.95, 25313.39, -187500.02, -187500.02, -187500.02, -174744.91, -187500.02, -187500.02, 0.000, 0.000, 0.000, 14:53:06.778
56, 41345.68, 25376.25, -187500.02, -187500.02, -187500.02, -174933.00, -187500.02, -187500.02, 0.000, 0.000, 0.000, 14:53:06.778
57, 41607.86, 25480.41, -187500.02, -187500.02, -187500.02, -174889.92, -187500.02, -187500.02, 0.000, 0.000, 0.000, 14:53:06.778
58, 41781.80, 25498.78, -187500.02, -187500.02, -187500.02, -174700.25, -187500.02, -187500.02, 0.000, 0.000, 0.000, 14:53:06.779
59, 41771.96, 25436.80, -187500.02, -187500.02, -187500.02, -174491.92, -187500.02, -187500.02, 0.000, 0.000, 0.000, 14:53:06.779
60, 41366.44, 25322.51, -187500.02, -187500.02, -187500.02, -174726.08, -187500.02, -187500.02, -0.020, -0.014, 1.018, 14:53:06.779
61, 41331.79, 25367.69, -187500.02, -187500.02, -187500.02, -174913.17, -187500.02, -187500.02, 0.000, 0.000, 0.000, 14:53:06.779
62, 41599.07, 25468.87, -187500.02, -187500.02, -187500.02, -174859.59, -187500.02, -187500.02, 0.000, 0.000, 0.000, 14:53:06.779
63, 41779.10, 25492.21, -187500.02, -187500.02, -187500.02, -174665.48, -187500.02, -187500.02, 0.000, 0.000, 0.000, 14:53:06.779
64, 41780.62, 25435.75, -187500.02, -187500.02, -187500.02, -174514.14, -187500.02, -187500.02, 0.000, 0.000, 0.000, 14:53:06.780
65, 41370.33, 25314.80, -187500.02, -187500.02, -187500.02, -174735.67, -187500.02, -187500.02, 0.000, 0.000, 0.000, 14:53:06.780
66, 41349.23, 25371.02, -187500.02, -187500.02, -187500.02, -174953.89, -187500.02, -187500.02, 0.000, 0.000, 0.000, 14:53:06.780
67, 41611.28, 25470.82, -187500.02, -187500.02, -187500.02, -174914.59, -187500.02, -187500.02, 0.000, 0.000, 0.000, 14:53:06.780
68, 41776.44, 25484.79, -187500.02, -187500.02, -187500.02, -174680.20, -187500.02, -187500.02, 0.000, 0.000, 0.000, 14:53:06.780
69, 41788.26, 25433.56, -187500.02, -187500.02, -187500.02, -174513.52, -187500.02, -187500.02, 0.000, 0.000, 0.000, 14:53:06.780
70, 41385.08, 25313.53, -187500.02, -187500.02, -187500.02, -174753.80, -187500.02, -187500.02, -0.018, -0.016, 1.026, 14:53:06.781
71, 41351.04, 25370.93, -187500.02, -187500.02, -187500.02, -174988.67, -187500.02, -187500.02, 0.000, 0.000, 0.000, 14:53:06.781
72, 41605.89, 25474.64, -187500.02, -187500.02, -187500.02, -174941.53, -187500.02, -187500.02, 0.000, 0.000, 0.000, 14:53:06.781
73, 41781.64, 25487.85, -187500.02, -187500.02, -187500.02, -174726.13, -187500.02, -187500.02, 0.000, 0.000, 0.000, 14:53:06.781
74, 41787.50, 25432.87, -187500.02, -187500.02, -187500.02, -174538.59, -187500.02, -187500.02, 0.000, 0.000, 0.000, 14:53:06.781
75, 41379.94, 25310.31, -187500.02, -187500.02, -187500.02, -174738.36, -187500.02, -187500.02, 0.000, 0.000, 0.000, 14:53:06.781
76, 41352.22, 25362.59, -187500.02, -187500.02, -187500.02, -174957.09, -187500.02, -187500.02, 0.000, 0.000, 0.000, 14:53:06.781
77, 41610.45, 25468.11, -187500.02, -187500.02, -187500.02, -174933.44, -187500.02, -187500.02, 0.000, 0.000, 0.000, 14:53:06.782
78, 41782.96, 25490.24, -187500.02, -187500.02, -187500.02, -174703.70, -187500.02, -187500.02, 0.000, 0.000, 0.000, 14:53:06.782
79, 41780.01, 25430.54, -187500.02, -187500.02, -187500.02, -174500.48, -187500.02, -187500.02, 0.000, 0.000, 0.000, 14:53:06.782
80, 41376.99, 25314.71, -187500.02, -187500.02, -187500.02, -174713.83, -187500.02, -187500.02, -0.020, -0.016, 1.026, 14:53:06.782
81, 41345.32, 25370.66, -187500.02, -187500.02, -187500.02, -174929.22, -187500.02, -187500.02, 0.000, 0.000, 0.000, 14:53:06.782
82, 41606.16, 25474.46, -187500.02, -187500.02, -187500.02, -174889.75, -187500.02, -187500.02, 0.000, 0.000, 0.000, 14:53:06.782
83, 41788.51, 25502.51, -187500.02, -187500.02, -187500.02, -174690.41, -187500.02, -187500.02, 0.000, 0.000, 0.000, 14:53:06.782
84, 41787.12, 25445.13, -187500.02, -187500.02, -187500.02, -174518.30, -187500.02, -187500.02, 0.000, 0.000, 0.000, 14:53:06.782
85, 41381.19, 25322.27, -187500.02, -187500.02, -187500.02, -174747.58, -187500.02, -187500.02, 0.000, 0.000, 0.000, 14:53:06.783
86, 41336.89, 25367.98, -187500.02, -187500.02, -187500.02, -174929.78, -187500.02, -187500.02, 0.000, 0.000, 0.000, 14:53:06.783
87, 41595.34, 25463.73, -187500.02, -187500.02, -187500.02, -174856.08, -187500.02, -187500.02, 0.000, 0.000, 0.000, 14:53:06.783
88, 41771.34, 25481.30, -187500.02, -187500.02, -187500.02, -174636.94, -187500.02, -187500.02, 0.000, 0.000, 0.000, 14:53:06.783
89, 41774.83, 25425.64, -187500.02, -187500.02, -187500.02, -174468.80, -187500.02, -187500.02, 0.000, 0.000, 0.000, 14:53:06.783
90, 41385.84, 25321.24, -187500.02, -187500.02, -187500.02, -174714.23, -187500.02, -187500.02, -0.020, -0.016, 1.026, 14:53:07.248
91, 41364.47, 25381.66, -187500.02, -187500.02, -187500.02, -174960.05, -187500.02, -187500.02, 0.000, 0.000, 0.000, 14:53:07.248
92, 41626.66, 25483.58, -187500.02, -187500.02, -187500.02, -174941.00, -187500.02, -187500.02, 0.000, 0.000, 0.000, 14:53:07.248
93, 41793.65, 25498.09, -187500.02, -187500.02, -187500.02, -174756.03, -187500.02, -187500.02, 0.000, 0.000, 0.000, 14:53:07.249
94, 41783.63, 25427.92, -187500.02, -187500.02, -187500.02, -174579.36, -187500.02, -187500.02, 0.000, 0.000, 0.000, 14:53:07.249
95, 41370.75, 25302.76, -187500.02, -187500.02, -187500.02, -174780.33, -187500.02, -187500.02, 0.000, 0.000, 0.000, 14:53:07.249
96, 41329.43, 25352.67, -187500.02, -187500.02, -187500.02, -174969.50, -187500.02, -187500.02, 0.000, 0.000, 0.000, 14:53:07.249
97, 41598.00, 25460.04, -187500.02, -187500.02, -187500.02, -174934.36, -187500.02, -187500.02, 0.000, 0.000, 0.000, 14:53:07.249
98, 41775.95, 25484.29, -187500.02, -187500.02, -187500.02, -174709.31, -187500.02, -187500.02, 0.000, 0.000, 0.000, 14:53:07.249
99, 41791.28, 25440.33, -187500.02, -187500.02, -187500.02, -174543.69, -187500.02, -187500.02, 0.000, 0.000, 0.000, 14:53:07.249
100, 41395.86, 25326.25, -187500.02, -187500.02, -187500.02, -174778.30, -187500.02, -187500.02, -0.020, -0.010, 1.032, 14:53:07.249
101, 41354.37, 25370.08, -187500.02, -187500.02, -187500.02, -174982.28, -187500.02, -187500.02, 0.000, 0.000, 0.000, 14:53:07.249
102, 41603.17, 25463.82, -187500.02, -187500.02, -187500.02, -174937.13, -187500.02, -187500.02, 0.000, 0.000, 0.000, 14:53:07.250
103, 41772.75, 25477.23, -187500.02, -187500.02, -187500.02, -174713.97, -187500.02, -187500.02, 0.000, 0.000, 0.000, 14:53:07.250
104, 41788.46, 25431.37, -187500.02, -187500.02, -187500.02, -174558.11, -187500.02, -187500.02, 0.000, 0.000, 0.000, 14:53:07.250
105, 41379.56, 25301.46, -187500.02, -187500.02, -187500.02, -174796.16, -187500.02, -187500.02, 0.000, 0.000, 0.000, 14:53:07.250
106, 41332.80, 25337.98, -187500.02, -187500.02, -187500.02, -174964.33, -187500.02, -187500.02, 0.000, 0.000, 0.000, 14:53:07.250
107, 41589.42, 25439.90, -187500.02, -187500.02, -187500.02, -174893.28, -187500.02, -187500.02, 0.000, 0.000, 0.000, 14:53:07.250
108, 41780.21, 25472.07, -187500.02, -187500.02, -187500.02, -174683.92, -187500.02, -187500.02, 0.000, 0.000, 0.000, 14:53:07.250
109, 41791.93, 25417.69, -187500.02, -187500.02, -187500.02, -174505.03, -187500.02, -187500.02, 0.000, 0.000, 0.000, 14:53:07.250
110, 41388.90, 25300.45, -187500.02, -187500.02, -187500.02, -174747.41, -187500.02, -187500.02, -0.022, -0.008, 1.034, 14:53:07.251
111, 41355.78, 25353.40, -187500.02, -187500.02, -187500.02, -174951.33, -187500.02, -187500.02, 0.000, 0.000, 0.000, 14:53:07.251
112, 41615.68, 25457.29, -187500.02, -187500.02, -187500.02, -174911.58, -187500.02, -187500.02, 0.000, 0.000, 0.000, 14:53:07.251
113, 41794.16, 25478.73, -187500.02, -187500.02, -187500.02, -174716.36, -187500.02, -187500.02, 0.000, 0.000, 0.000, 14:53:07.251
114, 41808.91, 25424.48, -187500.02, -187500.02, -187500.02, -174548.77, -187500.02, -187500.02, 0.000, 0.000, 0.000, 14:53:07.251
115, 41399.72, 25305.39, -187500.02, -187500.02, -187500.02, -174782.97, -187500.02, -187500.02, 0.000, 0.000, 0.000, 14:53:07.251
116, 41362.17, 25361.96, -187500.02, -187500.02, -187500.02, -175011.30, -187500.02, -187500.02, 0.000, 0.000, 0.000, 14:53:07.251
117, 41615.13, 25464.20, -187500.02, -187500.02, -187500.02, -174985.34, -187500.02, -187500.02, 0.000, 0.000, 0.000, 14:53:07.251
118, 41790.34, 25485.21, -187500.02, -187500.02, -187500.02, -174773.69, -187500.02, -187500.02, 0.000, 0.000, 0.000, 14:53:07.252
119, 41805.98, 25432.69, -187500.02, -187500.02, -187500.02, -174588.70, -187500.02, -187500.02, 0.000, 0.000, 0.000, 14:53:07.252
120, 41402.89, 25314.40, -187500.02, -187500.02, -187500.02, -174820.66, -187500.02, -187500.02, -0.018, -0.010, 1.034, 14:53:07.252
121, 41359.91, 25360.74, -187500.02, -187500.02, -187500.02, -175025.34, -187500.02, -187500.02, 0.000, 0.000, 0.000, 14:53:07.252
122, 41617.34, 25463.29, -187500.02, -187500.02, -187500.02, -175000.83, -187500.02, -187500.02, 0.000, 0.000, 0.000, 14:53:07.252
123, 41785.98, 25476.36, -187500.02, -187500.02, -187500.02, -174765.02, -187500.02, -187500.02, 0.000, 0.000, 0.000, 14:53:07.253
124, 41804.02, 25427.12, -187500.02, -187500.02, -187500.02, -174558.83, -187500.02, -187500.02, 0.000, 0.000, 0.000, 14:53:07.253
125, 41412.82, 25312.63, -187500.02, -187500.02, -187500.02, -174793.97, -187500.02, -187500.02, 0.000, 0.000, 0.000, 14:53:07.253
126, 41361.48, 25355.84, -187500.02, -187500.02, -187500.02, -175010.06, -187500.02, -187500.02, 0.000, 0.000, 0.000, 14:53:07.253
127, 41610.05, 25450.90, -187500.02, -187500.02, -187500.02, -174953.94, -187500.02, -187500.02, 0.000, 0.000, 0.000, 14:53:07.253
128, 41791.48, 25470.75, -187500.02, -187500.02, -187500.02, -174761.78, -187500.02, -187500.02, 0.000, 0.000, 0.000, 14:53:07.253
129, 41803.82, 25409.89, -187500.02, -187500.02, -187500.02, -174611.55, -187500.02, -187500.02, 0.000, 0.000, 0.000, 14:53:07.253
130, 41395.47, 25284.70, -187500.02, -187500.02, -187500.02, -174836.91, -187500.02, -187500.02, -0.016, -0.016, 1.034, 14:53:07.253
131, 41344.71, 25330.02, -187500.02, -187500.02, -187500.02, -175017.48, -187500.02, -187500.02, 0.000, 0.000, 0.000, 14:53:07.253
132, 41602.54, 25437.25, -187500.02, -187500.02, -187500.02, -174931.58, -187500.02, -187500.02, 0.000, 0.000, 0.000, 14:53:07.254
133, 41784.19, 25468.52, -187500.02, -187500.02, -187500.02, -174761.59, -187500.02, -187500.02, 0.000, 0.000, 0.000, 14:53:07.254
134, 41799.50, 25411.05, -187500.02, -187500.02, -187500.02, -174571.83, -187500.02, -187500.02, 0.000, 0.000, 0.000, 14:53:07.254
135, 41402.56, 25294.96, -187500.02, -187500.02, -187500.02, -174792.05, -187500.02, -187500.02, 0.000, 0.000, 0.000, 14:53:07.254
136, 41358.79, 25347.91, -187500.02, -187500.02, -187500.02, -175038.73, -187500.02, -187500.02, 0.000, 0.000, 0.000, 14:53:07.254
137, 41621.20, 25447.57, -187500.02, -187500.02, -187500.02, -175019.78, -187500.02, -187500.02, 0.000, 0.000, 0.000, 14:53:07.254
138, 41788.89, 25453.96, -187500.02, -187500.02, -187500.02, -174787.80, -187500.02, -187500.02, 0.000, 0.000, 0.000, 14:53:07.254
139, 41810.99, 25404.97, -187500.02, -187500.02, -187500.02, -174593.88, -187500.02, -187500.02, 0.000, 0.000, 0.000, 14:53:07.254
140, 41404.41, 25281.59, -187500.02, -187500.02, -187500.02, -174828.83, -187500.02, -187500.02, -0.020, -0.014, 1.036, 14:53:07.255
141, 41348.56, 25328.75, -187500.02, -187500.02, -187500.02, -175038.30, -187500.02, -187500.02, 0.000, 0.000, 0.000, 14:53:07.255
142, 41607.59, 25431.84, -187500.02, -187500.02, -187500.02, -175007.36, -187500.02, -187500.02, 0.000, 0.000, 0.000, 14:53:07.255
143, 41798.77, 25459.78, -187500.02, -187500.02, -187500.02, -174817.48, -187500.02, -187500.02, 0.000, 0.000, 0.000, 14:53:07.255
144, 41824.89, 25409.66, -187500.02, -187500.02, -187500.02, -174630.98, -187500.02, -187500.02, 0.000, 0.000, 0.000, 14:53:07.255
145, 41422.63, 25290.95, -187500.02, -187500.02, -187500.02, -174885.25, -187500.02, -187500.02, 0.000, 0.000, 0.000, 14:53:07.255
146, 41359.44, 25327.86, -187500.02, -187500.02, -187500.02, -175088.83, -187500.02, -187500.02, 0.000, 0.000, 0.000, 14:53:07.255
147, 41614.83, 25428.42, -187500.02, -187500.02, -187500.02, -175039.05, -187500.02, -187500.02, 0.000, 0.000, 0.000, 14:53:07.255
148, 41794.09, 25454.21, -187500.02, -187500.02, -187500.02, -174820.08, -187500.02, -187500.02, 0.000, 0.000, 0.000, 14:53:07.255
149, 41815.84, 25400.77, -187500.02, -187500.02, -187500.02, -174616.20, -187500.02, -187500.02, 0.000, 0.000, 0.000, 14:53:07.256
150, 41423.82, 25282.35, -187500.02, -187500.02, -187500.02, -174843.59, -187500.02, -187500.02, -0.020, -0.014, 1.032, 14:53:07.256
151, 41368.96, 25326.45, -187500.02, -187500.02, -187500.02, -175052.52, -187500.02, -187500.02, 0.000, 0.000, 0.000, 14:53:07.256
152, 41632.63, 25432.39, -187500.02, -187500.02, -187500.02, -175018.02, -187500.02, -187500.02, 0.000, 0.000, 0.000, 14:53:07.256
153, 41809.36, 25453.12, -187500.02, -187500.02, -187500.02, -174809.39, -187500.02, -187500.02, 0.000, 0.000, 0.000, 14:53:07.256
154, 41839.02, 25408.59, -187500.02, -187500.02, -187500.02, -174631.73, -187500.02, -187500.02, 0.000, 0.000, 0.000, 14:53:07.256
155, 41441.45, 25284.47, -187500.02, -187500.02, -187500.02, -174867.91, -187500.02, -187500.02, 0.000, 0.000, 0.000, 14:53:07.256
156, 41386.06, 25326.34, -187500.02, -187500.02, -187500.02, -175116.17, -187500.02, -187500.02, 0.000, 0.000, 0.000, 14:53:07.256
157, 41638.82, 25429.71, -187500.02, -187500.02, -187500.02, -175101.48, -187500.02, -187500.02, 0.000, 0.000, 0.000, 14:53:07.256
158, 41806.68, 25446.32, -187500.02, -187500.02, -187500.02, -174880.84, -187500.02, -187500.02, 0.000, 0.000, 0.000, 14:53:07.257
159, 41831.96, 25393.57, -187500.02, -187500.02, -187500.02, -174690.86, -187500.02, -187500.02, 0.000, 0.000, 0.000, 14:53:07.257
160, 41432.18, 25271.60, -187500.02, -187500.02, -187500.02, -174909.08, -187500.02, -187500.02, -0.018, -0.014, 1.032, 14:53:07.257
161, 41376.86, 25320.19, -187500.02, -187500.02, -187500.02, -175122.00, -187500.02, -187500.02, 0.000, 0.000, 0.000, 14:53:07.257
162, 41631.13, 25414.18, -187500.02, -187500.02, -187500.02, -175054.52, -187500.02, -187500.02, 0.000, 0.000, 0.000, 14:53:07.257
163, 41810.79, 25443.62, -187500.02, -187500.02, -187500.02, -174844.14, -187500.02, -187500.02, 0.000, 0.000, 0.000, 14:53:07.258
164, 41835.00, 25397.79, -187500.02, -187500.02, -187500.02, -174665.67, -187500.02, -187500.02, 0.000, 0.000, 0.000, 14:53:07.258
165, 41420.71, 25268.87, -187500.02, -187500.02, -187500.02, -174892.98, -187500.02, -187500.02, 0.000, 0.000, 0.000, 14:53:07.258
166, 41354.44, 25304.54, -187500.02, -187500.02, -187500.02, -175109.30, -187500.02, -187500.02, 0.000, 0.000, 0.000, 14:53:07.258
167, 41626.68, 25422.11, -187500.02, -187500.02, -187500.02, -175070.45, -187500.02, -187500.02, 0.000, 0.000, 0.000, 14:53:07.258
168, 41808.29, 25453.34, -187500.02, -187500.02, -187500.02, -174871.97, -187500.02, -187500.02, 0.000, 0.000, 0.000, 14:53:07.258
169, 41828.74, 25401.75, -187500.02, -187500.02, -187500.02, -174686.95, -187500.02, -187500.02, 0.000, 0.000, 0.000, 14:53:07.259
170, 41425.00, 25275.38, -187500.02, -187500.02, -187500.02, -174911.69, -187500.02, -187500.02, -0.018, -0.010, 1.026, 14:53:07.259
171, 41364.58, 25315.16, -187500.02, -187500.02, -187500.02, -175112.36, -187500.02, -187500.02, 0.000, 0.000, 0.000, 14:53:07.259
172, 41620.15, 25424.86, -187500.02, -187500.02, -187500.02, -175082.06, -187500.02, -187500.02, 0.000, 0.000, 0.000, 14:53:07.259
173, 41801.18, 25455.78, -187500.02, -187500.02, -187500.02, -174902.95, -187500.02, -187500.02, 0.000, 0.000, 0.000, 14:53:07.259
174, 41822.19, 25397.04, -187500.02, -187500.02, -187500.02, -174691.84, -187500.02, -187500.02, 0.000, 0.000, 0.000, 14:53:07.259
175, 41403.79, 25262.12, -187500.02, -187500.02, -187500.02, -174871.13, -187500.02, -187500.02, 0.000, 0.000, 0.000, 14:53:07.260
176, 41343.95, 25315.05, -187500.02, -187500.02, -187500.02, -175098.64, -187500.02, -187500.02, 0.000, 0.000, 0.000, 14:53:07.260
177, 41608.89, 25421.15, -187500.02, -187500.02, -187500.02, -175050.52, -187500.02, -187500.02, 0.000, 0.000, 0.000, 14:53:07.260
178, 41799.59, 25450.48, -187500.02, -187500.02, -187500.02, -174877.98, -187500.02, -187500.02, 0.000, 0.000, 0.000, 14:53:07.260
179, 41834.77, 25413.93, -187500.02, -187500.02, -187500.02, -174710.64, -187500.02, -187500.02, 0.000, 0.000, 0.000, 14:53:07.260
180, 41437.07, 25293.63, -187500.02, -187500.02, -187500.02, -174907.67, -187500.02, -187500.02, -0.018, -0.012, 1.026, 14:53:07.260
181, 41370.15, 25335.19, -187500.02, -187500.02, -187500.02, -175113.08, -187500.02, -187500.02, 0.000, 0.000, 0.000, 14:53:07.261
182, 41625.83, 25436.08, -187500.02, -187500.02, -187500.02, -175105.55, -187500.02, -187500.02, 0.000, 0.000, 0.000, 14:53:07.261
183, 41799.68, 25451.75, -187500.02, -187500.02, -187500.02, -174904.09, -187500.02, -187500.02, 0.000, 0.000, 0.000, 14:53:07.261
184, 41844.10, 25419.90, -187500.02, -187500.02, -187500.02, -174740.59, -187500.02, -187500.02, 0.000, 0.000, 0.000, 14:53:07.261
185, 41433.07, 25284.74, -187500.02, -187500.02, -187500.02, -174935.16, -187500.02, -187500.02, 0.000, 0.000, 0.000, 14:53:07.261
186, 41367.69, 25327.79, -187500.02, -187500.02, -187500.02, -175168.92, -187500.02, -187500.02, 0.000, 0.000, 0.000, 14:53:07.262
187, 41614.79, 25427.77, -187500.02, -187500.02, -187500.02, -175120.81, -187500.02, -187500.02, 0.000, 0.000, 0.000, 14:53:07.262
188, 41790.23, 25450.68, -187500.02, -187500.02, -187500.02, -174885.11, -187500.02, -187500.02, 0.000, 0.000, 0.000, 14:53:07.262
189, 41834.26, 25412.52, -187500.02, -187500.02, -187500.02, -174724.27, -187500.02, -187500.02, -0.020, -0.012, 1.026, 14:53:07.262
190, 41437.68, 25288.07, -187500.02, -187500.02, -187500.02, -174960.08, -187500.02, -187500.02, 0.000, 0.000, 0.000, 14:53:07.262
191, 41366.66, 25329.85, -187500.02, -187500.02, -187500.02, -175155.69, -187500.02, -187500.02, 0.000, 0.000, 0.000, 14:53:07.262
192, 41618.81, 25432.91, -187500.02, -187500.02, -187500.02, -175120.33, -187500.02, -187500.02, 0.000, 0.000, 0.000, 14:53:07.262
193, 41790.50, 25452.29, -187500.02, -187500.02, -187500.02, -174926.47, -187500.02, -187500.02, 0.000, 0.000, 0.000, 14:53:07.262
194, 41830.24, 25411.52, -187500.02, -187500.02, -187500.02, -174737.45, -187500.02, -187500.02, 0.000, 0.000, 0.000, 14:53:07.262
195, 41433.63, 25286.93, -187500.02, -187500.02, -187500.02, -174959.39, -187500.02, -187500.02, 0.000, 0.000, 0.000, 14:53:07.263
196, 41355.04, 25318.00, -187500.02, -187500.02, -187500.02, -175159.78, -187500.02, -187500.02, 0.000, 0.000, 0.000, 14:53:07.263
197, 41607.66, 25423.23, -187500.02, -187500.02, -187500.02, -175103.89, -187500.02, -187500.02, 0.000, 0.000, 0.000, 14:53:07.263
198, 41788.24, 25452.18, -187500.02, -187500.02, -187500.02, -174907.13, -187500.02, -187500.02, 0.000, 0.000, 0.000, 14:53:07.263
199, 41833.05, 25411.96, -187500.02, -187500.02, -187500.02, -174725.80, -187500.02, -187500.02, -0.018, -0.010, 1.026, 14:53:07.263
200, 41427.91, 25287.06, -187500.02, -187500.02, -187500.02, -174948.63, -187500.02, -187500.02, 0.000, 0.000, 0.000, 14:53:07.263
201, 41353.36, 25325.33, -187500.02, -187500.02, -187500.02, -175163.17, -187500.02, -187500.02, 0.000, 0.000, 0.000, 14:53:07.263
202, 41606.47, 25430.70, -187500.02, -187500.02, -187500.02, -175095.41, -187500.02, -187500.02, 0.000, 0.000, 0.000, 14:53:07.263
203, 41793.58, 25459.49, -187500.02, -187500.02, -187500.02, -174891.84, -187500.02, -187500.02, 0.000, 0.000, 0.000, 14:53:07.264
204, 41835.38, 25415.01, -187500.02, -187500.02, -187500.02, -174704.33, -187500.02, -187500.02, 0.000, 0.000, 0.000, 14:53:07.264
205, 41442.08, 25298.73, -187500.02, -187500.02, -187500.02, -174927.98, -187500.02, -187500.02, 0.000, 0.000, 0.000, 14:53:07.264
206, 41370.69, 25343.73, -187500.02, -187500.02, -187500.02, -175190.98, -187500.02, -187500.02, 0.000, 0.000, 0.000, 14:53:07.264
207, 41612.84, 25438.05, -187500.02, -187500.02, -187500.02, -175171.08, -187500.02, -187500.02, 0.000, 0.000, 0.000, 14:53:07.264
208, 41778.83, 25445.02, -187500.02, -187500.02, -187500.02, -174938.48, -187500.02, -187500.02, 0.000, 0.000, 0.000, 14:53:07.264
209, 41829.34, 25410.11, -187500.02, -187500.02, -187500.02, -174710.92, -187500.02, -187500.02, -0.020, -0.012, 1.026, 14:53:07.265
210, 41440.27, 25293.32, -187500.02, -187500.02, -187500.02, -174931.58, -187500.02, -187500.02, 0.000, 0.000, 0.000, 14:53:07.265
211, 41359.80, 25331.99, -187500.02, -187500.02, -187500.02, -175170.48, -187500.02, -187500.02, 0.000, 0.000, 0.000, 14:53:07.729
212, 41599.03, 25426.29, -187500.02, -187500.02, -187500.02, -175147.39, -187500.02, -187500.02, 0.000, 0.000, 0.000, 14:53:07.729
213, 41777.89, 25454.03, -187500.02, -187500.02, -187500.02, -174927.11, -187500.02, -187500.02, 0.000, 0.000, 0.000, 14:53:07.729
214, 41823.55, 25415.30, -187500.02, -187500.02, -187500.02, -174730.42, -187500.02, -187500.02, 0.000, 0.000, 0.000, 14:53:07.729
215, 41425.40, 25286.10, -187500.02, -187500.02, -187500.02, -174969.42, -187500.02, -187500.02, 0.000, 0.000, 0.000, 14:53:07.729
216, 41340.58, 25315.85, -187500.02, -187500.02, -187500.02, -175209.00, -187500.02, -187500.02, 0.000, 0.000, 0.000, 14:53:07.729
217, 41593.60, 25422.58, -187500.02, -187500.02, -187500.02, -175158.59, -187500.02, -187500.02, 0.000, 0.000, 0.000, 14:53:07.730
218, 41776.55, 25451.84, -187500.02, -187500.02, -187500.02, -174984.45, -187500.02, -187500.02, 0.000, 0.000, 0.000, 14:53:07.730
219, 41809.03, 25402.24, -187500.02, -187500.02, -187500.02, -174788.00, -187500.02, -187500.02, -0.020, -0.010, 1.022, 14:53:07.730
220, 41402.20, 25271.08, -187500.02, -187500.02, -187500.02, -174965.61, -187500.02, -187500.02, 0.000, 0.000, 0.000, 14:53:07.730
221, 41330.92, 25319.09, -187500.02, -187500.02, -187500.02, -175179.72, -187500.02, -187500.02, 0.000, 0.000, 0.000, 14:53:07.730
222, 41595.45, 25422.67, -187500.02, -187500.02, -187500.02, -175174.61, -187500.02, -187500.02, 0.000, 0.000, 0.000, 14:53:07.730
223, 41777.40, 25450.88, -187500.02, -187500.02, -187500.02, -174974.25, -187500.02, -187500.02, 0.000, 0.000, 0.000, 14:53:07.730
224, 41818.86, 25406.80, -187500.02, -187500.02, -187500.02, -174752.08, -187500.02, -187500.02, 0.000, 0.000, 0.000, 14:53:07.730
225, 41420.15, 25279.17, -187500.02, -187500.02, -187500.02, -174930.63, -187500.02, -187500.02, 0.000, 0.000, 0.000, 14:53:07.730
226, 41339.62, 25313.93, -187500.02, -187500.02, -187500.02, -175147.50, -187500.02, -187500.02, 0.000, 0.000, 0.000, 14:53:07.731
227, 41595.05, 25417.78, -187500.02, -187500.02, -187500.02, -175136.13, -187500.02, -187500.02, 0.000, 0.000, 0.000, 14:53:07.731
228, 41774.83, 25438.72, -187500.02, -187500.02, -187500.02, -174958.25, -187500.02, -187500.02, 0.000, 0.000, 0.000, 14:53:07.731
229, 41821.21, 25397.62, -187500.02, -187500.02, -187500.02, -174770.66, -187500.02, -187500.02, -0.020, -0.012, 1.030, 14:53:07.731
230, 41426.52, 25273.77, -187500.02, -187500.02, -187500.02, -174972.56, -187500.02, -187500.02, 0.000, 0.000, 0.000, 14:53:07.731
231, 41363.45, 25330.29, -187500.02, -187500.02, -187500.02, -175235.41, -187500.02, -187500.02, 0.000, 0.000, 0.000, 14:53:07.731
232, 41609.31, 25430.54, -187500.02, -187500.02, -187500.02, -175232.17, -187500.02, -187500.02, 0.000, 0.000, 0.000, 14:53:07.731
233, 41778.36, 25445.13, -187500.02, -187500.02, -187500.02, -175000.39, -187500.02, -187500.02, 0.000, 0.000, 0.000, 14:53:07.732
234, 41824.23, 25401.66, -187500.02, -187500.02, -187500.02, -174815.02, -187500.02, -187500.02, 0.000, 0.000, 0.000, 14:53:07.732
235, 41426.63, 25270.95, -187500.02, -187500.02, -187500.02, -175032.80, -187500.02, -187500.02, 0.000, 0.000, 0.000, 14:53:07.732
236, 41335.53, 25304.43, -187500.02, -187500.02, -187500.02, -175262.50, -187500.02, -187500.02, 0.000, 0.000, 0.000, 14:53:07.732
237, 41598.59, 25414.00, -187500.02, -187500.02, -187500.02, -175231.80, -187500.02, -187500.02, 0.000, 0.000, 0.000, 14:53:07.732
238, 41779.70, 25439.14, -187500.02, -187500.02, -187500.02, -175032.53, -187500.02, -187500.02, 0.000, 0.000, 0.000, 14:53:07.732
239, 41815.93, 25396.34, -187500.02, -187500.02, -187500.02, -174813.25, -187500.02, -187500.02, -0.022, -0.008, 1.032, 14:53:07.732
240, 41425.47, 25273.61, -187500.02, -187500.02, -187500.02, -175026.05, -187500.02, -187500.02, 0.000, 0.000, 0.000, 14:53:07.733
241, 41332.49, 25299.02, -187500.02, -187500.02, -187500.02, -175245.25, -187500.02, -187500.02, 0.000, 0.000, 0.000, 14:53:07.733
242, 41595.54, 25410.56, -187500.02, -187500.02, -187500.02, -175213.73, -187500.02, -187500.02, 0.000, 0.000, 0.000, 14:53:07.733
243, 41784.84, 25451.39, -187500.02, -187500.02, -187500.02, -175028.39, -187500.02, -187500.02, 0.000, 0.000, 0.000, 14:53:07.733
244, 41826.62, 25399.27, -187500.02, -187500.02, -187500.02, -174799.63, -187500.02, -187500.02, 0.000, 0.000, 0.000, 14:53:07.733
245, 41435.11, 25278.39, -187500.02, -187500.02, -187500.02, -174997.23, -187500.02, -187500.02, 0.000, 0.000, 0.000, 14:53:07.733
246, 41344.20, 25307.27, -187500.02, -187500.02, -187500.02, -175222.41, -187500.02, -187500.02, 0.000, 0.000, 0.000, 14:53:07.733
247, 41597.80, 25408.52, -187500.02, -187500.02, -187500.02, -175183.38, -187500.02, -187500.02, 0.000, 0.000, 0.000, 14:53:07.733
248, 41778.67, 25437.38, -187500.02, -187500.02, -187500.02, -174970.09, -187500.02, -187500.02, 0.000, 0.000, 0.000, 14:53:07.734
249, 41817.56, 25393.93, -187500.02, -187500.02, -187500.02, -174791.19, -187500.02, -187500.02, -0.016, -0.006, 1.028, 14:53:07.734
250, 41423.13, 25269.45, -187500.02, -187500.02, -187500.02, -175003.45, -187500.02, -187500.02, 0.000, 0.000, 0.000, 14:53:07.734
251, 41335.71, 25301.15, -187500.02, -187500.02, -187500.02, -175215.67, -187500.02, -187500.02, 0.000, 0.000, 0.000, 14:53:07.734
252, 41585.51, 25413.89, -187500.02, -187500.02, -187500.02, -175169.03, -187500.02, -187500.02, 0.000, 0.000, 0.000, 14:53:07.734
253, 41777.96, 25452.42, -187500.02, -187500.02, -187500.02, -174971.48, -187500.02, -187500.02, 0.000, 0.000, 0.000, 14:53:07.734
254, 41834.64, 25410.36, -187500.02, -187500.02, -187500.02, -174778.59, -187500.02, -187500.02, 0.000, 0.000, 0.000, 14:53:07.734
255, 41439.04, 25286.55, -187500.02, -187500.02, -187500.02, -175010.70, -187500.02, -187500.02, 0.000, 0.000, 0.000, 14:53:07.735
0, 41347.33, 25319.07, -187500.02, -187500.02, -187500.02, -175259.55, -187500.02, -187500.02, 0.000, 0.000, 0.000, 14:53:07.735
1, 41606.30, 25426.16, -187500.02, -187500.02, -187500.02, -175251.28, -187500.02, -187500.02, 0.000, 0.000, 0.000, 14:53:07.735
2, 41774.20, 25448.98, -187500.02, -187500.02, -187500.02, -175043.55, -187500.02, -187500.02, 0.000, 0.000, 0.000, 14:53:07.735
3, 41828.18, 25417.49, -187500.02, -187500.02, -187500.02, -174844.89, -187500.02, -187500.02, -0.022, -0.012, 1.028, 14:53:07.735
4, 41434.88, 25284.40, -187500.02, -187500.02, -187500.02, -175068.27, -187500.02, -187500.02, 0.000, 0.000, 0.000, 14:53:07.736
5, 41334.95, 25307.00, -187500.02, -187500.02, -187500.02, -175265.31, -187500.02, -187500.02, 0.000, 0.000, 0.000, 14:53:07.736
6, 41589.98, 25410.89, -187500.02, -187500.02, -187500.02, -175224.11, -187500.02, -187500.02, 0.000, 0.000, 0.000, 14:53:07.736
7, 41777.87, 25439.37, -187500.02, -187500.02, -187500.02, -175031.45, -187500.02, -187500.02, 0.000, 0.000, 0.000, 14:53:07.736
8, 41847.58, 25409.44, -187500.02, -187500.02, -187500.02, -174849.44, -187500.02, -187500.02, 0.000, 0.000, 0.000, 14:53:07.736
9, 41448.70, 25275.66, -187500.02, -187500.02, -187500.02, -175020.02, -187500.02, -187500.02, 0.000, 0.000, 0.000, 14:53:07.736
10, 41347.57, 25304.21, -187500.02, -187500.02, -187500.02, -175205.84, -187500.02, -187500.02, 0.000, 0.000, 0.000, 14:53:07.737
11, 41596.10, 25411.50, -187500.02, -187500.02, -187500.02, -175192.67, -187500.02, -187500.02, 0.000, 0.000, 0.000, 14:53:07.737
12, 41770.69, 25435.44, -187500.02, -187500.02, -187500.02, -175009.14, -187500.02, -187500.02, 0.000, 0.000, 0.000, 14:53:07.737
13, 41834.42, 25403.81, -187500.02, -187500.02, -187500.02, -174799.39, -187500.02, -187500.02, -0.018, -0.014, 1.028, 14:53:07.737
14, 41444.85, 25275.78, -187500.02, -187500.02, -187500.02, -175017.86, -187500.02, -187500.02, 0.000, 0.000, 0.000, 14:53:07.737
15, 41354.66, 25311.27, -187500.02, -187500.02, -187500.02, -175249.16, -187500.02, -187500.02, 0.000, 0.000, 0.000, 14:53:07.737
16, 41608.60, 25417.11, -187500.02, -187500.02, -187500.02, -175231.92, -187500.02, -187500.02, 0.000, 0.000, 0.000, 14:53:07.738
17, 41784.62, 25442.50, -187500.02, -187500.02, -187500.02, -175043.03, -187500.02, -187500.02, 0.000, 0.000, 0.000, 14:53:07.738
18, 41831.15, 25405.57, -187500.02, -187500.02, -187500.02, -174861.84, -187500.02, -187500.02, 0.000, 0.000, 0.000, 14:53:07.738
19, 41430.59, 25269.03, -187500.02, -187500.02, -187500.02, -175053.30, -187500.02, -187500.02, 0.000, 0.000, 0.000, 14:53:07.738
20, 41331.14, 25297.73, -187500.02, -187500.02, -187500.02, -175271.98, -187500.02, -187500.02, 0.000, 0.000, 0.000, 14:53:07.738
21, 41587.07, 25411.18, -187500.02, -187500.02, -187500.02, -175220.28, -187500.02, -187500.02, 0.000, 0.000, 0.000, 14:53:07.738
22, 41760.30, 25433.85, -187500.02, -187500.02, -187500.02, -175003.17, -187500.02, -187500.02, 0.000, 0.000, 0.000, 14:53:07.739
23, 41818.01, 25402.49, -187500.02, -187500.02, -187500.02, -174785.30, -187500.02, -187500.02, -0.022, -0.008, 1.028, 14:53:07.739
24, 41446.50, 25291.91, -187500.02, -187500.02, -187500.02, -175013.64, -187500.02, -187500.02, 0.000, 0.000, 0.000, 14:53:07.739
25, 41350.08, 25322.18, -187500.02, -187500.02, -187500.02, -175276.72, -187500.02, -187500.02, 0.000, 0.000, 0.000, 14:53:07.739
26, 41603.75, 25433.18, -187500.02, -187500.02, -187500.02, -175273.64, -187500.02, -187500.02, 0.000, 0.000, 0.000, 14:53:07.739
27, 41777.60, 25456.38, -187500.02, -187500.02, -187500.02, -175074.25, -187500.02, -187500.02, 0.000, 0.000, 0.000, 14:53:07.739
28, 41831.98, 25418.87, -187500.02, -187500.02, -187500.02, -174859.56, -187500.02, -187500.02, 0.000, 0.000, 0.000, 14:53:07.740
29, 41436.29, 25290.19, -187500.02, -187500.02, -187500.02, -175039.72, -187500.02, -187500.02, 0.000, 0.000, 0.000, 14:53:07.740
30, 41326.88, 25312.30, -187500.02, -187500.02, -187500.02, -175235.53, -187500.02, -187500.02, 0.000, 0.000, 0.000, 14:53:07.740
31, 41584.19, 25417.84, -187500.02, -187500.02, -187500.02, -175225.44, -187500.02, -187500.02, 0.000, 0.000, 0.000, 14:53:07.740
32, 41763.07, 25448.27, -187500.02, -187500.02, -187500.02, -175033.13, -187500.02, -187500.02, 0.000, 0.000, 0.000, 14:53:07.740
33, 41822.26, 25408.34, -187500.02, -187500.02, -187500.02, -174818.64, -187500.02, -187500.02, -0.022, -0.010, 1.024, 14:53:07.740
34, 41446.97, 25294.60, -187500.02, -187500.02, -187500.02, -175040.95, -187500.02, -187500.02, 0.000, 0.000, 0.000, 14:53:07.741
35, 41341.88, 25326.89, -187500.02, -187500.02, -187500.02, -175282.67, -187500.02, -187500.02, 0.000, 0.000, 0.000, 14:53:07.741
36, 41596.17, 25434.43, -187500.02, -187500.02, -187500.02, -175233.20, -187500.02, -187500.02, 0.000, 0.000, 0.000, 14:53:07.741
37, 41779.90, 25466.10, -187500.02, -187500.02, -187500.02, -175021.80, -187500.02, -187500.02, 0.000, 0.000, 0.000, 14:53:07.741
38, 41840.03, 25426.43, -187500.02, -187500.02, -187500.02, -174846.88, -187500.02, -187500.02, 0.000, 0.000, 0.000, 14:53:07.741
39, 41445.96, 25289.50, -187500.02, -187500.02, -187500.02, -175050.39, -187500.02, -187500.02, 0.000, 0.000, 0.000, 14:53:07.741
40, 41344.27, 25314.62, -187500.02, -187500.02, -187500.02, -175299.42, -187500.02, -187500.02, 0.000, 0.000, 0.000, 14:53:07.742
41, 41596.95, 25419.88, -187500.02, -187500.02, -187500.02, -175268.11, -187500.02, -187500.02, 0.000, 0.000, 0.000, 14:53:07.742
42, 41779.86, 25448.71, -187500.02, -187500.02, -187500.02, -175084.30, -187500.02, -187500.02, 0.000, 0.000, 0.000, 14:53:07.742
43, 41835.09, 25411.25, -187500.02, -187500.02, -187500.02, -174876.72, -187500.02, -187500.02, -0.024, -0.014, 1.022, 14:53:07.742
44, 41448.94, 25284.98, -187500.02, -187500.02, -187500.02, -175077.98, -187500.02, -187500.02, 0.000, 0.000, 0.000, 14:53:07.742
45, 41343.55, 25308.34, -187500.02, -187500.02, -187500.02, -175292.13, -187500.02, -187500.02, 0.000, 0.000, 0.000, 14:53:07.743
46, 41583.27, 25409.13, -187500.02, -187500.02, -187500.02, -175216.25, -187500.02, -187500.02, 0.000, 0.000, 0.000, 14:53:07.743
47, 41756.57, 25443.39, -187500.02, -187500.02, -187500.02, -175009.95, -187500.02, -187500.02, 0.000, 0.000, 0.000, 14:53:07.743
48, 41819.29, 25412.72, -187500.02, -187500.02, -187500.02, -174818.03, -187500.02, -187500.02, 0.000, 0.000, 0.000, 14:53:07.743
49, 41439.06, 25295.76, -187500.02, -187500.02, -187500.02, -175049.52, -187500.02, -187500.02, 0.000, 0.000, 0.000, 14:53:07.743
50, 41338.28, 25325.20, -187500.02, -187500.02, -187500.02, -175311.19, -187500.02, -187500.02, 0.000, 0.000, 0.000, 14:53:07.743
51, 41582.34, 25426.83, -187500.02, -187500.02, -187500.02, -175293.27, -187500.02, -187500.02, 0.000, 0.000, 0.000, 14:53:07.744
52, 41767.72, 25454.46, -187500.02, -187500.02, -187500.02, -175106.84, -187500.02, -187500.02, 0.000, 0.000, 0.000, 14:53:07.744
53, 41821.77, 25408.03, -187500.02, -187500.02, -187500.02, -174889.34, -187500.02, -187500.02, -0.024, -0.010, 1.022, 14:53:07.744
54, 41427.53, 25280.02, -187500.02, -187500.02, -187500.02, -175077.28, -187500.02, -187500.02, 0.000, 0.000, 0.000, 14:53:07.744
55, 41310.85, 25306.40, -187500.02, -187500.02, -187500.02, -175314.25, -187500.02, -187500.02, 0.000, 0.000, 0.000, 14:53:07.744
56, 41562.38, 25412.66, -187500.02, -187500.02, -187500.02, -175259.70, -187500.02, -187500.02, 0.000, 0.000, 0.000, 14:53:07.744
57, 41752.68, 25449.27, -187500.02, -187500.02, -187500.02, -175083.59, -187500.02, -187500.02, 0.000, 0.000, 0.000, 14:53:07.745
58, 41820.31, 25410.89, -187500.02, -187500.02, -187500.02, -174887.80, -187500.02, -187500.02, 0.000, 0.000, 0.000, 14:53:07.745
59, 41429.14, 25274.86, -187500.02, -187500.02, -187500.02, -175065.77, -187500.02, -187500.02, 0.000, 0.000, 0.000, 14:53:07.745
60, 41310.34, 25295.18, -187500.02, -187500.02, -187500.02, -175287.67, -187500.02, -187500.02, 0.000, 0.000, 0.000, 14:53:07.745
61, 41567.27, 25400.61, -187500.02, -187500.02, -187500.02, -175269.00, -187500.02, -187500.02, 0.000, 0.000, 0.000, 14:53:07.745
62, 41765.35, 25437.58, -187500.02, -187500.02, -187500.02, -175084.14, -187500.02, -187500.02, 0.000, 0.000, 0.000, 14:53:07.745
63, 41827.02, 25403.85, -187500.02, -187500.02, -187500.02, -174826.83, -187500.02, -187500.02, -0.024, -0.008, 1.018, 14:53:07.746
64, 41433.23, 25277.27, -187500.02, -187500.02, -187500.02, -174992.41, -187500.02, -187500.02, 0.000, 0.000, 0.000, 14:53:07.746
65, 41322.09, 25307.92, -187500.02, -187500.02, -187500.02, -175267.75, -187500.02, -187500.02, 0.000, 0.000, 0.000, 14:53:07.746
66, 41577.66, 25413.69, -187500.02, -187500.02, -187500.02, -175275.63, -187500.02, -187500.02, 0.000, 0.000, 0.000, 14:53:07.746
67, 41758.55, 25433.83, -187500.02, -187500.02, -187500.02, -175086.73, -187500.02, -187500.02, 0.000, 0.000, 0.000, 14:53:07.746
68, 41821.01, 25392.68, -187500.02, -187500.02, -187500.02, -174841.59, -187500.02, -187500.02, 0.000, 0.000, 0.000, 14:53:07.747
69, 41441.68, 25279.60, -187500.02, -187500.02, -187500.02, -175045.58, -187500.02, -187500.02, 0.000, 0.000, 0.000, 14:53:07.747
70, 41335.48, 25309.04, -187500.02, -187500.02, -187500.02, -175321.09, -187500.02, -187500.02, 0.000, 0.000, 0.000, 14:53:07.747
71, 41587.01, 25415.90, -187500.02, -187500.02, -187500.02, -175300.95, -187500.02, -187500.02, 0.000, 0.000, 0.000, 14:53:07.747
72, 41772.14, 25447.88, -187500.02, -187500.02, -187500.02, -175095.00, -187500.02, -187500.02, -0.022, -0.012, 1.022, 14:53:07.747
73, 41840.52, 25411.94, -187500.02, -187500.02, -187500.02, -174919.73, -187500.02, -187500.02, 0.000, 0.000, 0.000, 14:53:07.748
74, 41446.48, 25277.83, -187500.02, -187500.02, -187500.02, -175102.64, -187500.02, -187500.02, 0.000, 0.000, 0.000, 14:53:07.748
75, 41329.78, 25299.18, -187500.02, -187500.02, -187500.02, -175325.30, -187500.02, -187500.02, 0.000, 0.000, 0.000, 14:53:08.208
76, 41581.60, 25403.58, -187500.02, -187500.02, -187500.02, -175288.72, -187500.02, -187500.02, 0.000, 0.000, 0.000, 14:53:08.208
77, 41772.75, 25440.53, -187500.02, -187500.02, -187500.02, -175083.02, -187500.02, -187500.02, 0.000, 0.000, 0.000, 14:53:08.208
78, 41838.51, 25408.93, -187500.02, -187500.02, -187500.02, -174868.11, -187500.02, -187500.02, 0.000, 0.000, 0.000, 14:53:08.208
79, 41448.49, 25281.50, -187500.02, -187500.02, -187500.02, -175062.33, -187500.02, -187500.02, 0.000, 0.000, 0.000, 14:53:08.209
80, 41330.09, 25311.20, -187500.02, -187500.02, -187500.02, -175327.84, -187500.02, -187500.02, 0.000, 0.000, 0.000, 14:53:08.209
81, 41574.71, 25407.94, -187500.02, -187500.02, -187500.02, -175296.92, -187500.02, -187500.02, 0.000, 0.000, 0.000, 14:53:08.209
82, 41754.46, 25432.80, -187500.02, -187500.02, -187500.02, -175109.78, -187500.02, -187500.02, -0.016, -0.014, 1.030, 14:53:08.209
83, 41827.36, 25411.74, -187500.02, -187500.02, -187500.02, -174903.83, -187500.02, -187500.02, 0.000, 0.000, 0.000, 14:53:08.209
84, 41444.76, 25285.95, -187500.02, -187500.02, -187500.02, -175086.94, -187500.02, -187500.02, 0.000, 0.000, 0.000, 14:53:08.209
85, 41320.28, 25305.55, -187500.02, -187500.02, -187500.02, -175307.44, -187500.02, -187500.02, 0.000, 0.000, 0.000, 14:53:08.210
86, 41567.89, 25415.30, -187500.02, -187500.02, -187500.02, -175274.17, -187500.02, -187500.02, 0.000, 0.000, 0.000, 14:53:08.210
87, 41755.70, 25450.57, -187500.02, -187500.02, -187500.02, -175107.38, -187500.02, -187500.02, 0.000, 0.000, 0.000, 14:53:08.210
88, 41827.11, 25414.00, -187500.02, -187500.02, -187500.02, -174915.67, -187500.02, -187500.02, 0.000, 0.000, 0.000, 14:53:08.210
89, 41436.36, 25277.47, -187500.02, -187500.02, -187500.02, -175080.25, -187500.02, -187500.02, 0.000, 0.000, 0.000, 14:53:08.210
90, 41321.54, 25302.29, -187500.02, -187500.02, -187500.02, -175311.94, -187500.02, -187500.02, 0.000, 0.000, 0.000, 14:53:08.210
91, 41579.25, 25416.46, -187500.02, -187500.02, -187500.02, -175301.58, -187500.02, -187500.02, 0.000, 0.000, 0.000, 14:53:08.211
92, 41763.70, 25448.51, -187500.02, -187500.02, -187500.02, -175111.20, -187500.02, -187500.02, -0.016, -0.010, 1.022, 14:53:08.211
93, 41837.75, 25415.34, -187500.02, -187500.02, -187500.02, -174888.30, -187500.02, -187500.02, 0.000, 0.000, 0.000, 14:53:08.211
94, 41463.36, 25297.66, -187500.02, -187500.02, -187500.02, -175087.42, -187500.02, -187500.02, 0.000, 0.000, 0.000, 14:53:08.211
95, 41341.96, 25322.20, -187500.02, -187500.02, -187500.02, -175338.03, -187500.02, -187500.02, 0.000, 0.000, 0.000, 14:53:08.211
96, 41590.45, 25429.98, -187500.02, -187500.02, -187500.02, -175357.19, -187500.02, -187500.02, 0.000, 0.000, 0.000, 14:53:08.212
97, 41769.24, 25457.32, -187500.02, -187500.02, -187500.02, -175156.06, -187500.02, -187500.02, 0.000, 0.000, 0.000, 14:53:08.212
98, 41838.84, 25421.44, -187500.02, -187500.02, -187500.02, -174927.23, -187500.02, -187500.02, 0.000, 0.000, 0.000, 14:53:08.212
99, 41453.30, 25291.89, -187500.02, -187500.02, -187500.02, -175113.33, -187500.02, -187500.02, 0.000, 0.000, 0.000, 14:53:08.212
100, 41328.66, 25304.81, -187500.02, -187500.02, -187500.02, -175328.95, -187500.02, -187500.02, 0.000, 0.000, 0.000, 14:53:08.212
101, 41591.30, 25418.76, -187500.02, -187500.02, -187500.02, -175310.56, -187500.02, -187500.02, 0.000, 0.000, 0.000, 14:53:08.212
102, 41774.65, 25446.74, -187500.02, -187500.02, -187500.02, -175125.02, -187500.02, -187500.02, -0.024, -0.016, 1.028, 14:53:08.213
103, 41851.76, 25417.13, -187500.02, -187500.02, -187500.02, -174914.59, -187500.02, -187500.02, 0.000, 0.000, 0.000, 14:53:08.213
104, 41457.84, 25277.92, -187500.02, -187500.02, -187500.02, -175081.59, -187500.02, -187500.02, 0.000, 0.000, 0.000, 14:53:08.213
105, 41338.59, 25304.92, -187500.02, -187500.02, -187500.02, -175311.98, -187500.02, -187500.02, 0.000, 0.000, 0.000, 14:53:08.213
106, 41596.44, 25422.02, -187500.02, -187500.02, -187500.02, -175314.16, -187500.02, -187500.02, 0.000, 0.000, 0.000, 14:53:08.213
107, 41774.25, 25453.81, -187500.02, -187500.02, -187500.02, -175117.47, -187500.02, -187500.02, 0.000, 0.000, 0.000, 14:53:08.213
108, 41848.86, 25424.19, -187500.02, -187500.02, -187500.02, -174900.81, -187500.02, -187500.02, 0.000, 0.000, 0.000, 14:53:08.214
109, 41469.64, 25297.79, -187500.02, -187500.02, -187500.02, -175085.81, -187500.02, -187500.02, 0.000, 0.000, 0.000, 14:53:08.214
110, 41336.29, 25308.46, -187500.02, -187500.02, -187500.02, -175325.06, -187500.02, -187500.02, 0.000, 0.000, 0.000, 14:53:08.214
111, 41586.34, 25413.22, -187500.02, -187500.02, -187500.02, -175291.27, -187500.02, -187500.02, 0.000, 0.000, 0.000, 14:53:08.214
112, 41771.25, 25445.40, -187500.02, -187500.02, -187500.02, -175098.52, -187500.02, -187500.02, -0.024, -0.018, 1.032, 14:53:08.214
113, 41845.13, 25419.36, -187500.02, -187500.02, -187500.02, -174882.70, -187500.02, -187500.02, 0.000, 0.000, 0.000, 14:53:08.215
114, 41471.09, 25298.31, -187500.02, -187500.02, -187500.02, -175079.95, -187500.02, -187500.02, 0.000, 0.000, 0.000, 14:53:08.215
115, 41352.94, 25320.75, -187500.02, -187500.02, -187500.02, -175335.02, -187500.02, -187500.02, 0.000, 0.000, 0.000, 14:53:08.215
116, 41600.02, 25427.39, -187500.02, -187500.02, -187500.02, -175329.61, -187500.02, -187500.02, 0.000, 0.000, 0.000, 14:53:08.215
117, 41779.72, 25468.18, -187500.02, -187500.02, -187500.02, -175159.16, -187500.02, -187500.02, 0.000, 0.000, 0.000, 14:53:08.215
118, 41856.23, 25436.26, -187500.02, -187500.02, -187500.02, -174985.00, -187500.02, -187500.02, 0.000, 0.000, 0.000, 14:53:08.216
119, 41470.96, 25304.88, -187500.02, -187500.02, -187500.02, -175156.31, -187500.02, -187500.02, 0.000, 0.000, 0.000, 14:53:08.216
120, 41328.62, 25320.88, -187500.02, -187500.02, -187500.02, -175388.88, -187500.02, -187500.02, 0.000, 0.000, 0.000, 14:53:08.216
121, 41577.48, 25434.18, -187500.02, -187500.02, -187500.02, -175391.20, -187500.02, -187500.02, 0.000, 0.000, 0.000, 14:53:08.216
122, 41769.51, 25471.82, -187500.02, -187500.02, -187500.02, -175219.66, -187500.02, -187500.02, -0.020, -0.016, 1.030, 14:53:08.216
123, 41838.80, 25425.58, -187500.02, -187500.02, -187500.02, -174967.64, -187500.02, -187500.02, 0.000, 0.000, 0.000, 14:53:08.216
124, 41454.08, 25298.51, -187500.02, -187500.02, -187500.02, -175131.14, -187500.02, -187500.02, 0.000, 0.000, 0.000, 14:53:08.217
125, 41320.75, 25318.11, -187500.02, -187500.02, -187500.02, -175364.16, -187500.02, -187500.02, 0.000, 0.000, 0.000, 14:53:08.217
126, 41577.95, 25434.18, -187500.02, -187500.02, -187500.02, -175320.50, -187500.02, -187500.02, 0.000, 0.000, 0.000, 14:53:08.217
127, 41761.13, 25472.74, -187500.02, -187500.02, -187500.02, -175123.56, -187500.02, -187500.02, 0.000, 0.000, 0.000, 14:53:08.217
128, 41839.11, 25443.32, -187500.02, -187500.02, -187500.02, -174913.33, -187500.02, -187500.02, 0.000, 0.000, 0.000, 14:53:08.217
129, 41459.54, 25311.52, -187500.02, -187500.02, -187500.02, -175112.55, -187500.02, -187500.02, 0.000, 0.000, 0.000, 14:53:08.217
130, 41323.28, 25322.36, -187500.02, -187500.02, -187500.02, -175345.55, -187500.02, -187500.02, 0.000, 0.000, 0.000, 14:53:08.218
131, 41571.74, 25434.52, -187500.02, -187500.02, -187500.02, -175355.75, -187500.02, -187500.02, 0.000, 0.000, 0.000, 14:53:08.218
132, 41755.16, 25466.55, -187500.02, -187500.02, -187500.02, -175165.67, -187500.02, -187500.02, -0.020, -0.018, 1.030, 14:53:08.218
133, 41834.29, 25430.50, -187500.02, -187500.02, -187500.02, -174933.67, -187500.02, -187500.02, 0.000, 0.000, 0.000, 14:53:08.218
134, 41455.24, 25297.84, -187500.02, -187500.02, -187500.02, -175098.36, -187500.02, -187500.02, 0.000, 0.000, 0.000, 14:53:08.218
135, 41316.37, 25316.19, -187500.02, -187500.02, -187500.02, -175340.63, -187500.02, -187500.02, 0.000, 0.000, 0.000, 14:53:08.219
136, 41562.13, 25424.95, -187500.02, -187500.02, -187500.02, -175344.42, -187500.02, -187500.02, 0.000, 0.000, 0.000, 14:53:08.219
137, 41750.20, 25459.29, -187500.02, -187500.02, -187500.02, -175120.64, -187500.02, -187500.02, 0.000, 0.000, 0.000, 14:53:08.219
138, 41836.79, 25436.24, -187500.02, -187500.02, -187500.02, -174888.25, -187500.02, -187500.02, 0.000, 0.000, 0.000, 14:53:08.219
139, 41465.23, 25313.44, -187500.02, -187500.02, -187500.02, -175084.50, -187500.02, -187500.02, 0.000, 0.000, 0.000, 14:53:08.219
140, 41336.00, 25338.36, -187500.02, -187500.02, -187500.02, -175388.03, -187500.02, -187500.02, 0.000, 0.000, 0.000, 14:53:08.219
141, 41573.24, 25439.17, -187500.02, -187500.02, -187500.02, -175367.33, -187500.02, -187500.02, 0.000, 0.000, 0.000, 14:53:08.220
142, 41755.80, 25471.73, -187500.02, -187500.02, -187500.02, -175196.66, -187500.02, -187500.02, -0.020, -0.016, 1.030, 14:53:08.220
143, 41830.89, 25436.35, -187500.02, -187500.02, -187500.02, -174979.06, -187500.02, -187500.02, 0.000, 0.000, 0.000, 14:53:08.220
144, 41440.78, 25291.62, -187500.02, -187500.02, -187500.02, -175112.61, -187500.02, -187500.02, 0.000, 0.000, 0.000, 14:53:08.220
145, 41304.99, 25312.14, -187500.02, -187500.02, -187500.02, -175357.23, -187500.02, -187500.02, 0.000, 0.000, 0.000, 14:53:08.220
146, 41568.43, 25431.54, -187500.02, -187500.02, -187500.02, -175385.81, -187500.02, -187500.02, 0.000, 0.000, 0.000, 14:53:08.221
147, 41762.29, 25468.56, -187500.02, -187500.02, -187500.02, -175202.02, -187500.02, -187500.02, 0.000, 0.000, 0.000, 14:53:08.221
