%OpenBCI Raw EEG Data
%
%Sample Rate = 250.0 Hz
%First Column = SampleIndex
%Last Column = Timestamp 
%Other Columns = EEG data in microvolts followed by Accel Data (in G) interleaved with Aux Data
0, 96636.49, 67128.97, -187500.02, -187500.02, -187500.02, -187500.02, -187500.02, -187500.02, 0.020, 0.060, -1.044, 15:44:12.662
1, 96152.82, 66615.66, -187500.02, -187500.02, -187500.02, -187500.02, -187500.02, -187500.02, 0.000, 0.000, 0.000, 15:44:12.663
2, 97441.63, 68196.76, -187500.02, -187500.02, -187500.02, -187500.02, -187500.02, -187500.02, 0.000, 0.000, 0.000, 15:44:12.663
3, 97909.89, 68703.83, -187500.02, -187500.02, -187500.02, -187500.02, -187500.02, -187500.02, 0.000, 0.000, 0.000, 15:44:12.663
4, 97566.88, 68259.23, -187500.02, -187500.02, -187500.02, -187500.02, -187500.02, -187500.02, 0.000, 0.000, 0.000, 15:44:12.663
5, 96647.51, 67140.28, -187500.02, -187500.02, -187500.02, -187500.02, -187500.02, -187500.02, 0.000, 0.000, 0.000, 15:44:12.663
6, 96168.63, 66626.03, -187500.02, -187500.02, -187500.02, -187500.02, -187500.02, -187500.02, 0.000, 0.000, 0.000, 15:44:12.664
7, 97457.47, 68205.88, -187500.02, -187500.02, -187500.02, -187500.02, -187500.02, -187500.02, 0.020, 0.040, -1.012, 15:44:12.664
8, 97916.62, 68703.76, -187500.02, -187500.02, -187500.02, -187500.02, -187500.02, -187500.02, 0.000, 0.000, 0.000, 15:44:12.664
9, 97581.56, 68260.23, -187500.02, -187500.02, -187500.02, -187500.02, -187500.02, -187500.02, 0.000, 0.000, 0.000, 15:44:12.664
10, 96661.37, 67141.84, -187500.02, -187500.02, -187500.02, -187500.02, -187500.02, -187500.02, 0.000, 0.000, 0.000, 15:44:12.664
11, 96164.45, 66612.13, -187500.02, -187500.02, -187500.02, -187500.02, -187500.02, -187500.02, 0.000, 0.000, 0.000, 15:44:12.664
12, 97458.95, 68193.74, -187500.02, -187500.02, -187500.02, -187500.02, -187500.02, -187500.02, 0.000, 0.000, 0.000, 15:44:12.665
13, 97932.73, 68706.87, -187500.02, -187500.02, -187500.02, -187500.02, -187500.02, -187500.02, 0.000, 0.000, 0.000, 15:44:12.665
14, 97586.70, 68257.40, -187500.02, -187500.02, -187500.02, -187500.02, -187500.02, -187500.02, 0.000, 0.000, 0.000, 15:44:12.665
15, 96666.28, 67135.61, -187500.02, -187500.02, -187500.02, -187500.02, -187500.02, -187500.02, 0.000, 0.000, 0.000, 15:44:12.665
16, 96172.13, 66605.89, -187500.02, -187500.02, -187500.02, -187500.02, -187500.02, -187500.02, 0.000, 0.000, 0.000, 15:44:12.665
17, 97461.36, 68189.98, -187500.02, -187500.02, -187500.02, -187500.02, -187500.02, -187500.02, 0.020, 0.038, -1.016, 15:44:12.666
18, 97942.23, 68711.09, -187500.02, -187500.02, -187500.02, -187500.02, -187500.02, -187500.02, 0.000, 0.000, 0.000, 15:44:12.666
19, 97606.91, 68264.66, -187500.02, -187500.02, -187500.02, -187500.02, -187500.02, -187500.02, 0.000, 0.000, 0.000, 15:44:12.666
20, 96685.89, 67147.77, -187500.02, -187500.02, -187500.02, -187500.02, -187500.02, -187500.02, 0.000, 0.000, 0.000, 15:44:12.666
21, 96189.74, 66615.41, -187500.02, -187500.02, -187500.02, -187500.02, -187500.02, -187500.02, 0.000, 0.000, 0.000, 15:44:12.666
22, 97488.49, 68204.55, -187500.02, -187500.02, -187500.02, -187500.02, -187500.02, -187500.02, 0.000, 0.000, 0.000, 15:44:12.666
23, 97972.74, 68730.20, -187500.02, -187500.02, -187500.02, -187500.02, -187500.02, -187500.02, 0.000, 0.000, 0.000, 15:44:12.667
24, 97638.20, 68287.86, -187500.02, -187500.02, -187500.02, -187500.02, -187500.02, -187500.02, 0.000, 0.000, 0.000, 15:44:12.667
25, 96725.30, 67181.05, -187500.02, -187500.02, -187500.02, -187500.02, -187500.02, -187500.02, 0.000, 0.000, 0.000, 15:44:12.667
26, 96227.01, 66646.10, -187500.02, -187500.02, -187500.02, -187500.02, -187500.02, -187500.02, 0.014, 0.046, -1.024, 15:44:12.667
27, 97508.23, 68218.64, -187500.02, -187500.02, -187500.02, -187500.02, -187500.02, -187500.02, 0.000, 0.000, 0.000, 15:44:12.667
28, 97985.91, 68739.91, -187500.02, -187500.02, -187500.02, -187500.02, -187500.02, -187500.02, 0.000, 0.000, 0.000, 15:44:12.667
29, 97644.24, 68297.14, -187500.02, -187500.02, -187500.02, -187500.02, -187500.02, -187500.02, 0.000, 0.000, 0.000, 15:44:12.668
30, 96745.79, 67197.63, -187500.02, -187500.02, -187500.02, -187500.02, -187500.02, -187500.02, 0.000, 0.000, 0.000, 15:44:12.668
31, 96223.63, 66632.54, -187500.02, -187500.02, -187500.02, -187500.02, -187500.02, -187500.02, 0.000, 0.000, 0.000, 15:44:12.668
32, 97508.34, 68206.75, -187500.02, -187500.02, -187500.02, -187500.02, -187500.02, -187500.02, 0.000, 0.000, 0.000, 15:44:12.668
33, 98001.80, 68746.27, -187500.02, -187500.02, -187500.02, -187500.02, -187500.02, -187500.02, 0.000, 0.000, 0.000, 15:44:12.668
34, 97666.66, 68306.48, -187500.02, -187500.02, -187500.02, -187500.02, -187500.02, -187500.02, 0.000, 0.000, 0.000, 15:44:12.668
35, 96758.17, 67198.15, -187500.02, -187500.02, -187500.02, -187500.02, -187500.02, -187500.02, 0.000, 0.000, 0.000, 15:44:12.668
36, 96236.15, 66630.55, -187500.02, -187500.02, -187500.02, -187500.02, -187500.02, -187500.02, 0.018, 0.054, -1.024, 15:44:12.668
37, 97523.07, 68208.16, -187500.02, -187500.02, -187500.02, -187500.02, -187500.02, -187500.02, 0.000, 0.000, 0.000, 15:44:12.669
38, 98013.38, 68740.82, -187500.02, -187500.02, -187500.02, -187500.02, -187500.02, -187500.02, 0.000, 0.000, 0.000, 15:44:12.669
39, 97672.07, 68291.87, -187500.02, -187500.02, -187500.02, -187500.02, -187500.02, -187500.02, 0.000, 0.000, 0.000, 15:44:12.669
40, 96766.53, 67194.35, -187500.02, -187500.02, -187500.02, -187500.02, -187500.02, -187500.02, 0.000, 0.000, 0.000, 15:44:12.669
41, 96248.15, 66631.11, -187500.02, -187500.02, -187500.02, -187500.02, -187500.02, -187500.02, 0.000, 0.000, 0.000, 15:44:12.669
42, 97531.03, 68203.59, -187500.02, -187500.02, -187500.02, -187500.02, -187500.02, -187500.02, 0.000, 0.000, 0.000, 15:44:12.669
43, 98022.88, 68735.86, -187500.02, -187500.02, -187500.02, -187500.02, -187500.02, -187500.02, 0.000, 0.000, 0.000, 15:44:12.669
44, 97700.32, 68306.46, -187500.02, -187500.02, -187500.02, -187500.02, -187500.02, -187500.02, 0.000, 0.000, 0.000, 15:44:12.669
45, 96794.83, 67203.34, -187500.02, -187500.02, -187500.02, -187500.02, -187500.02, -187500.02, 0.000, 0.000, 0.000, 15:44:12.670
46, 96269.43, 66633.97, -187500.02, -187500.02, -187500.02, -187500.02, -187500.02, -187500.02, 0.018, 0.058, -1.030, 15:44:12.670
47, 97552.38, 68211.40, -187500.02, -187500.02, -187500.02, -187500.02, -187500.02, -187500.02, 0.000, 0.000, 0.000, 15:44:12.670
48, 98048.38, 68748.40, -187500.02, -187500.02, -187500.02, -187500.02, -187500.02, -187500.02, 0.000, 0.000, 0.000, 15:44:12.670
49, 97718.65, 68310.91, -187500.02, -187500.02, -187500.02, -187500.02, -187500.02, -187500.02, 0.000, 0.000, 0.000, 15:44:12.670
50, 96808.40, 67206.26, -187500.02, -187500.02, -187500.02, -187500.02, -187500.02, -187500.02, 0.000, 0.000, 0.000, 15:44:12.670
51, 96279.17, 66633.09, -187500.02, -187500.02, -187500.02, -187500.02, -187500.02, -187500.02, 0.000, 0.000, 0.000, 15:44:12.670
52, 97561.85, 68204.11, -187500.02, -187500.02, -187500.02, -187500.02, -187500.02, -187500.02, 0.000, 0.000, 0.000, 15:44:12.671
53, 98057.34, 68742.54, -187500.02, -187500.02, -187500.02, -187500.02, -187500.02, -187500.02, 0.000, 0.000, 0.000, 15:44:12.671
54, 97733.58, 68320.14, -187500.02, -187500.02, -187500.02, -187500.02, -187500.02, -187500.02, 0.000, 0.000, 0.000, 15:44:12.671
55, 96829.25, 67217.70, -187500.02, -187500.02, -187500.02, -187500.02, -187500.02, -187500.02, 0.000, 0.000, 0.000, 15:44:12.671
56, 96292.54, 66633.48, -187500.02, -187500.02, -187500.02, -187500.02, -187500.02, -187500.02, 0.024, 0.052, -1.034, 15:44:12.671
57, 97551.34, 68186.34, -187500.02, -187500.02, -187500.02, -187500.02, -187500.02, -187500.02, 0.000, 0.000, 0.000, 15:44:12.671
58, 98061.81, 68738.16, -187500.02, -187500.02, -187500.02, -187500.02, -187500.02, -187500.02, 0.000, 0.000, 0.000, 15:44:12.671
59, 97741.70, 68315.51, -187500.02, -187500.02, -187500.02, -187500.02, -187500.02, -187500.02, 0.000, 0.000, 0.000, 15:44:12.671
60, 96839.60, 67221.84, -187500.02, -187500.02, -187500.02, -187500.02, -187500.02, -187500.02, 0.000, 0.000, 0.000, 15:44:12.673
61, 96304.81, 66643.40, -187500.02, -187500.02, -187500.02, -187500.02, -187500.02, -187500.02, 0.000, 0.000, 0.000, 15:44:12.673
62, 97571.30, 68197.72, -187500.02, -187500.02, -187500.02, -187500.02, -187500.02, -187500.02, 0.000, 0.000, 0.000, 15:44:12.673
63, 98076.61, 68748.02, -187500.02, -187500.02, -187500.02, -187500.02, -187500.02, -187500.02, 0.000, 0.000, 0.000, 15:44:12.674
64, 97755.55, 68324.01, -187500.02, -187500.02, -187500.02, -187500.02, -187500.02, -187500.02, 0.000, 0.000, 0.000, 15:44:12.674
65, 96846.93, 67218.82, -187500.02, -187500.02, -187500.02, -187500.02, -187500.02, -187500.02, 0.000, 0.000, 0.000, 15:44:12.674
66, 96312.23, 66637.84, -187500.02, -187500.02, -187500.02, -187500.02, -187500.02, -187500.02, 0.026, 0.046, -1.032, 15:44:12.674
67, 97586.17, 68200.22, -187500.02, -187500.02, -187500.02, -187500.02, -187500.02, -187500.02, 0.000, 0.000, 0.000, 15:44:12.674
68, 98104.15, 68768.54, -187500.02, -187500.02, -187500.02, -187500.02, -187500.02, -187500.02, 0.000, 0.000, 0.000, 15:44:12.674
69, 97760.41, 68319.70, -187500.02, -187500.02, -187500.02, -187500.02, -187500.02, -187500.02, 0.000, 0.000, 0.000, 15:44:12.674
70, 96872.03, 67233.45, -187500.02, -187500.02, -187500.02, -187500.02, -187500.02, -187500.02, 0.000, 0.000, 0.000, 15:44:12.674
71, 96331.79, 66648.23, -187500.02, -187500.02, -187500.02, -187500.02, -187500.02, -187500.02, 0.000, 0.000, 0.000, 15:44:12.675
72, 97597.91, 68202.05, -187500.02, -187500.02, -187500.02, -187500.02, -187500.02, -187500.02, 0.000, 0.000, 0.000, 15:44:12.675
73, 98114.90, 68759.55, -187500.02, -187500.02, -187500.02, -187500.02, -187500.02, -187500.02, 0.000, 0.000, 0.000, 15:44:12.675
74, 97791.02, 68335.27, -187500.02, -187500.02, -187500.02, -187500.02, -187500.02, -187500.02, 0.000, 0.000, 0.000, 15:44:12.675
75, 96893.38, 67248.75, -187500.02, -187500.02, -187500.02, -187500.02, -187500.02, -187500.02, 0.000, 0.000, 0.000, 15:44:12.675
76, 96341.76, 66645.37, -187500.02, -187500.02, -187500.02, -187500.02, -187500.02, -187500.02, 0.024, 0.048, -1.026, 15:44:12.675
77, 97613.06, 68205.81, -187500.02, -187500.02, -187500.02, -187500.02, -187500.02, -187500.02, 0.000, 0.000, 0.000, 15:44:12.675
78, 98134.64, 68773.79, -187500.02, -187500.02, -187500.02, -187500.02, -187500.02, -187500.02, 0.000, 0.000, 0.000, 15:44:12.675
79, 97804.15, 68335.56, -187500.02, -187500.02, -187500.02, -187500.02, -187500.02, -187500.02, 0.000, 0.000, 0.000, 15:44:12.675
80, 96898.79, 67229.22, -187500.02, -187500.02, -187500.02, -187500.02, -187500.02, -187500.02, 0.000, 0.000, 0.000, 15:44:12.676
81, 96348.48, 66636.56, -187500.02, -187500.02, -187500.02, -187500.02, -187500.02, -187500.02, 0.000, 0.000, 0.000, 15:44:12.676
82, 97610.09, 68193.90, -187500.02, -187500.02, -187500.02, -187500.02, -187500.02, -187500.02, 0.000, 0.000, 0.000, 15:44:12.676
83, 98128.83, 68761.20, -187500.02, -187500.02, -187500.02, -187500.02, -187500.02, -187500.02, 0.000, 0.000, 0.000, 15:44:12.676
84, 97802.76, 68325.52, -187500.02, -187500.02, -187500.02, -187500.02, -187500.02, -187500.02, 0.000, 0.000, 0.000, 15:44:12.676
85, 96912.55, 67247.05, -187500.02, -187500.02, -187500.02, -187500.02, -187500.02, -187500.02, 0.000, 0.000, 0.000, 15:44:12.676
86, 96352.51, 66635.82, -187500.02, -187500.02, -187500.02, -187500.02, -187500.02, -187500.02, 0.022, 0.048, -1.018, 15:44:12.676
87, 97614.49, 68187.64, -187500.02, -187500.02, -187500.02, -187500.02, -187500.02, -187500.02, 0.000, 0.000, 0.000, 15:44:12.676
88, 98140.05, 68762.57, -187500.02, -187500.02, -187500.02, -187500.02, -187500.02, -187500.02, 0.000, 0.000, 0.000, 15:44:12.677
89, 97818.14, 68340.63, -187500.02, -187500.02, -187500.02, -187500.02, -187500.02, -187500.02, 0.000, 0.000, 0.000, 15:44:12.677
90, 96929.99, 67255.80, -187500.02, -187500.02, -187500.02, -187500.02, -187500.02, -187500.02, 0.000, 0.000, 0.000, 15:44:12.677
91, 96364.05, 66637.14, -187500.02, -187500.02, -187500.02, -187500.02, -187500.02, -187500.02, 0.000, 0.000, 0.000, 15:44:12.677
92, 97624.73, 68186.12, -187500.02, -187500.02, -187500.02, -187500.02, -187500.02, -187500.02, 0.000, 0.000, 0.000, 15:44:12.677
93, 98159.25, 68774.28, -187500.02, -187500.02, -187500.02, -187500.02, -187500.02, -187500.02, 0.000, 0.000, 0.000, 15:44:12.677
94, 97835.62, 68343.12, -187500.02, -187500.02, -187500.02, -187500.02, -187500.02, -187500.02, 0.000, 0.000, 0.000, 15:44:12.677
95, 96944.92, 67254.90, -187500.02, -187500.02, -187500.02, -187500.02, -187500.02, -187500.02, 0.000, 0.000, 0.000, 15:44:12.677
96, 96377.99, 66641.14, -187500.02, -187500.02, -187500.02, -187500.02, -187500.02, -187500.02, 0.024, 0.052, -1.020, 15:44:12.678
97, 97640.77, 68197.59, -187500.02, -187500.02, -187500.02, -187500.02, -187500.02, -187500.02, 0.000, 0.000, 0.000, 15:44:12.678
98, 98176.81, 68773.63, -187500.02, -187500.02, -187500.02, -187500.02, -187500.02, -187500.02, 0.000, 0.000, 0.000, 15:44:12.678
99, 97847.66, 68340.30, -187500.02, -187500.02, -187500.02, -187500.02, -187500.02, -187500.02, 0.000, 0.000, 0.000, 15:44:12.678
100, 96961.51, 67261.63, -187500.02, -187500.02, -187500.02, -187500.02, -187500.02, -187500.02, 0.000, 0.000, 0.000, 15:44:12.678
101, 96382.91, 66623.02, -187500.02, -187500.02, -187500.02, -187500.02, -187500.02, -187500.02, 0.000, 0.000, 0.000, 15:44:12.678
102, 97648.91, 68187.03, -187500.02, -187500.02, -187500.02, -187500.02, -187500.02, -187500.02, 0.000, 0.000, 0.000, 15:44:12.678
103, 98179.09, 68771.30, -187500.02, -187500.02, -187500.02, -187500.02, -187500.02, -187500.02, 0.000, 0.000, 0.000, 15:44:12.679
104, 97849.98, 68336.05, -187500.02, -187500.02, -187500.02, -187500.02, -187500.02, -187500.02, 0.000, 0.000, 0.000, 15:44:12.679
105, 96965.02, 67261.52, -187500.02, -187500.02, -187500.02, -187500.02, -187500.02, -187500.02, 0.000, 0.000, 0.000, 15:44:12.679
106, 96389.52, 66631.13, -187500.02, -187500.02, -187500.02, -187500.02, -187500.02, -187500.02, 0.022, 0.054, -1.022, 15:44:12.679
107, 97646.30, 68178.02, -187500.02, -187500.02, -187500.02, -187500.02, -187500.02, -187500.02, 0.000, 0.000, 0.000, 15:44:12.679
108, 98193.36, 68777.84, -187500.02, -187500.02, -187500.02, -187500.02, -187500.02, -187500.02, 0.000, 0.000, 0.000, 15:44:12.679
109, 97867.87, 68343.98, -187500.02, -187500.02, -187500.02, -187500.02, -187500.02, -187500.02, 0.000, 0.000, 0.000, 15:44:12.679
110, 96988.38, 67270.52, -187500.02, -187500.02, -187500.02, -187500.02, -187500.02, -187500.02, 0.000, 0.000, 0.000, 15:44:12.679
111, 96409.40, 66640.96, -187500.02, -187500.02, -187500.02, -187500.02, -187500.02, -187500.02, 0.000, 0.000, 0.000, 15:44:12.679
112, 97669.90, 68192.94, -187500.02, -187500.02, -187500.02, -187500.02, -187500.02, -187500.02, 0.000, 0.000, 0.000, 15:44:12.680
113, 98215.71, 68791.45, -187500.02, -187500.02, -187500.02, -187500.02, -187500.02, -187500.02, 0.000, 0.000, 0.000, 15:44:12.680
114, 97884.90, 68358.07, -187500.02, -187500.02, -187500.02, -187500.02, -187500.02, -187500.02, 0.000, 0.000, 0.000, 15:44:12.680
115, 97001.72, 67285.48, -187500.02, -187500.02, -187500.02, -187500.02, -187500.02, -187500.02, 0.000, 0.000, 0.000, 15:44:12.680
116, 96412.50, 66637.37, -187500.02, -187500.02, -187500.02, -187500.02, -187500.02, -187500.02, 0.024, 0.060, -1.028, 15:44:12.680
117, 97667.13, 68180.71, -187500.02, -187500.02, -187500.02, -187500.02, -187500.02, -187500.02, 0.000, 0.000, 0.000, 15:44:12.680
118, 98213.52, 68783.34, -187500.02, -187500.02, -187500.02, -187500.02, -187500.02, -187500.02, 0.000, 0.000, 0.000, 15:44:12.680
119, 97887.61, 68351.50, -187500.02, -187500.02, -187500.02, -187500.02, -187500.02, -187500.02, 0.000, 0.000, 0.000, 15:44:12.680
120, 97015.48, 67293.50, -187500.02, -187500.02, -187500.02, -187500.02, -187500.02, -187500.02, 0.000, 0.000, 0.000, 15:44:13.142
121, 96425.78, 66646.51, -187500.02, -187500.02, -187500.02, -187500.02, -187500.02, -187500.02, 0.000, 0.000, 0.000, 15:44:13.142
122, 97669.92, 68183.08, -187500.02, -187500.02, -187500.02, -187500.02, -187500.02, -187500.02, 0.000, 0.000, 0.000, 15:44:13.142
123, 98221.23, 68786.84, -187500.02, -187500.02, -187500.02, -187500.02, -187500.02, -187500.02, 0.000, 0.000, 0.000, 15:44:13.142
124, 97902.41, 68361.40, -187500.02, -187500.02, -187500.02, -187500.02, -187500.02, -187500.02, 0.000, 0.000, 0.000, 15:44:13.142
125, 97025.14, 67299.11, -187500.02, -187500.02, -187500.02, -187500.02, -187500.02, -187500.02, 0.000, 0.000, 0.000, 15:44:13.142
126, 96423.14, 66639.76, -187500.02, -187500.02, -187500.02, -187500.02, -187500.02, -187500.02, 0.024, 0.058, -1.024, 15:44:13.142
127, 97675.48, 68176.39, -187500.02, -187500.02, -187500.02, -187500.02, -187500.02, -187500.02, 0.000, 0.000, 0.000, 15:44:13.143
128, 98231.64, 68789.03, -187500.02, -187500.02, -187500.02, -187500.02, -187500.02, -187500.02, 0.000, 0.000, 0.000, 15:44:13.143
129, 97904.41, 68365.34, -187500.02, -187500.02, -187500.02, -187500.02, -187500.02, -187500.02, 0.000, 0.000, 0.000, 15:44:13.143
130, 97026.88, 67296.81, -187500.02, -187500.02, -187500.02, -187500.02, -187500.02, -187500.02, 0.000, 0.000, 0.000, 15:44:13.143
131, 96427.34, 66633.30, -187500.02, -187500.02, -187500.02, -187500.02, -187500.02, -187500.02, 0.000, 0.000, 0.000, 15:44:13.143
132, 97667.04, 68162.02, -187500.02, -187500.02, -187500.02, -187500.02, -187500.02, -187500.02, 0.000, 0.000, 0.000, 15:44:13.143
133, 98229.90, 68783.49, -187500.02, -187500.02, -187500.02, -187500.02, -187500.02, -187500.02, 0.000, 0.000, 0.000, 15:44:13.143
134, 97915.77, 68373.56, -187500.02, -187500.02, -187500.02, -187500.02, -187500.02, -187500.02, 0.000, 0.000, 0.000, 15:44:13.143
135, 97042.24, 67310.22, -187500.02, -187500.02, -187500.02, -187500.02, -187500.02, -187500.02, 0.000, 0.000, 0.000, 15:44:13.144
136, 96443.62, 66649.81, -187500.02, -187500.02, -187500.02, -187500.02, -187500.02, -187500.02, 0.020, 0.056, -1.028, 15:44:13.144
137, 97681.77, 68178.72, -187500.02, -187500.02, -187500.02, -187500.02, -187500.02, -187500.02, 0.000, 0.000, 0.000, 15:44:13.144
138, 98250.17, 68801.59, -187500.02, -187500.02, -187500.02, -187500.02, -187500.02, -187500.02, 0.000, 0.000, 0.000, 15:44:13.144
139, 97926.43, 68378.27, -187500.02, -187500.02, -187500.02, -187500.02, -187500.02, -187500.02, 0.000, 0.000, 0.000, 15:44:13.144
140, 97052.81, 67312.05, -187500.02, -187500.02, -187500.02, -187500.02, -187500.02, -187500.02, 0.000, 0.000, 0.000, 15:44:13.144
141, 96450.70, 66652.09, -187500.02, -187500.02, -187500.02, -187500.02, -187500.02, -187500.02, 0.000, 0.000, 0.000, 15:44:13.144
142, 97691.45, 68181.00, -187500.02, -187500.02, -187500.02, -187500.02, -187500.02, -187500.02, 0.000, 0.000, 0.000, 15:44:13.144
143, 98256.92, 68805.88, -187500.02, -187500.02, -187500.02, -187500.02, -187500.02, -187500.02, 0.000, 0.000, 0.000, 15:44:13.144
144, 97937.36, 68381.00, -187500.02, -187500.02, -187500.02, -187500.02, -187500.02, -187500.02, 0.000, 0.000, 0.000, 15:44:13.145
145, 97063.63, 67326.94, -187500.02, -187500.02, -187500.02, -187500.02, -187500.02, -187500.02, 0.018, 0.052, -1.026, 15:44:13.145
146, 96452.67, 66652.43, -187500.02, -187500.02, -187500.02, -187500.02, -187500.02, -187500.02, 0.000, 0.000, 0.000, 15:44:13.145
147, 97688.72, 68174.00, -187500.02, -187500.02, -187500.02, -187500.02, -187500.02, -187500.02, 0.000, 0.000, 0.000, 15:44:13.145
148, 98253.99, 68803.34, -187500.02, -187500.02, -187500.02, -187500.02, -187500.02, -187500.02, 0.000, 0.000, 0.000, 15:44:13.146
149, 97929.05, 68374.50, -187500.02, -187500.02, -187500.02, -187500.02, -187500.02, -187500.02, 0.000, 0.000, 0.000, 15:44:13.146
150, 97061.82, 67316.32, -187500.02, -187500.02, -187500.02, -187500.02, -187500.02, -187500.02, 0.000, 0.000, 0.000, 15:44:13.147
151, 96441.56, 66635.40, -187500.02, -187500.02, -187500.02, -187500.02, -187500.02, -187500.02, 0.000, 0.000, 0.000, 15:44:13.147
152, 97683.36, 68170.54, -187500.02, -187500.02, -187500.02, -187500.02, -187500.02, -187500.02, 0.000, 0.000, 0.000, 15:44:13.147
153, 98245.88, 68790.66, -187500.02, -187500.02, -187500.02, -187500.02, -187500.02, -187500.02, 0.000, 0.000, 0.000, 15:44:13.147
154, 97929.92, 68373.89, -187500.02, -187500.02, -187500.02, -187500.02, -187500.02, -187500.02, 0.000, 0.000, 0.000, 15:44:13.147
155, 97064.80, 67322.70, -187500.02, -187500.02, -187500.02, -187500.02, -187500.02, -187500.02, 0.020, 0.060, -1.018, 15:44:13.147
156, 96431.70, 66624.20, -187500.02, -187500.02, -187500.02, -187500.02, -187500.02, -187500.02, 0.000, 0.000, 0.000, 15:44:13.148
157, 97666.68, 68142.45, -187500.02, -187500.02, -187500.02, -187500.02, -187500.02, -187500.02, 0.000, 0.000, 0.000, 15:44:13.148
158, 98259.00, 68802.89, -187500.02, -187500.02, -187500.02, -187500.02, -187500.02, -187500.02, 0.000, 0.000, 0.000, 15:44:13.148
159, 97943.40, 68385.34, -187500.02, -187500.02, -187500.02, -187500.02, -187500.02, -187500.02, 0.000, 0.000, 0.000, 15:44:13.148
160, 97075.26, 67323.48, -187500.02, -187500.02, -187500.02, -187500.02, -187500.02, -187500.02, 0.000, 0.000, 0.000, 15:44:13.148
161, 96445.90, 66631.73, -187500.02, -187500.02, -187500.02, -187500.02, -187500.02, -187500.02, 0.000, 0.000, 0.000, 15:44:13.148
162, 97681.03, 68153.48, -187500.02, -187500.02, -187500.02, -187500.02, -187500.02, -187500.02, 0.000, 0.000, 0.000, 15:44:13.149
163, 98270.96, 68808.26, -187500.02, -187500.02, -187500.02, -187500.02, -187500.02, -187500.02, 0.000, 0.000, 0.000, 15:44:13.149
164, 97954.05, 68393.63, -187500.02, -187500.02, -187500.02, -187500.02, -187500.02, -187500.02, 0.000, 0.000, 0.000, 15:44:13.149
165, 97092.20, 67343.52, -187500.02, -187500.02, -187500.02, -187500.02, -187500.02, -187500.02, 0.026, 0.056, -1.020, 15:44:13.149
166, 96458.57, 66641.52, -187500.02, -187500.02, -187500.02, -187500.02, -187500.02, -187500.02, 0.000, 0.000, 0.000, 15:44:13.149
167, 97689.86, 68157.41, -187500.02, -187500.02, -187500.02, -187500.02, -187500.02, -187500.02, 0.000, 0.000, 0.000, 15:44:13.149
168, 98280.05, 68814.83, -187500.02, -187500.02, -187500.02, -187500.02, -187500.02, -187500.02, 0.000, 0.000, 0.000, 15:44:13.150
169, 97953.86, 68387.84, -187500.02, -187500.02, -187500.02, -187500.02, -187500.02, -187500.02, 0.000, 0.000, 0.000, 15:44:13.150
170, 97090.16, 67340.15, -187500.02, -187500.02, -187500.02, -187500.02, -187500.02, -187500.02, 0.000, 0.000, 0.000, 15:44:13.150
171, 96457.12, 66638.33, -187500.02, -187500.02, -187500.02, -187500.02, -187500.02, -187500.02, 0.000, 0.000, 0.000, 15:44:13.150
172, 97681.10, 68154.02, -187500.02, -187500.02, -187500.02, -187500.02, -187500.02, -187500.02, 0.000, 0.000, 0.000, 15:44:13.150
173, 98264.95, 68800.86, -187500.02, -187500.02, -187500.02, -187500.02, -187500.02, -187500.02, 0.000, 0.000, 0.000, 15:44:13.150
174, 97954.15, 68384.29, -187500.02, -187500.02, -187500.02, -187500.02, -187500.02, -187500.02, 0.000, 0.000, 0.000, 15:44:13.151
175, 97090.34, 67339.45, -187500.02, -187500.02, -187500.02, -187500.02, -187500.02, -187500.02, 0.022, 0.058, -1.024, 15:44:13.151
176, 96451.71, 66633.66, -187500.02, -187500.02, -187500.02, -187500.02, -187500.02, -187500.02, 0.000, 0.000, 0.000, 15:44:13.151
177, 97666.75, 68137.30, -187500.02, -187500.02, -187500.02, -187500.02, -187500.02, -187500.02, 0.000, 0.000, 0.000, 15:44:13.151
178, 98266.94, 68800.23, -187500.02, -187500.02, -187500.02, -187500.02, -187500.02, -187500.02, 0.000, 0.000, 0.000, 15:44:13.151
179, 97951.31, 68384.16, -187500.02, -187500.02, -187500.02, -187500.02, -187500.02, -187500.02, 0.000, 0.000, 0.000, 15:44:13.151
180, 97096.40, 67344.24, -187500.02, -187500.02, -187500.02, -187500.02, -187500.02, -187500.02, 0.000, 0.000, 0.000, 15:44:13.152
181, 96454.13, 66631.30, -187500.02, -187500.02, -187500.02, -187500.02, -187500.02, -187500.02, 0.000, 0.000, 0.000, 15:44:13.152
182, 97675.80, 68138.55, -187500.02, -187500.02, -187500.02, -187500.02, -187500.02, -187500.02, 0.000, 0.000, 0.000, 15:44:13.152
183, 98274.56, 68804.45, -187500.02, -187500.02, -187500.02, -187500.02, -187500.02, -187500.02, 0.000, 0.000, 0.000, 15:44:13.152
184, 97970.40, 68404.09, -187500.02, -187500.02, -187500.02, -187500.02, -187500.02, -187500.02, 0.000, 0.000, 0.000, 15:44:13.152
185, 97118.13, 67364.91, -187500.02, -187500.02, -187500.02, -187500.02, -187500.02, -187500.02, 0.022, 0.062, -1.028, 15:44:13.152
186, 96469.52, 66647.70, -187500.02, -187500.02, -187500.02, -187500.02, -187500.02, -187500.02, 0.000, 0.000, 0.000, 15:44:13.153
187, 97686.26, 68145.59, -187500.02, -187500.02, -187500.02, -187500.02, -187500.02, -187500.02, 0.000, 0.000, 0.000, 15:44:13.153
188, 98289.67, 68813.17, -187500.02, -187500.02, -187500.02, -187500.02, -187500.02, -187500.02, 0.000, 0.000, 0.000, 15:44:13.153
189, 97983.85, 68408.65, -187500.02, -187500.02, -187500.02, -187500.02, -187500.02, -187500.02, 0.000, 0.000, 0.000, 15:44:13.153
190, 97136.72, 67379.40, -187500.02, -187500.02, -187500.02, -187500.02, -187500.02, -187500.02, 0.000, 0.000, 0.000, 15:44:13.153
191, 96475.83, 66642.69, -187500.02, -187500.02, -187500.02, -187500.02, -187500.02, -187500.02, 0.000, 0.000, 0.000, 15:44:13.154
192, 97673.97, 68121.01, -187500.02, -187500.02, -187500.02, -187500.02, -187500.02, -187500.02, 0.000, 0.000, 0.000, 15:44:13.154
193, 98292.73, 68811.50, -187500.02, -187500.02, -187500.02, -187500.02, -187500.02, -187500.02, 0.000, 0.000, 0.000, 15:44:13.154
194, 97982.63, 68405.48, -187500.02, -187500.02, -187500.02, -187500.02, -187500.02, -187500.02, 0.000, 0.000, 0.000, 15:44:13.154
195, 97131.88, 67374.77, -187500.02, -187500.02, -187500.02, -187500.02, -187500.02, -187500.02, 0.020, 0.056, -1.030, 15:44:13.154
196, 96475.53, 66639.02, -187500.02, -187500.02, -187500.02, -187500.02, -187500.02, -187500.02, 0.000, 0.000, 0.000, 15:44:13.154
197, 97687.06, 68128.23, -187500.02, -187500.02, -187500.02, -187500.02, -187500.02, -187500.02, 0.000, 0.000, 0.000, 15:44:13.155
198, 98292.51, 68802.87, -187500.02, -187500.02, -187500.02, -187500.02, -187500.02, -187500.02, 0.000, 0.000, 0.000, 15:44:13.155
199, 97982.89, 68404.88, -187500.02, -187500.02, -187500.02, -187500.02, -187500.02, -187500.02, 0.000, 0.000, 0.000, 15:44:13.155
200, 97121.48, 67359.91, -187500.02, -187500.02, -187500.02, -187500.02, -187500.02, -187500.02, 0.000, 0.000, 0.000, 15:44:13.155
201, 96454.14, 66614.74, -187500.02, -187500.02, -187500.02, -187500.02, -187500.02, -187500.02, 0.000, 0.000, 0.000, 15:44:13.155
202, 97675.13, 68122.82, -187500.02, -187500.02, -187500.02, -187500.02, -187500.02, -187500.02, 0.000, 0.000, 0.000, 15:44:13.155
203, 98292.44, 68814.98, -187500.02, -187500.02, -187500.02, -187500.02, -187500.02, -187500.02, 0.000, 0.000, 0.000, 15:44:13.156
204, 97977.37, 68399.42, -187500.02, -187500.02, -187500.02, -187500.02, -187500.02, -187500.02, 0.000, 0.000, 0.000, 15:44:13.156
205, 97131.05, 67374.62, -187500.02, -187500.02, -187500.02, -187500.02, -187500.02, -187500.02, 0.016, 0.054, -1.032, 15:44:13.156
206, 96466.17, 66636.13, -187500.02, -187500.02, -187500.02, -187500.02, -187500.02, -187500.02, 0.000, 0.000, 0.000, 15:44:13.156
207, 97673.90, 68130.22, -187500.02, -187500.02, -187500.02, -187500.02, -187500.02, -187500.02, 0.000, 0.000, 0.000, 15:44:13.156
208, 98283.39, 68813.62, -187500.02, -187500.02, -187500.02, -187500.02, -187500.02, -187500.02, 0.000, 0.000, 0.000, 15:44:13.156
209, 97981.62, 68409.86, -187500.02, -187500.02, -187500.02, -187500.02, -187500.02, -187500.02, 0.000, 0.000, 0.000, 15:44:13.157
210, 97145.84, 67387.34, -187500.02, -187500.02, -187500.02, -187500.02, -187500.02, -187500.02, 0.000, 0.000, 0.000, 15:44:13.157
211, 96468.85, 66639.13, -187500.02, -187500.02, -187500.02, -187500.02, -187500.02, -187500.02, 0.000, 0.000, 0.000, 15:44:13.157
212, 97673.12, 68124.70, -187500.02, -187500.02, -187500.02, -187500.02, -187500.02, -187500.02, 0.000, 0.000, 0.000, 15:44:13.157
213, 98296.02, 68818.13, -187500.02, -187500.02, -187500.02, -187500.02, -187500.02, -187500.02, 0.000, 0.000, 0.000, 15:44:13.157
214, 97988.68, 68416.32, -187500.02, -187500.02, -187500.02, -187500.02, -187500.02, -187500.02, 0.000, 0.000, 0.000, 15:44:13.158
215, 97144.01, 67389.03, -187500.02, -187500.02, -187500.02, -187500.02, -187500.02, -187500.02, 0.016, 0.056, -1.028, 15:44:13.158
216, 96465.12, 66631.27, -187500.02, -187500.02, -187500.02, -187500.02, -187500.02, -187500.02, 0.000, 0.000, 0.000, 15:44:13.158
217, 97662.70, 68112.71, -187500.02, -187500.02, -187500.02, -187500.02, -187500.02, -187500.02, 0.000, 0.000, 0.000, 15:44:13.158
218, 98273.80, 68800.84, -187500.02, -187500.02, -187500.02, -187500.02, -187500.02, -187500.02, 0.000, 0.000, 0.000, 15:44:13.158
219, 97965.37, 68394.30, -187500.02, -187500.02, -187500.02, -187500.02, -187500.02, -187500.02, 0.000, 0.000, 0.000, 15:44:13.158
220, 97127.80, 67376.07, -187500.02, -187500.02, -187500.02, -187500.02, -187500.02, -187500.02, 0.000, 0.000, 0.000, 15:44:13.159
221, 96443.10, 66613.13, -187500.02, -187500.02, -187500.02, -187500.02, -187500.02, -187500.02, 0.000, 0.000, 0.000, 15:44:13.159
222, 97644.80, 68102.25, -187500.02, -187500.02, -187500.02, -187500.02, -187500.02, -187500.02, 0.000, 0.000, 0.000, 15:44:13.159
223, 98277.13, 68808.19, -187500.02, -187500.02, -187500.02, -187500.02, -187500.02, -187500.02, 0.000, 0.000, 0.000, 15:44:13.159
224, 97971.83, 68402.37, -187500.02, -187500.02, -187500.02, -187500.02, -187500.02, -187500.02, 0.000, 0.000, 0.000, 15:44:13.159
225, 97126.06, 67376.56, -187500.02, -187500.02, -187500.02, -187500.02, -187500.02, -187500.02, 0.020, 0.056, -1.024, 15:44:13.160
226, 96438.38, 66609.23, -187500.02, -187500.02, -187500.02, -187500.02, -187500.02, -187500.02, 0.000, 0.000, 0.000, 15:44:13.160
227, 97637.36, 68099.28, -187500.02, -187500.02, -187500.02, -187500.02, -187500.02, -187500.02, 0.000, 0.000, 0.000, 15:44:13.160
228, 98272.81, 68815.50, -187500.02, -187500.02, -187500.02, -187500.02, -187500.02, -187500.02, 0.000, 0.000, 0.000, 15:44:13.160
229, 97972.63, 68408.52, -187500.02, -187500.02, -187500.02, -187500.02, -187500.02, -187500.02, 0.000, 0.000, 0.000, 15:44:13.160
230, 97128.67, 67383.65, -187500.02, -187500.02, -187500.02, -187500.02, -187500.02, -187500.02, 0.000, 0.000, 0.000, 15:44:13.160
231, 96434.95, 66615.02, -187500.02, -187500.02, -187500.02, -187500.02, -187500.02, -187500.02, 0.000, 0.000, 0.000, 15:44:13.161
232, 97634.90, 68099.39, -187500.02, -187500.02, -187500.02, -187500.02, -187500.02, -187500.02, 0.000, 0.000, 0.000, 15:44:13.161
233, 98279.23, 68822.90, -187500.02, -187500.02, -187500.02, -187500.02, -187500.02, -187500.02, 0.000, 0.000, 0.000, 15:44:13.161
234, 97974.53, 68417.70, -187500.02, -187500.02, -187500.02, -187500.02, -187500.02, -187500.02, 0.000, 0.000, 0.000, 15:44:13.161
235, 97134.60, 67395.67, -187500.02, -187500.02, -187500.02, -187500.02, -187500.02, -187500.02, 0.018, 0.052, -1.028, 15:44:13.161
236, 96441.47, 66623.59, -187500.02, -187500.02, -187500.02, -187500.02, -187500.02, -187500.02, 0.000, 0.000, 0.000, 15:44:13.161
237, 97632.64, 68106.75, -187500.02, -187500.02, -187500.02, -187500.02, -187500.02, -187500.02, 0.000, 0.000, 0.000, 15:44:13.162
238, 98268.84, 68818.07, -187500.02, -187500.02, -187500.02, -187500.02, -187500.02, -187500.02, 0.000, 0.000, 0.000, 15:44:13.162
239, 97967.65, 68416.99, -187500.02, -187500.02, -187500.02, -187500.02, -187500.02, -187500.02, 0.000, 0.000, 0.000, 15:44:13.162
240, 97137.10, 67405.05, -187500.02, -187500.02, -187500.02, -187500.02, -187500.02, -187500.02, 0.000, 0.000, 0.000, 15:44:13.623
241, 96435.48, 66621.85, -187500.02, -187500.02, -187500.02, -187500.02, -187500.02, -187500.02, 0.000, 0.000, 0.000, 15:44:13.623
242, 97623.34, 68094.90, -187500.02, -187500.02, -187500.02, -187500.02, -187500.02, -187500.02, 0.000, 0.000, 0.000, 15:44:13.624
243, 98252.92, 68800.41, -187500.02, -187500.02, -187500.02, -187500.02, -187500.02, -187500.02, 0.000, 0.000, 0.000, 15:44:13.624
244, 97958.88, 68408.20, -187500.02, -187500.02, -187500.02, -187500.02, -187500.02, -187500.02, 0.000, 0.000, 0.000, 15:44:13.624
245, 97126.06, 67396.85, -187500.02, -187500.02, -187500.02, -187500.02, -187500.02, -187500.02, 0.020, 0.048, -1.028, 15:44:13.624
246, 96422.56, 66613.25, -187500.02, -187500.02, -187500.02, -187500.02, -187500.02, -187500.02, 0.000, 0.000, 0.000, 15:44:13.624
247, 97597.68, 68073.98, -187500.02, -187500.02, -187500.02, -187500.02, -187500.02, -187500.02, 0.000, 0.000, 0.000, 15:44:13.624
248, 98247.11, 68806.67, -187500.02, -187500.02, -187500.02, -187500.02, -187500.02, -187500.02, 0.000, 0.000, 0.000, 15:44:13.624
249, 97949.54, 68407.53, -187500.02, -187500.02, -187500.02, -187500.02, -187500.02, -187500.02, 0.000, 0.000, 0.000, 15:44:13.624
250, 97120.09, 67397.39, -187500.02, -187500.02, -187500.02, -187500.02, -187500.02, -187500.02, 0.000, 0.000, 0.000, 15:44:13.625
251, 96411.23, 66604.44, -187500.02, -187500.02, -187500.02, -187500.02, -187500.02, -187500.02, 0.000, 0.000, 0.000, 15:44:13.625
252, 97605.57, 68078.41, -187500.02, -187500.02, -187500.02, -187500.02, -187500.02, -187500.02, 0.000, 0.000, 0.000, 15:44:13.625
253, 98260.70, 68815.61, -187500.02, -187500.02, -187500.02, -187500.02, -187500.02, -187500.02, 0.000, 0.000, 0.000, 15:44:13.625
254, 97964.77, 68424.25, -187500.02, -187500.02, -187500.02, -187500.02, -187500.02, -187500.02, 0.000, 0.000, 0.000, 15:44:13.625
255, 97135.65, 67412.21, -187500.02, -187500.02, -187500.02, -187500.02, -187500.02, -187500.02, 0.018, 0.052, -1.034, 15:44:13.625
0, 96425.09, 66616.87, -187500.02, -187500.02, -187500.02, -187500.02, -187500.02, -187500.02, 0.000, 0.000, 0.000, 15:44:13.625
1, 97604.43, 68087.39, -187500.02, -187500.02, -187500.02, -187500.02, -187500.02, -187500.02, 0.000, 0.000, 0.000, 15:44:13.626
2, 98247.13, 68810.40, -187500.02, -187500.02, -187500.02, -187500.02, -187500.02, -187500.02, 0.000, 0.000, 0.000, 15:44:13.626
3, 97948.90, 68407.04, -187500.02, -187500.02, -187500.02, -187500.02, -187500.02, -187500.02, 0.000, 0.000, 0.000, 15:44:13.626
4, 97124.88, 67405.13, -187500.02, -187500.02, -187500.02, -187500.02, -187500.02, -187500.02, 0.000, 0.000, 0.000, 15:44:13.626
5, 96408.13, 66604.59, -187500.02, -187500.02, -187500.02, -187500.02, -187500.02, -187500.02, 0.000, 0.000, 0.000, 15:44:13.626
6, 97585.23, 68064.55, -187500.02, -187500.02, -187500.02, -187500.02, -187500.02, -187500.02, 0.000, 0.000, 0.000, 15:44:13.626
7, 98244.95, 68802.47, -187500.02, -187500.02, -187500.02, -187500.02, -187500.02, -187500.02, 0.000, 0.000, 0.000, 15:44:13.626
8, 97946.64, 68404.12, -187500.02, -187500.02, -187500.02, -187500.02, -187500.02, -187500.02, 0.020, 0.054, -1.032, 15:44:13.626
9, 97112.09, 67392.67, -187500.02, -187500.02, -187500.02, -187500.02, -187500.02, -187500.02, 0.000, 0.000, 0.000, 15:44:13.626
10, 96385.93, 66579.09, -187500.02, -187500.02, -187500.02, -187500.02, -187500.02, -187500.02, 0.000, 0.000, 0.000, 15:44:13.627
11, 97573.20, 68051.67, -187500.02, -187500.02, -187500.02, -187500.02, -187500.02, -187500.02, 0.000, 0.000, 0.000, 15:44:13.627
12, 98236.02, 68791.67, -187500.02, -187500.02, -187500.02, -187500.02, -187500.02, -187500.02, 0.000, 0.000, 0.000, 15:44:13.627
13, 97935.69, 68388.58, -187500.02, -187500.02, -187500.02, -187500.02, -187500.02, -187500.02, 0.000, 0.000, 0.000, 15:44:13.627
14, 97115.29, 67389.75, -187500.02, -187500.02, -187500.02, -187500.02, -187500.02, -187500.02, 0.000, 0.000, 0.000, 15:44:13.627
15, 96384.54, 66568.39, -187500.02, -187500.02, -187500.02, -187500.02, -187500.02, -187500.02, 0.000, 0.000, 0.000, 15:44:13.627
16, 97561.74, 68037.16, -187500.02, -187500.02, -187500.02, -187500.02, -187500.02, -187500.02, 0.000, 0.000, 0.000, 15:44:13.627
17, 98225.66, 68784.74, -187500.02, -187500.02, -187500.02, -187500.02, -187500.02, -187500.02, 0.000, 0.000, 0.000, 15:44:13.627
18, 97931.98, 68392.60, -187500.02, -187500.02, -187500.02, -187500.02, -187500.02, -187500.02, 0.016, 0.056, -1.028, 15:44:13.628
19, 97113.50, 67394.82, -187500.02, -187500.02, -187500.02, -187500.02, -187500.02, -187500.02, 0.000, 0.000, 0.000, 15:44:13.628
20, 96382.20, 66574.31, -187500.02, -187500.02, -187500.02, -187500.02, -187500.02, -187500.02, 0.000, 0.000, 0.000, 15:44:13.628
21, 97557.65, 68035.22, -187500.02, -187500.02, -187500.02, -187500.02, -187500.02, -187500.02, 0.000, 0.000, 0.000, 15:44:13.628
22, 98231.80, 68795.85, -187500.02, -187500.02, -187500.02, -187500.02, -187500.02, -187500.02, 0.000, 0.000, 0.000, 15:44:13.628
23, 97943.42, 68410.98, -187500.02, -187500.02, -187500.02, -187500.02, -187500.02, -187500.02, 0.000, 0.000, 0.000, 15:44:13.628
24, 97119.17, 67407.45, -187500.02, -187500.02, -187500.02, -187500.02, -187500.02, -187500.02, 0.000, 0.000, 0.000, 15:44:13.628
25, 96391.70, 66592.64, -187500.02, -187500.02, -187500.02, -187500.02, -187500.02, -187500.02, 0.000, 0.000, 0.000, 15:44:13.628
26, 97560.65, 68043.16, -187500.02, -187500.02, -187500.02, -187500.02, -187500.02, -187500.02, 0.000, 0.000, 0.000, 15:44:13.629
27, 98228.20, 68796.66, -187500.02, -187500.02, -187500.02, -187500.02, -187500.02, -187500.02, 0.000, 0.000, 0.000, 15:44:13.629
28, 97932.84, 68397.90, -187500.02, -187500.02, -187500.02, -187500.02, -187500.02, -187500.02, 0.020, 0.056, -1.030, 15:44:13.629
29, 97114.26, 67401.23, -187500.02, -187500.02, -187500.02, -187500.02, -187500.02, -187500.02, 0.000, 0.000, 0.000, 15:44:13.629
30, 96377.55, 66576.86, -187500.02, -187500.02, -187500.02, -187500.02, -187500.02, -187500.02, 0.000, 0.000, 0.000, 15:44:13.629
31, 97530.63, 68016.22, -187500.02, -187500.02, -187500.02, -187500.02, -187500.02, -187500.02, 0.000, 0.000, 0.000, 15:44:13.629
32, 98213.45, 68793.28, -187500.02, -187500.02, -187500.02, -187500.02, -187500.02, -187500.02, 0.000, 0.000, 0.000, 15:44:13.629
33, 97922.68, 68400.60, -187500.02, -187500.02, -187500.02, -187500.02, -187500.02, -187500.02, 0.000, 0.000, 0.000, 15:44:13.629
34, 97102.99, 67396.84, -187500.02, -187500.02, -187500.02, -187500.02, -187500.02, -187500.02, 0.000, 0.000, 0.000, 15:44:13.629
35, 96359.22, 66559.67, -187500.02, -187500.02, -187500.02, -187500.02, -187500.02, -187500.02, 0.000, 0.000, 0.000, 15:44:13.630
36, 97523.77, 68013.92, -187500.02, -187500.02, -187500.02, -187500.02, -187500.02, -187500.02, 0.000, 0.000, 0.000, 15:44:13.630
37, 98210.57, 68790.35, -187500.02, -187500.02, -187500.02, -187500.02, -187500.02, -187500.02, 0.000, 0.000, 0.000, 15:44:13.630
38, 97906.47, 68382.27, -187500.02, -187500.02, -187500.02, -187500.02, -187500.02, -187500.02, 0.018, 0.060, -1.034, 15:44:13.630
39, 97083.37, 67383.80, -187500.02, -187500.02, -187500.02, -187500.02, -187500.02, -187500.02, 0.000, 0.000, 0.000, 15:44:13.630
40, 96354.41, 66562.76, -187500.02, -187500.02, -187500.02, -187500.02, -187500.02, -187500.02, 0.000, 0.000, 0.000, 15:44:13.630
41, 97517.51, 68004.60, -187500.02, -187500.02, -187500.02, -187500.02, -187500.02, -187500.02, 0.000, 0.000, 0.000, 15:44:13.631
42, 98210.79, 68787.52, -187500.02, -187500.02, -187500.02, -187500.02, -187500.02, -187500.02, 0.000, 0.000, 0.000, 15:44:13.631
43, 97911.19, 68393.05, -187500.02, -187500.02, -187500.02, -187500.02, -187500.02, -187500.02, 0.000, 0.000, 0.000, 15:44:13.631
44, 97100.40, 67406.13, -187500.02, -187500.02, -187500.02, -187500.02, -187500.02, -187500.02, 0.000, 0.000, 0.000, 15:44:13.631
45, 96353.09, 66565.86, -187500.02, -187500.02, -187500.02, -187500.02, -187500.02, -187500.02, 0.000, 0.000, 0.000, 15:44:13.631
46, 97506.64, 67998.38, -187500.02, -187500.02, -187500.02, -187500.02, -187500.02, -187500.02, 0.000, 0.000, 0.000, 15:44:13.631
47, 98203.59, 68787.31, -187500.02, -187500.02, -187500.02, -187500.02, -187500.02, -187500.02, 0.000, 0.000, 0.000, 15:44:13.631
48, 97914.56, 68403.51, -187500.02, -187500.02, -187500.02, -187500.02, -187500.02, -187500.02, 0.018, 0.050, -1.032, 15:44:13.631
49, 97105.34, 67420.15, -187500.02, -187500.02, -187500.02, -187500.02, -187500.02, -187500.02, 0.000, 0.000, 0.000, 15:44:13.632
50, 96351.02, 66571.49, -187500.02, -187500.02, -187500.02, -187500.02, -187500.02, -187500.02, 0.000, 0.000, 0.000, 15:44:13.632
51, 97508.45, 68004.53, -187500.02, -187500.02, -187500.02, -187500.02, -187500.02, -187500.02, 0.000, 0.000, 0.000, 15:44:13.632
52, 98199.91, 68788.09, -187500.02, -187500.02, -187500.02, -187500.02, -187500.02, -187500.02, 0.000, 0.000, 0.000, 15:44:13.632
53, 97904.68, 68396.72, -187500.02, -187500.02, -187500.02, -187500.02, -187500.02, -187500.02, 0.000, 0.000, 0.000, 15:44:13.632
54, 97099.30, 67419.92, -187500.02, -187500.02, -187500.02, -187500.02, -187500.02, -187500.02, 0.000, 0.000, 0.000, 15:44:13.632
55, 96338.38, 66565.37, -187500.02, -187500.02, -187500.02, -187500.02, -187500.02, -187500.02, 0.000, 0.000, 0.000, 15:44:13.632
56, 97490.73, 67996.40, -187500.02, -187500.02, -187500.02, -187500.02, -187500.02, -187500.02, 0.000, 0.000, 0.000, 15:44:13.632
57, 98180.17, 68778.88, -187500.02, -187500.02, -187500.02, -187500.02, -187500.02, -187500.02, 0.000, 0.000, 0.000, 15:44:13.633
58, 97890.45, 68393.19, -187500.02, -187500.02, -187500.02, -187500.02, -187500.02, -187500.02, 0.020, 0.050, -1.028, 15:44:13.633
59, 97079.70, 67401.33, -187500.02, -187500.02, -187500.02, -187500.02, -187500.02, -187500.02, 0.000, 0.000, 0.000, 15:44:13.633
60, 96319.16, 66552.80, -187500.02, -187500.02, -187500.02, -187500.02, -187500.02, -187500.02, 0.000, 0.000, 0.000, 15:44:13.633
61, 97465.98, 67984.52, -187500.02, -187500.02, -187500.02, -187500.02, -187500.02, -187500.02, 0.000, 0.000, 0.000, 15:44:13.633
62, 98162.40, 68768.13, -187500.02, -187500.02, -187500.02, -187500.02, -187500.02, -187500.02, 0.000, 0.000, 0.000, 15:44:13.633
63, 97868.14, 68374.34, -187500.02, -187500.02, -187500.02, -187500.02, -187500.02, -187500.02, 0.000, 0.000, 0.000, 15:44:13.633
64, 97083.55, 67414.22, -187500.02, -187500.02, -187500.02, -187500.02, -187500.02, -187500.02, 0.000, 0.000, 0.000, 15:44:13.633
65, 96322.07, 66553.63, -187500.02, -187500.02, -187500.02, -187500.02, -187500.02, -187500.02, 0.000, 0.000, 0.000, 15:44:13.634
66, 97458.32, 67967.49, -187500.02, -187500.02, -187500.02, -187500.02, -187500.02, -187500.02, 0.000, 0.000, 0.000, 15:44:13.634
67, 98170.45, 68776.52, -187500.02, -187500.02, -187500.02, -187500.02, -187500.02, -187500.02, 0.000, 0.000, 0.000, 15:44:13.634
68, 97894.58, 68403.96, -187500.02, -187500.02, -187500.02, -187500.02, -187500.02, -187500.02, 0.020, 0.054, -1.030, 15:44:13.634
69, 97101.70, 67431.92, -187500.02, -187500.02, -187500.02, -187500.02, -187500.02, -187500.02, 0.000, 0.000, 0.000, 15:44:13.634
70, 96336.89, 66566.53, -187500.02, -187500.02, -187500.02, -187500.02, -187500.02, -187500.02, 0.000, 0.000, 0.000, 15:44:13.634
71, 97473.09, 67986.38, -187500.02, -187500.02, -187500.02, -187500.02, -187500.02, -187500.02, 0.000, 0.000, 0.000, 15:44:13.634
72, 98185.87, 68794.24, -187500.02, -187500.02, -187500.02, -187500.02, -187500.02, -187500.02, 0.000, 0.000, 0.000, 15:44:13.634
73, 97901.51, 68413.62, -187500.02, -187500.02, -187500.02, -187500.02, -187500.02, -187500.02, 0.000, 0.000, 0.000, 15:44:13.635
74, 97109.97, 67442.88, -187500.02, -187500.02, -187500.02, -187500.02, -187500.02, -187500.02, 0.000, 0.000, 0.000, 15:44:13.635
75, 96328.05, 66562.11, -187500.02, -187500.02, -187500.02, -187500.02, -187500.02, -187500.02, 0.000, 0.000, 0.000, 15:44:13.635
76, 97463.37, 67983.07, -187500.02, -187500.02, -187500.02, -187500.02, -187500.02, -187500.02, 0.000, 0.000, 0.000, 15:44:13.635
77, 98177.09, 68790.76, -187500.02, -187500.02, -187500.02, -187500.02, -187500.02, -187500.02, 0.000, 0.000, 0.000, 15:44:13.635
78, 97891.45, 68407.09, -187500.02, -187500.02, -187500.02, -187500.02, -187500.02, -187500.02, 0.016, 0.054, -1.030, 15:44:13.635
79, 97094.27, 67437.18, -187500.02, -187500.02, -187500.02, -187500.02, -187500.02, -187500.02, 0.000, 0.000, 0.000, 15:44:13.635
80, 96311.74, 66550.10, -187500.02, -187500.02, -187500.02, -187500.02, -187500.02, -187500.02, 0.000, 0.000, 0.000, 15:44:13.635
81, 97433.44, 67947.45, -187500.02, -187500.02, -187500.02, -187500.02, -187500.02, -187500.02, 0.000, 0.000, 0.000, 15:44:13.636
82, 98151.13, 68765.32, -187500.02, -187500.02, -187500.02, -187500.02, -187500.02, -187500.02, 0.000, 0.000, 0.000, 15:44:13.636
83, 97873.34, 68390.88, -187500.02, -187500.02, -187500.02, -187500.02, -187500.02, -187500.02, 0.000, 0.000, 0.000, 15:44:13.636
84, 97074.70, 67412.93, -187500.02, -187500.02, -187500.02, -187500.02, -187500.02, -187500.02, 0.000, 0.000, 0.000, 15:44:13.636
85, 96298.77, 66538.75, -187500.02, -187500.02, -187500.02, -187500.02, -187500.02, -187500.02, 0.000, 0.000, 0.000, 15:44:13.636
86, 97428.70, 67953.26, -187500.02, -187500.02, -187500.02, -187500.02, -187500.02, -187500.02, 0.000, 0.000, 0.000, 15:44:13.636
87, 98140.43, 68760.42, -187500.02, -187500.02, -187500.02, -187500.02, -187500.02, -187500.02, 0.000, 0.000, 0.000, 15:44:13.636
88, 97860.88, 68388.27, -187500.02, -187500.02, -187500.02, -187500.02, -187500.02, -187500.02, 0.022, 0.054, -1.024, 15:44:13.636
89, 97078.70, 67431.34, -187500.02, -187500.02, -187500.02, -187500.02, -187500.02, -187500.02, 0.000, 0.000, 0.000, 15:44:13.637
90, 96300.84, 66547.84, -187500.02, -187500.02, -187500.02, -187500.02, -187500.02, -187500.02, 0.000, 0.000, 0.000, 15:44:13.637
91, 97422.55, 67953.95, -187500.02, -187500.02, -187500.02, -187500.02, -187500.02, -187500.02, 0.000, 0.000, 0.000, 15:44:13.637
92, 98154.51, 68787.38, -187500.02, -187500.02, -187500.02, -187500.02, -187500.02, -187500.02, 0.000, 0.000, 0.000, 15:44:13.637
93, 97884.56, 68417.15, -187500.02, -187500.02, -187500.02, -187500.02, -187500.02, -187500.02, 0.000, 0.000, 0.000, 15:44:13.637
94, 97096.13, 67454.16, -187500.02, -187500.02, -187500.02, -187500.02, -187500.02, -187500.02, 0.000, 0.000, 0.000, 15:44:13.637
95, 96310.27, 66563.91, -187500.02, -187500.02, -187500.02, -187500.02, -187500.02, -187500.02, 0.000, 0.000, 0.000, 15:44:13.637
96, 97431.32, 67966.49, -187500.02, -187500.02, -187500.02, -187500.02, -187500.02, -187500.02, 0.000, 0.000, 0.000, 15:44:13.638
97, 98150.58, 68791.98, -187500.02, -187500.02, -187500.02, -187500.02, -187500.02, -187500.02, 0.000, 0.000, 0.000, 15:44:13.638
98, 97868.59, 68412.79, -187500.02, -187500.02, -187500.02, -187500.02, -187500.02, -187500.02, 0.026, 0.050, -1.024, 15:44:13.638
99, 97081.76, 67448.11, -187500.02, -187500.02, -187500.02, -187500.02, -187500.02, -187500.02, 0.000, 0.000, 0.000, 15:44:13.638
100, 96292.81, 66553.45, -187500.02, -187500.02, -187500.02, -187500.02, -187500.02, -187500.02, 0.000, 0.000, 0.000, 15:44:13.638
101, 97401.48, 67939.73, -187500.02, -187500.02, -187500.02, -187500.02, -187500.02, -187500.02, 0.000, 0.000, 0.000, 15:44:13.638
102, 98132.24, 68766.01, -187500.02, -187500.02, -187500.02, -187500.02, -187500.02, -187500.02, 0.000, 0.000, 0.000, 15:44:13.639
103, 97853.90, 68394.75, -187500.02, -187500.02, -187500.02, -187500.02, -187500.02, -187500.02, 0.000, 0.000, 0.000, 15:44:13.639
104, 97071.21, 67438.81, -187500.02, -187500.02, -187500.02, -187500.02, -187500.02, -187500.02, 0.000, 0.000, 0.000, 15:44:14.101
105, 96278.26, 66541.61, -187500.02, -187500.02, -187500.02, -187500.02, -187500.02, -187500.02, 0.000, 0.000, 0.000, 15:44:14.101
106, 97379.28, 67927.87, -187500.02, -187500.02, -187500.02, -187500.02, -187500.02, -187500.02, 0.000, 0.000, 0.000, 15:44:14.102
107, 98116.51, 68756.40, -187500.02, -187500.02, -187500.02, -187500.02, -187500.02, -187500.02, 0.000, 0.000, 0.000, 15:44:14.102
108, 97838.08, 68380.31, -187500.02, -187500.02, -187500.02, -187500.02, -187500.02, -187500.02, 0.026, 0.056, -1.032, 15:44:14.102
109, 97053.80, 67424.95, -187500.02, -187500.02, -187500.02, -187500.02, -187500.02, -187500.02, 0.000, 0.000, 0.000, 15:44:14.102
110, 96247.93, 66513.07, -187500.02, -187500.02, -187500.02, -187500.02, -187500.02, -187500.02, 0.000, 0.000, 0.000, 15:44:14.102
111, 97364.95, 67907.19, -187500.02, -187500.02, -187500.02, -187500.02, -187500.02, -187500.02, 0.000, 0.000, 0.000, 15:44:14.102
112, 98107.30, 68752.31, -187500.02, -187500.02, -187500.02, -187500.02, -187500.02, -187500.02, 0.000, 0.000, 0.000, 15:44:14.102
113, 97826.85, 68376.73, -187500.02, -187500.02, -187500.02, -187500.02, -187500.02, -187500.02, 0.000, 0.000, 0.000, 15:44:14.102
114, 97057.82, 67436.48, -187500.02, -187500.02, -187500.02, -187500.02, -187500.02, -187500.02, 0.000, 0.000, 0.000, 15:44:14.103
115, 96255.41, 66522.84, -187500.02, -187500.02, -187500.02, -187500.02, -187500.02, -187500.02, 0.000, 0.000, 0.000, 15:44:14.103
116, 97361.98, 67911.95, -187500.02, -187500.02, -187500.02, -187500.02, -187500.02, -187500.02, 0.000, 0.000, 0.000, 15:44:14.103
117, 98117.74, 68769.09, -187500.02, -187500.02, -187500.02, -187500.02, -187500.02, -187500.02, 0.000, 0.000, 0.000, 15:44:14.103
118, 97847.17, 68398.68, -187500.02, -187500.02, -187500.02, -187500.02, -187500.02, -187500.02, 0.018, 0.050, -1.022, 15:44:14.103
119, 97071.56, 67448.29, -187500.02, -187500.02, -187500.02, -187500.02, -187500.02, -187500.02, 0.000, 0.000, 0.000, 15:44:14.103
120, 96264.45, 66533.30, -187500.02, -187500.02, -187500.02, -187500.02, -187500.02, -187500.02, 0.000, 0.000, 0.000, 15:44:14.103
121, 97360.17, 67913.27, -187500.02, -187500.02, -187500.02, -187500.02, -187500.02, -187500.02, 0.000, 0.000, 0.000, 15:44:14.104
122, 98111.30, 68766.99, -187500.02, -187500.02, -187500.02, -187500.02, -187500.02, -187500.02, 0.000, 0.000, 0.000, 15:44:14.104
123, 97832.89, 68391.66, -187500.02, -187500.02, -187500.02, -187500.02, -187500.02, -187500.02, 0.000, 0.000, 0.000, 15:44:14.104
124, 97061.09, 67444.95, -187500.02, -187500.02, -187500.02, -187500.02, -187500.02, -187500.02, 0.000, 0.000, 0.000, 15:44:14.104
125, 96252.69, 66524.69, -187500.02, -187500.02, -187500.02, -187500.02, -187500.02, -187500.02, 0.000, 0.000, 0.000, 15:44:14.104
126, 97342.27, 67891.88, -187500.02, -187500.02, -187500.02, -187500.02, -187500.02, -187500.02, 0.000, 0.000, 0.000, 15:44:14.104
127, 98088.62, 68746.88, -187500.02, -187500.02, -187500.02, -187500.02, -187500.02, -187500.02, 0.000, 0.000, 0.000, 15:44:14.105
128, 97819.03, 68381.31, -187500.02, -187500.02, -187500.02, -187500.02, -187500.02, -187500.02, 0.010, 0.056, -1.020, 15:44:14.105
129, 97048.55, 67440.89, -187500.02, -187500.02, -187500.02, -187500.02, -187500.02, -187500.02, 0.000, 0.000, 0.000, 15:44:14.105
130, 96236.20, 66513.31, -187500.02, -187500.02, -187500.02, -187500.02, -187500.02, -187500.02, 0.000, 0.000, 0.000, 15:44:14.105
131, 97324.23, 67876.16, -187500.02, -187500.02, -187500.02, -187500.02, -187500.02, -187500.02, 0.000, 0.000, 0.000, 15:44:14.105
132, 98089.82, 68753.27, -187500.02, -187500.02, -187500.02, -187500.02, -187500.02, -187500.02, 0.000, 0.000, 0.000, 15:44:14.105
133, 97813.38, 68383.88, -187500.02, -187500.02, -187500.02, -187500.02, -187500.02, -187500.02, 0.000, 0.000, 0.000, 15:44:14.105
134, 97039.24, 67435.91, -187500.02, -187500.02, -187500.02, -187500.02, -187500.02, -187500.02, 0.000, 0.000, 0.000, 15:44:14.105
135, 96228.37, 66510.38, -187500.02, -187500.02, -187500.02, -187500.02, -187500.02, -187500.02, 0.000, 0.000, 0.000, 15:44:14.105
136, 97308.61, 67870.65, -187500.02, -187500.02, -187500.02, -187500.02, -187500.02, -187500.02, 0.000, 0.000, 0.000, 15:44:14.106
137, 98080.48, 68754.12, -187500.02, -187500.02, -187500.02, -187500.02, -187500.02, -187500.02, 0.012, 0.060, -1.022, 15:44:14.106
138, 97813.94, 68391.53, -187500.02, -187500.02, -187500.02, -187500.02, -187500.02, -187500.02, 0.000, 0.000, 0.000, 15:44:14.106
139, 97056.08, 67461.66, -187500.02, -187500.02, -187500.02, -187500.02, -187500.02, -187500.02, 0.000, 0.000, 0.000, 15:44:14.106
140, 96225.80, 66513.85, -187500.02, -187500.02, -187500.02, -187500.02, -187500.02, -187500.02, 0.000, 0.000, 0.000, 15:44:14.106
141, 97310.46, 67875.05, -187500.02, -187500.02, -187500.02, -187500.02, -187500.02, -187500.02, 0.000, 0.000, 0.000, 15:44:14.106
142, 98085.11, 68764.05, -187500.02, -187500.02, -187500.02, -187500.02, -187500.02, -187500.02, 0.000, 0.000, 0.000, 15:44:14.106
143, 97821.83, 68403.29, -187500.02, -187500.02, -187500.02, -187500.02, -187500.02, -187500.02, 0.000, 0.000, 0.000, 15:44:14.107
144, 97052.57, 67461.18, -187500.02, -187500.02, -187500.02, -187500.02, -187500.02, -187500.02, 0.000, 0.000, 0.000, 15:44:14.107
145, 96230.36, 66524.73, -187500.02, -187500.02, -187500.02, -187500.02, -187500.02, -187500.02, 0.000, 0.000, 0.000, 15:44:14.107
146, 97317.73, 67887.05, -187500.02, -187500.02, -187500.02, -187500.02, -187500.02, -187500.02, 0.000, 0.000, 0.000, 15:44:14.107
147, 98093.71, 68772.78, -187500.02, -187500.02, -187500.02, -187500.02, -187500.02, -187500.02, 0.014, 0.058, -1.020, 15:44:14.107
148, 97819.52, 68397.70, -187500.02, -187500.02, -187500.02, -187500.02, -187500.02, -187500.02, 0.000, 0.000, 0.000, 15:44:14.107
149, 97051.45, 67461.41, -187500.02, -187500.02, -187500.02, -187500.02, -187500.02, -187500.02, 0.000, 0.000, 0.000, 15:44:14.107
150, 96222.54, 66520.31, -187500.02, -187500.02, -187500.02, -187500.02, -187500.02, -187500.02, 0.000, 0.000, 0.000, 15:44:14.107
151, 97296.07, 67869.37, -187500.02, -187500.02, -187500.02, -187500.02, -187500.02, -187500.02, 0.000, 0.000, 0.000, 15:44:14.107
152, 98061.41, 68743.70, -187500.02, -187500.02, -187500.02, -187500.02, -187500.02, -187500.02, 0.000, 0.000, 0.000, 15:44:14.108
153, 97791.63, 68378.21, -187500.02, -187500.02, -187500.02, -187500.02, -187500.02, -187500.02, 0.000, 0.000, 0.000, 15:44:14.108
154, 97030.20, 67446.70, -187500.02, -187500.02, -187500.02, -187500.02, -187500.02, -187500.02, 0.000, 0.000, 0.000, 15:44:14.108
155, 96196.92, 66495.12, -187500.02, -187500.02, -187500.02, -187500.02, -187500.02, -187500.02, 0.000, 0.000, 0.000, 15:44:14.108
156, 97274.68, 67850.69, -187500.02, -187500.02, -187500.02, -187500.02, -187500.02, -187500.02, 0.000, 0.000, 0.000, 15:44:14.108
157, 98062.15, 68748.48, -187500.02, -187500.02, -187500.02, -187500.02, -187500.02, -187500.02, 0.020, 0.060, -1.026, 15:44:14.108
158, 97786.60, 68375.95, -187500.02, -187500.02, -187500.02, -187500.02, -187500.02, -187500.02, 0.000, 0.000, 0.000, 15:44:14.108
159, 97026.10, 67447.02, -187500.02, -187500.02, -187500.02, -187500.02, -187500.02, -187500.02, 0.000, 0.000, 0.000, 15:44:14.108
160, 96181.92, 66485.35, -187500.02, -187500.02, -187500.02, -187500.02, -187500.02, -187500.02, 0.000, 0.000, 0.000, 15:44:14.109
161, 97243.32, 67821.80, -187500.02, -187500.02, -187500.02, -187500.02, -187500.02, -187500.02, 0.000, 0.000, 0.000, 15:44:14.109
162, 98029.59, 68721.91, -187500.02, -187500.02, -187500.02, -187500.02, -187500.02, -187500.02, 0.000, 0.000, 0.000, 15:44:14.109
163, 97774.98, 68368.58, -187500.02, -187500.02, -187500.02, -187500.02, -187500.02, -187500.02, 0.000, 0.000, 0.000, 15:44:14.109
164, 97018.91, 67441.60, -187500.02, -187500.02, -187500.02, -187500.02, -187500.02, -187500.02, 0.000, 0.000, 0.000, 15:44:14.109
165, 96176.45, 66478.80, -187500.02, -187500.02, -187500.02, -187500.02, -187500.02, -187500.02, 0.000, 0.000, 0.000, 15:44:14.109
166, 97248.48, 67831.53, -187500.02, -187500.02, -187500.02, -187500.02, -187500.02, -187500.02, 0.000, 0.000, 0.000, 15:44:14.109
167, 98031.10, 68730.74, -187500.02, -187500.02, -187500.02, -187500.02, -187500.02, -187500.02, 0.020, 0.054, -1.032, 15:44:14.109
168, 97769.99, 68368.87, -187500.02, -187500.02, -187500.02, -187500.02, -187500.02, -187500.02, 0.000, 0.000, 0.000, 15:44:14.110
169, 97023.96, 67451.95, -187500.02, -187500.02, -187500.02, -187500.02, -187500.02, -187500.02, 0.000, 0.000, 0.000, 15:44:14.110
170, 96187.17, 66496.88, -187500.02, -187500.02, -187500.02, -187500.02, -187500.02, -187500.02, 0.000, 0.000, 0.000, 15:44:14.110
171, 97252.08, 67831.02, -187500.02, -187500.02, -187500.02, -187500.02, -187500.02, -187500.02, 0.000, 0.000, 0.000, 15:44:14.110
172, 98044.94, 68746.97, -187500.02, -187500.02, -187500.02, -187500.02, -187500.02, -187500.02, 0.000, 0.000, 0.000, 15:44:14.110
173, 97781.23, 68395.04, -187500.02, -187500.02, -187500.02, -187500.02, -187500.02, -187500.02, 0.000, 0.000, 0.000, 15:44:14.110
174, 97030.88, 67470.99, -187500.02, -187500.02, -187500.02, -187500.02, -187500.02, -187500.02, 0.000, 0.000, 0.000, 15:44:14.110
175, 96185.52, 66501.04, -187500.02, -187500.02, -187500.02, -187500.02, -187500.02, -187500.02, 0.000, 0.000, 0.000, 15:44:14.110
176, 97241.15, 67826.32, -187500.02, -187500.02, -187500.02, -187500.02, -187500.02, -187500.02, 0.000, 0.000, 0.000, 15:44:14.110
177, 98037.61, 68743.37, -187500.02, -187500.02, -187500.02, -187500.02, -187500.02, -187500.02, 0.022, 0.056, -1.024, 15:44:14.111
178, 97766.88, 68383.66, -187500.02, -187500.02, -187500.02, -187500.02, -187500.02, -187500.02, 0.000, 0.000, 0.000, 15:44:14.111
179, 97016.42, 67464.29, -187500.02, -187500.02, -187500.02, -187500.02, -187500.02, -187500.02, 0.000, 0.000, 0.000, 15:44:14.111
180, 96171.20, 66494.23, -187500.02, -187500.02, -187500.02, -187500.02, -187500.02, -187500.02, 0.000, 0.000, 0.000, 15:44:14.111
181, 97223.63, 67815.28, -187500.02, -187500.02, -187500.02, -187500.02, -187500.02, -187500.02, 0.000, 0.000, 0.000, 15:44:14.111
182, 98017.52, 68729.04, -187500.02, -187500.02, -187500.02, -187500.02, -187500.02, -187500.02, 0.000, 0.000, 0.000, 15:44:14.111
183, 97757.77, 68372.38, -187500.02, -187500.02, -187500.02, -187500.02, -187500.02, -187500.02, 0.000, 0.000, 0.000, 15:44:14.111
184, 97009.61, 67453.90, -187500.02, -187500.02, -187500.02, -187500.02, -187500.02, -187500.02, 0.000, 0.000, 0.000, 15:44:14.111
185, 96162.74, 66486.91, -187500.02, -187500.02, -187500.02, -187500.02, -187500.02, -187500.02, 0.000, 0.000, 0.000, 15:44:14.112
186, 97208.54, 67802.96, -187500.02, -187500.02, -187500.02, -187500.02, -187500.02, -187500.02, 0.000, 0.000, 0.000, 15:44:14.112
187, 98008.10, 68717.40, -187500.02, -187500.02, -187500.02, -187500.02, -187500.02, -187500.02, 0.016, 0.060, -1.022, 15:44:14.112
188, 97756.31, 68372.30, -187500.02, -187500.02, -187500.02, -187500.02, -187500.02, -187500.02, 0.000, 0.000, 0.000, 15:44:14.112
189, 97013.95, 67463.20, -187500.02, -187500.02, -187500.02, -187500.02, -187500.02, -187500.02, 0.000, 0.000, 0.000, 15:44:14.112
190, 96157.85, 66482.36, -187500.02, -187500.02, -187500.02, -187500.02, -187500.02, -187500.02, 0.000, 0.000, 0.000, 15:44:14.112
191, 97197.54, 67794.09, -187500.02, -187500.02, -187500.02, -187500.02, -187500.02, -187500.02, 0.000, 0.000, 0.000, 15:44:14.112
192, 98003.26, 68721.35, -187500.02, -187500.02, -187500.02, -187500.02, -187500.02, -187500.02, 0.000, 0.000, 0.000, 15:44:14.112
193, 97755.15, 68380.04, -187500.02, -187500.02, -187500.02, -187500.02, -187500.02, -187500.02, 0.000, 0.000, 0.000, 15:44:14.113
194, 97017.72, 67471.63, -187500.02, -187500.02, -187500.02, -187500.02, -187500.02, -187500.02, 0.000, 0.000, 0.000, 15:44:14.113
195, 96151.93, 66482.98, -187500.02, -187500.02, -187500.02, -187500.02, -187500.02, -187500.02, 0.000, 0.000, 0.000, 15:44:14.113
196, 97192.55, 67790.65, -187500.02, -187500.02, -187500.02, -187500.02, -187500.02, -187500.02, 0.000, 0.000, 0.000, 15:44:14.113
197, 98010.54, 68731.43, -187500.02, -187500.02, -187500.02, -187500.02, -187500.02, -187500.02, 0.016, 0.058, -1.024, 15:44:14.113
198, 97760.16, 68386.70, -187500.02, -187500.02, -187500.02, -187500.02, -187500.02, -187500.02, 0.000, 0.000, 0.000, 15:44:14.113
199, 97015.71, 67471.38, -187500.02, -187500.02, -187500.02, -187500.02, -187500.02, -187500.02, 0.000, 0.000, 0.000, 15:44:14.113
200, 96140.75, 66472.09, -187500.02, -187500.02, -187500.02, -187500.02, -187500.02, -187500.02, 0.000, 0.000, 0.000, 15:44:14.113
201, 97176.69, 67780.12, -187500.02, -187500.02, -187500.02, -187500.02, -187500.02, -187500.02, 0.000, 0.000, 0.000, 15:44:14.114
202, 97995.61, 68717.51, -187500.02, -187500.02, -187500.02, -187500.02, -187500.02, -187500.02, 0.000, 0.000, 0.000, 15:44:14.114
203, 97740.11, 68366.25, -187500.02, -187500.02, -187500.02, -187500.02, -187500.02, -187500.02, 0.000, 0.000, 0.000, 15:44:14.114
204, 97005.78, 67469.25, -187500.02, -187500.02, -187500.02, -187500.02, -187500.02, -187500.02, 0.000, 0.000, 0.000, 15:44:14.114
205, 96128.45, 66466.28, -187500.02, -187500.02, -187500.02, -187500.02, -187500.02, -187500.02, 0.000, 0.000, 0.000, 15:44:14.114
206, 97160.82, 67767.49, -187500.02, -187500.02, -187500.02, -187500.02, -187500.02, -187500.02, 0.000, 0.000, 0.000, 15:44:14.114
207, 97970.20, 68699.05, -187500.02, -187500.02, -187500.02, -187500.02, -187500.02, -187500.02, 0.016, 0.048, -1.024, 15:44:14.114
208, 97724.04, 68356.52, -187500.02, -187500.02, -187500.02, -187500.02, -187500.02, -187500.02, 0.000, 0.000, 0.000, 15:44:14.114
209, 96985.36, 67448.27, -187500.02, -187500.02, -187500.02, -187500.02, -187500.02, -187500.02, 0.000, 0.000, 0.000, 15:44:14.115
210, 96111.34, 66442.10, -187500.02, -187500.02, -187500.02, -187500.02, -187500.02, -187500.02, 0.000, 0.000, 0.000, 15:44:14.115
211, 97137.05, 67737.43, -187500.02, -187500.02, -187500.02, -187500.02, -187500.02, -187500.02, 0.000, 0.000, 0.000, 15:44:14.115
212, 97969.10, 68694.66, -187500.02, -187500.02, -187500.02, -187500.02, -187500.02, -187500.02, 0.000, 0.000, 0.000, 15:44:14.115
213, 97721.02, 68352.64, -187500.02, -187500.02, -187500.02, -187500.02, -187500.02, -187500.02, 0.000, 0.000, 0.000, 15:44:14.115
214, 96993.63, 67457.56, -187500.02, -187500.02, -187500.02, -187500.02, -187500.02, -187500.02, 0.000, 0.000, 0.000, 15:44:14.115
215, 96119.05, 66448.85, -187500.02, -187500.02, -187500.02, -187500.02, -187500.02, -187500.02, 0.000, 0.000, 0.000, 15:44:14.115
216, 97144.21, 67746.55, -187500.02, -187500.02, -187500.02, -187500.02, -187500.02, -187500.02, 0.000, 0.000, 0.000, 15:44:14.115
217, 97966.75, 68699.45, -187500.02, -187500.02, -187500.02, -187500.02, -187500.02, -187500.02, 0.014, 0.052, -1.026, 15:44:14.115
218, 97730.49, 68367.01, -187500.02, -187500.02, -187500.02, -187500.02, -187500.02, -187500.02, 0.000, 0.000, 0.000, 15:44:14.116
219, 97010.88, 67480.80, -187500.02, -187500.02, -187500.02, -187500.02, -187500.02, -187500.02, 0.000, 0.000, 0.000, 15:44:14.116
220, 96122.65, 66458.91, -187500.02, -187500.02, -187500.02, -187500.02, -187500.02, -187500.02, 0.000, 0.000, 0.000, 15:44:14.116
221, 97134.58, 67733.34, -187500.02, -187500.02, -187500.02, -187500.02, -187500.02, -187500.02, 0.000, 0.000, 0.000, 15:44:14.116
222, 97973.50, 68706.53, -187500.02, -187500.02, -187500.02, -187500.02, -187500.02, -187500.02, 0.000, 0.000, 0.000, 15:44:14.116
223, 97717.02, 68355.92, -187500.02, -187500.02, -187500.02, -187500.02, -187500.02, -187500.02, 0.000, 0.000, 0.000, 15:44:14.116
224, 97001.12, 67474.28, -187500.02, -187500.02, -187500.02, -187500.02, -187500.02, -187500.02, 0.000, 0.000, 0.000, 15:44:14.583
225, 96133.09, 66474.35, -187500.02, -187500.02, -187500.02, -187500.02, -187500.02, -187500.02, 0.000, 0.000, 0.000, 15:44:14.583
226, 97136.48, 67738.14, -187500.02, -187500.02, -187500.02, -187500.02, -187500.02, -187500.02, 0.000, 0.000, 0.000, 15:44:14.583
227, 97976.48, 68701.75, -187500.02, -187500.02, -187500.02, -187500.02, -187500.02, -187500.02, 0.020, 0.056, -1.022, 15:44:14.583
228, 97719.52, 68358.07, -187500.02, -187500.02, -187500.02, -187500.02, -187500.02, -187500.02, 0.000, 0.000, 0.000, 15:44:14.583
229, 96995.41, 67466.62, -187500.02, -187500.02, -187500.02, -187500.02, -187500.02, -187500.02, 0.000, 0.000, 0.000, 15:44:14.584
230, 96111.49, 66449.30, -187500.02, -187500.02, -187500.02, -187500.02, -187500.02, -187500.02, 0.000, 0.000, 0.000, 15:44:14.584
231, 97123.89, 67727.08, -187500.02, -187500.02, -187500.02, -187500.02, -187500.02, -187500.02, 0.000, 0.000, 0.000, 15:44:14.584
232, 97957.16, 68690.35, -187500.02, -187500.02, -187500.02, -187500.02, -187500.02, -187500.02, 0.000, 0.000, 0.000, 15:44:14.584
233, 97708.50, 68348.41, -187500.02, -187500.02, -187500.02, -187500.02, -187500.02, -187500.02, 0.000, 0.000, 0.000, 15:44:14.584
234, 96982.67, 67463.04, -187500.02, -187500.02, -187500.02, -187500.02, -187500.02, -187500.02, 0.000, 0.000, 0.000, 15:44:14.584
235, 96103.84, 66447.66, -187500.02, -187500.02, -187500.02, -187500.02, -187500.02, -187500.02, 0.000, 0.000, 0.000, 15:44:14.584
236, 97104.96, 67708.51, -187500.02, -187500.02, -187500.02, -187500.02, -187500.02, -187500.02, 0.000, 0.000, 0.000, 15:44:14.584
237, 97956.41, 68692.20, -187500.02, -187500.02, -187500.02, -187500.02, -187500.02, -187500.02, 0.022, 0.058, -1.022, 15:44:14.585
238, 97713.89, 68352.50, -187500.02, -187500.02, -187500.02, -187500.02, -187500.02, -187500.02, 0.000, 0.000, 0.000, 15:44:14.585
239, 97001.96, 67476.38, -187500.02, -187500.02, -187500.02, -187500.02, -187500.02, -187500.02, 0.000, 0.000, 0.000, 15:44:14.585
240, 96099.63, 66443.98, -187500.02, -187500.02, -187500.02, -187500.02, -187500.02, -187500.02, 0.000, 0.000, 0.000, 15:44:14.585
241, 97101.27, 67710.83, -187500.02, -187500.02, -187500.02, -187500.02, -187500.02, -187500.02, 0.000, 0.000, 0.000, 15:44:14.585
242, 97957.03, 68696.84, -187500.02, -187500.02, -187500.02, -187500.02, -187500.02, -187500.02, 0.000, 0.000, 0.000, 15:44:14.585
243, 97720.13, 68362.12, -187500.02, -187500.02, -187500.02, -187500.02, -187500.02, -187500.02, 0.000, 0.000, 0.000, 15:44:14.585
244, 97004.18, 67474.84, -187500.02, -187500.02, -187500.02, -187500.02, -187500.02, -187500.02, 0.000, 0.000, 0.000, 15:44:14.585
245, 96106.22, 66444.07, -187500.02, -187500.02, -187500.02, -187500.02, -187500.02, -187500.02, 0.000, 0.000, 0.000, 15:44:14.586
246, 97107.80, 67716.20, -187500.02, -187500.02, -187500.02, -187500.02, -187500.02, -187500.02, 0.000, 0.000, 0.000, 15:44:14.586
247, 97975.80, 68710.80, -187500.02, -187500.02, -187500.02, -187500.02, -187500.02, -187500.02, 0.020, 0.060, -1.026, 15:44:14.586
248, 97726.27, 68363.97, -187500.02, -187500.02, -187500.02, -187500.02, -187500.02, -187500.02, 0.000, 0.000, 0.000, 15:44:14.586
249, 97011.95, 67483.94, -187500.02, -187500.02, -187500.02, -187500.02, -187500.02, -187500.02, 0.000, 0.000, 0.000, 15:44:14.586
250, 96119.29, 66458.51, -187500.02, -187500.02, -187500.02, -187500.02, -187500.02, -187500.02, 0.000, 0.000, 0.000, 15:44:14.586
251, 97112.58, 67716.75, -187500.02, -187500.02, -187500.02, -187500.02, -187500.02, -187500.02, 0.000, 0.000, 0.000, 15:44:14.586
252, 97972.86, 68709.80, -187500.02, -187500.02, -187500.02, -187500.02, -187500.02, -187500.02, 0.000, 0.000, 0.000, 15:44:14.586
253, 97726.63, 68372.22, -187500.02, -187500.02, -187500.02, -187500.02, -187500.02, -187500.02, 0.000, 0.000, 0.000, 15:44:14.587
254, 97016.78, 67501.20, -187500.02, -187500.02, -187500.02, -187500.02, -187500.02, -187500.02, 0.000, 0.000, 0.000, 15:44:14.587
255, 96106.48, 66447.66, -187500.02, -187500.02, -187500.02, -187500.02, -187500.02, -187500.02, 0.000, 0.000, 0.000, 15:44:14.587
0, 97082.79, 67686.98, -187500.02, -187500.02, -187500.02, -187500.02, -187500.02, -187500.02, 0.022, 0.058, -1.022, 15:44:14.587
1, 97957.81, 68697.84, -187500.02, -187500.02, -187500.02, -187500.02, -187500.02, -187500.02, 0.000, 0.000, 0.000, 15:44:14.587
2, 97720.46, 68371.16, -187500.02, -187500.02, -187500.02, -187500.02, -187500.02, -187500.02, 0.000, 0.000, 0.000, 15:44:14.587
3, 97008.63, 67497.48, -187500.02, -187500.02, -187500.02, -187500.02, -187500.02, -187500.02, 0.000, 0.000, 0.000, 15:44:14.587
4, 96103.02, 66449.07, -187500.02, -187500.02, -187500.02, -187500.02, -187500.02, -187500.02, 0.000, 0.000, 0.000, 15:44:14.587
5, 97081.11, 67691.95, -187500.02, -187500.02, -187500.02, -187500.02, -187500.02, -187500.02, 0.000, 0.000, 0.000, 15:44:14.588
6, 97953.14, 68702.87, -187500.02, -187500.02, -187500.02, -187500.02, -187500.02, -187500.02, 0.000, 0.000, 0.000, 15:44:14.588
7, 97714.60, 68374.12, -187500.02, -187500.02, -187500.02, -187500.02, -187500.02, -187500.02, 0.000, 0.000, 0.000, 15:44:14.588
8, 97019.02, 67507.25, -187500.02, -187500.02, -187500.02, -187500.02, -187500.02, -187500.02, 0.000, 0.000, 0.000, 15:44:14.588
9, 96116.88, 66461.13, -187500.02, -187500.02, -187500.02, -187500.02, -187500.02, -187500.02, 0.000, 0.000, 0.000, 15:44:14.588
10, 97092.20, 67703.01, -187500.02, -187500.02, -187500.02, -187500.02, -187500.02, -187500.02, 0.024, 0.062, -1.018, 15:44:14.588
11, 97971.78, 68716.81, -187500.02, -187500.02, -187500.02, -187500.02, -187500.02, -187500.02, 0.000, 0.000, 0.000, 15:44:14.588
12, 97733.06, 68388.13, -187500.02, -187500.02, -187500.02, -187500.02, -187500.02, -187500.02, 0.000, 0.000, 0.000, 15:44:14.588
13, 97039.98, 67535.95, -187500.02, -187500.02, -187500.02, -187500.02, -187500.02, -187500.02, 0.000, 0.000, 0.000, 15:44:14.589
14, 96130.29, 66481.87, -187500.02, -187500.02, -187500.02, -187500.02, -187500.02, -187500.02, 0.000, 0.000, 0.000, 15:44:14.589
15, 97093.36, 67699.54, -187500.02, -187500.02, -187500.02, -187500.02, -187500.02, -187500.02, 0.000, 0.000, 0.000, 15:44:14.589
16, 97978.17, 68720.50, -187500.02, -187500.02, -187500.02, -187500.02, -187500.02, -187500.02, 0.000, 0.000, 0.000, 15:44:14.589
17, 97744.47, 68392.20, -187500.02, -187500.02, -187500.02, -187500.02, -187500.02, -187500.02, 0.000, 0.000, 0.000, 15:44:14.589
18, 97045.82, 67536.04, -187500.02, -187500.02, -187500.02, -187500.02, -187500.02, -187500.02, 0.000, 0.000, 0.000, 15:44:14.589
19, 96135.32, 66478.24, -187500.02, -187500.02, -187500.02, -187500.02, -187500.02, -187500.02, 0.000, 0.000, 0.000, 15:44:14.589
20, 97098.63, 67696.19, -187500.02, -187500.02, -187500.02, -187500.02, -187500.02, -187500.02, 0.020, 0.060, -1.020, 15:44:14.589
21, 97980.23, 68719.23, -187500.02, -187500.02, -187500.02, -187500.02, -187500.02, -187500.02, 0.000, 0.000, 0.000, 15:44:14.590
22, 97749.41, 68395.20, -187500.02, -187500.02, -187500.02, -187500.02, -187500.02, -187500.02, 0.000, 0.000, 0.000, 15:44:14.590
23, 97048.90, 67532.64, -187500.02, -187500.02, -187500.02, -187500.02, -187500.02, -187500.02, 0.000, 0.000, 0.000, 15:44:14.590
24, 96137.20, 66478.76, -187500.02, -187500.02, -187500.02, -187500.02, -187500.02, -187500.02, 0.000, 0.000, 0.000, 15:44:14.590
25, 97090.52, 67690.02, -187500.02, -187500.02, -187500.02, -187500.02, -187500.02, -187500.02, 0.000, 0.000, 0.000, 15:44:14.590
26, 97968.88, 68707.70, -187500.02, -187500.02, -187500.02, -187500.02, -187500.02, -187500.02, 0.000, 0.000, 0.000, 15:44:14.590
27, 97735.34, 68386.70, -187500.02, -187500.02, -187500.02, -187500.02, -187500.02, -187500.02, 0.000, 0.000, 0.000, 15:44:14.590
28, 97038.62, 67528.40, -187500.02, -187500.02, -187500.02, -187500.02, -187500.02, -187500.02, 0.000, 0.000, 0.000, 15:44:14.590
29, 96115.20, 66456.65, -187500.02, -187500.02, -187500.02, -187500.02, -187500.02, -187500.02, 0.000, 0.000, 0.000, 15:44:14.591
30, 97078.38, 67680.92, -187500.02, -187500.02, -187500.02, -187500.02, -187500.02, -187500.02, 0.018, 0.058, -1.020, 15:44:14.591
31, 97976.25, 68723.25, -187500.02, -187500.02, -187500.02, -187500.02, -187500.02, -187500.02, 0.000, 0.000, 0.000, 15:44:14.591
32, 97758.28, 68414.09, -187500.02, -187500.02, -187500.02, -187500.02, -187500.02, -187500.02, 0.000, 0.000, 0.000, 15:44:14.591
33, 97077.22, 67565.81, -187500.02, -187500.02, -187500.02, -187500.02, -187500.02, -187500.02, 0.000, 0.000, 0.000, 15:44:14.591
34, 96148.59, 66491.09, -187500.02, -187500.02, -187500.02, -187500.02, -187500.02, -187500.02, 0.000, 0.000, 0.000, 15:44:14.591
35, 97093.07, 67693.77, -187500.02, -187500.02, -187500.02, -187500.02, -187500.02, -187500.02, 0.000, 0.000, 0.000, 15:44:14.591
36, 97990.47, 68732.06, -187500.02, -187500.02, -187500.02, -187500.02, -187500.02, -187500.02, 0.000, 0.000, 0.000, 15:44:14.591
37, 97776.02, 68428.55, -187500.02, -187500.02, -187500.02, -187500.02, -187500.02, -187500.02, 0.000, 0.000, 0.000, 15:44:14.591
38, 97091.19, 67583.58, -187500.02, -187500.02, -187500.02, -187500.02, -187500.02, -187500.02, 0.000, 0.000, 0.000, 15:44:14.592
39, 96156.40, 66502.09, -187500.02, -187500.02, -187500.02, -187500.02, -187500.02, -187500.02, 0.000, 0.000, 0.000, 15:44:14.592
40, 97092.82, 67692.13, -187500.02, -187500.02, -187500.02, -187500.02, -187500.02, -187500.02, 0.024, 0.056, -1.022, 15:44:14.592
41, 97998.96, 68742.32, -187500.02, -187500.02, -187500.02, -187500.02, -187500.02, -187500.02, 0.000, 0.000, 0.000, 15:44:14.592
42, 97775.31, 68429.55, -187500.02, -187500.02, -187500.02, -187500.02, -187500.02, -187500.02, 0.000, 0.000, 0.000, 15:44:14.592
43, 97090.63, 67584.86, -187500.02, -187500.02, -187500.02, -187500.02, -187500.02, -187500.02, 0.000, 0.000, 0.000, 15:44:14.592
44, 96150.23, 66494.96, -187500.02, -187500.02, -187500.02, -187500.02, -187500.02, -187500.02, 0.000, 0.000, 0.000, 15:44:14.592
45, 97081.96, 67680.05, -187500.02, -187500.02, -187500.02, -187500.02, -187500.02, -187500.02, 0.000, 0.000, 0.000, 15:44:14.592
46, 97988.62, 68732.69, -187500.02, -187500.02, -187500.02, -187500.02, -187500.02, -187500.02, 0.000, 0.000, 0.000, 15:44:14.593
47, 97769.23, 68426.27, -187500.02, -187500.02, -187500.02, -187500.02, -187500.02, -187500.02, 0.000, 0.000, 0.000, 15:44:14.593
48, 97088.22, 67585.44, -187500.02, -187500.02, -187500.02, -187500.02, -187500.02, -187500.02, 0.000, 0.000, 0.000, 15:44:14.593
49, 96146.34, 66493.40, -187500.02, -187500.02, -187500.02, -187500.02, -187500.02, -187500.02, 0.000, 0.000, 0.000, 15:44:14.593
50, 97066.11, 67668.56, -187500.02, -187500.02, -187500.02, -187500.02, -187500.02, -187500.02, 0.024, 0.054, -1.016, 15:44:14.593
51, 97982.76, 68727.09, -187500.02, -187500.02, -187500.02, -187500.02, -187500.02, -187500.02, 0.000, 0.000, 0.000, 15:44:14.593
52, 97760.34, 68412.74, -187500.02, -187500.02, -187500.02, -187500.02, -187500.02, -187500.02, 0.000, 0.000, 0.000, 15:44:14.593
53, 97071.79, 67567.66, -187500.02, -187500.02, -187500.02, -187500.02, -187500.02, -187500.02, 0.000, 0.000, 0.000, 15:44:14.593
54, 96127.36, 66471.25, -187500.02, -187500.02, -187500.02, -187500.02, -187500.02, -187500.02, 0.000, 0.000, 0.000, 15:44:14.594
55, 97053.98, 67651.27, -187500.02, -187500.02, -187500.02, -187500.02, -187500.02, -187500.02, 0.000, 0.000, 0.000, 15:44:14.594
56, 97972.63, 68721.60, -187500.02, -187500.02, -187500.02, -187500.02, -187500.02, -187500.02, 0.000, 0.000, 0.000, 15:44:14.594
57, 97760.34, 68416.25, -187500.02, -187500.02, -187500.02, -187500.02, -187500.02, -187500.02, 0.000, 0.000, 0.000, 15:44:14.594
58, 97091.37, 67584.48, -187500.02, -187500.02, -187500.02, -187500.02, -187500.02, -187500.02, 0.000, 0.000, 0.000, 15:44:14.594
59, 96147.55, 66489.76, -187500.02, -187500.02, -187500.02, -187500.02, -187500.02, -187500.02, 0.000, 0.000, 0.000, 15:44:14.594
60, 97068.84, 67668.74, -187500.02, -187500.02, -187500.02, -187500.02, -187500.02, -187500.02, 0.018, 0.062, -1.020, 15:44:14.594
61, 97996.21, 68741.88, -187500.02, -187500.02, -187500.02, -187500.02, -187500.02, -187500.02, 0.000, 0.000, 0.000, 15:44:14.594
62, 97778.15, 68434.60, -187500.02, -187500.02, -187500.02, -187500.02, -187500.02, -187500.02, 0.000, 0.000, 0.000, 15:44:14.595
63, 97106.93, 67606.42, -187500.02, -187500.02, -187500.02, -187500.02, -187500.02, -187500.02, 0.000, 0.000, 0.000, 15:44:14.595
64, 96157.18, 66501.98, -187500.02, -187500.02, -187500.02, -187500.02, -187500.02, -187500.02, 0.000, 0.000, 0.000, 15:44:14.595
65, 97061.53, 67659.63, -187500.02, -187500.02, -187500.02, -187500.02, -187500.02, -187500.02, 0.000, 0.000, 0.000, 15:44:14.595
66, 97995.23, 68750.56, -187500.02, -187500.02, -187500.02, -187500.02, -187500.02, -187500.02, 0.000, 0.000, 0.000, 15:44:14.595
67, 97782.93, 68442.96, -187500.02, -187500.02, -187500.02, -187500.02, -187500.02, -187500.02, 0.000, 0.000, 0.000, 15:44:14.595
68, 97109.97, 67608.73, -187500.02, -187500.02, -187500.02, -187500.02, -187500.02, -187500.02, 0.000, 0.000, 0.000, 15:44:14.595
69, 96158.38, 66509.20, -187500.02, -187500.02, -187500.02, -187500.02, -187500.02, -187500.02, 0.000, 0.000, 0.000, 15:44:14.595
70, 97056.48, 67659.53, -187500.02, -187500.02, -187500.02, -187500.02, -187500.02, -187500.02, 0.016, 0.064, -1.022, 15:44:14.595
71, 97978.89, 68728.66, -187500.02, -187500.02, -187500.02, -187500.02, -187500.02, -187500.02, 0.000, 0.000, 0.000, 15:44:14.596
72, 97765.59, 68429.15, -187500.02, -187500.02, -187500.02, -187500.02, -187500.02, -187500.02, 0.000, 0.000, 0.000, 15:44:14.596
73, 97094.34, 67601.22, -187500.02, -187500.02, -187500.02, -187500.02, -187500.02, -187500.02, 0.000, 0.000, 0.000, 15:44:14.596
74, 96143.77, 66499.41, -187500.02, -187500.02, -187500.02, -187500.02, -187500.02, -187500.02, 0.000, 0.000, 0.000, 15:44:14.596
75, 97043.09, 67646.62, -187500.02, -187500.02, -187500.02, -187500.02, -187500.02, -187500.02, 0.000, 0.000, 0.000, 15:44:14.596
76, 97984.75, 68741.29, -187500.02, -187500.02, -187500.02, -187500.02, -187500.02, -187500.02, 0.000, 0.000, 0.000, 15:44:14.596
77, 97774.23, 68437.53, -187500.02, -187500.02, -187500.02, -187500.02, -187500.02, -187500.02, 0.000, 0.000, 0.000, 15:44:14.596
78, 97101.20, 67608.62, -187500.02, -187500.02, -187500.02, -187500.02, -187500.02, -187500.02, 0.000, 0.000, 0.000, 15:44:14.596
79, 96146.72, 66497.45, -187500.02, -187500.02, -187500.02, -187500.02, -187500.02, -187500.02, 0.000, 0.000, 0.000, 15:44:14.597
80, 97040.01, 67641.09, -187500.02, -187500.02, -187500.02, -187500.02, -187500.02, -187500.02, 0.018, 0.062, -1.028, 15:44:14.597
81, 97981.23, 68734.45, -187500.02, -187500.02, -187500.02, -187500.02, -187500.02, -187500.02, 0.000, 0.000, 0.000, 15:44:14.597
82, 97776.45, 68444.75, -187500.02, -187500.02, -187500.02, -187500.02, -187500.02, -187500.02, 0.000, 0.000, 0.000, 15:44:14.597
83, 97107.77, 67626.30, -187500.02, -187500.02, -187500.02, -187500.02, -187500.02, -187500.02, 0.000, 0.000, 0.000, 15:44:14.597
84, 96155.66, 66516.82, -187500.02, -187500.02, -187500.02, -187500.02, -187500.02, -187500.02, 0.000, 0.000, 0.000, 15:44:14.597
85, 97056.16, 67666.57, -187500.02, -187500.02, -187500.02, -187500.02, -187500.02, -187500.02, 0.000, 0.000, 0.000, 15:44:14.597
86, 98009.24, 68774.73, -187500.02, -187500.02, -187500.02, -187500.02, -187500.02, -187500.02, 0.000, 0.000, 0.000, 15:44:14.597
87, 97798.29, 68475.04, -187500.02, -187500.02, -187500.02, -187500.02, -187500.02, -187500.02, 0.000, 0.000, 0.000, 15:44:14.598
88, 97120.98, 67639.70, -187500.02, -187500.02, -187500.02, -187500.02, -187500.02, -187500.02, 0.000, 0.000, 0.000, 15:44:14.598
89, 96160.09, 66517.07, -187500.02, -187500.02, -187500.02, -187500.02, -187500.02, -187500.02, 0.000, 0.000, 0.000, 15:44:15.065
90, 97054.78, 67661.66, -187500.02, -187500.02, -187500.02, -187500.02, -187500.02, -187500.02, 0.022, 0.054, -1.030, 15:44:15.065
91, 97996.50, 68763.20, -187500.02, -187500.02, -187500.02, -187500.02, -187500.02, -187500.02, 0.000, 0.000, 0.000, 15:44:15.065
92, 97792.97, 68469.18, -187500.02, -187500.02, -187500.02, -187500.02, -187500.02, -187500.02, 0.000, 0.000, 0.000, 15:44:15.065
93, 97128.30, 67649.14, -187500.02, -187500.02, -187500.02, -187500.02, -187500.02, -187500.02, 0.000, 0.000, 0.000, 15:44:15.065
94, 96158.37, 66526.03, -187500.02, -187500.02, -187500.02, -187500.02, -187500.02, -187500.02, 0.000, 0.000, 0.000, 15:44:15.066
95, 97029.23, 67645.54, -187500.02, -187500.02, -187500.02, -187500.02, -187500.02, -187500.02, 0.000, 0.000, 0.000, 15:44:15.066
96, 97976.63, 68749.36, -187500.02, -187500.02, -187500.02, -187500.02, -187500.02, -187500.02, 0.000, 0.000, 0.000, 15:44:15.066
97, 97774.33, 68456.82, -187500.02, -187500.02, -187500.02, -187500.02, -187500.02, -187500.02, 0.000, 0.000, 0.000, 15:44:15.066
98, 97113.25, 67642.39, -187500.02, -187500.02, -187500.02, -187500.02, -187500.02, -187500.02, 0.000, 0.000, 0.000, 15:44:15.066
99, 96140.80, 66510.72, -187500.02, -187500.02, -187500.02, -187500.02, -187500.02, -187500.02, 0.000, 0.000, 0.000, 15:44:15.066
100, 97004.87, 67619.68, -187500.02, -187500.02, -187500.02, -187500.02, -187500.02, -187500.02, 0.022, 0.058, -1.030, 15:44:15.066
101, 97971.09, 68738.95, -187500.02, -187500.02, -187500.02, -187500.02, -187500.02, -187500.02, 0.000, 0.000, 0.000, 15:44:15.066
102, 97773.57, 68458.01, -187500.02, -187500.02, -187500.02, -187500.02, -187500.02, -187500.02, 0.000, 0.000, 0.000, 15:44:15.066
103, 97113.95, 67641.47, -187500.02, -187500.02, -187500.02, -187500.02, -187500.02, -187500.02, 0.000, 0.000, 0.000, 15:44:15.067
104, 96146.79, 66516.30, -187500.02, -187500.02, -187500.02, -187500.02, -187500.02, -187500.02, 0.000, 0.000, 0.000, 15:44:15.067
105, 97018.26, 67633.76, -187500.02, -187500.02, -187500.02, -187500.02, -187500.02, -187500.02, 0.000, 0.000, 0.000, 15:44:15.067
106, 97976.32, 68752.16, -187500.02, -187500.02, -187500.02, -187500.02, -187500.02, -187500.02, 0.000, 0.000, 0.000, 15:44:15.067
107, 97781.30, 68469.65, -187500.02, -187500.02, -187500.02, -187500.02, -187500.02, -187500.02, 0.000, 0.000, 0.000, 15:44:15.067
108, 97131.94, 67667.40, -187500.02, -187500.02, -187500.02, -187500.02, -187500.02, -187500.02, 0.000, 0.000, 0.000, 15:44:15.067
109, 96157.80, 66535.28, -187500.02, -187500.02, -187500.02, -187500.02, -187500.02, -187500.02, 0.000, 0.000, 0.000, 15:44:15.067
110, 97019.04, 67639.80, -187500.02, -187500.02, -187500.02, -187500.02, -187500.02, -187500.02, 0.018, 0.052, -1.030, 15:44:15.067
111, 97988.32, 68769.56, -187500.02, -187500.02, -187500.02, -187500.02, -187500.02, -187500.02, 0.000, 0.000, 0.000, 15:44:15.068
112, 97780.14, 68476.13, -187500.02, -187500.02, -187500.02, -187500.02, -187500.02, -187500.02, 0.000, 0.000, 0.000, 15:44:15.068
113, 97133.48, 67682.63, -187500.02, -187500.02, -187500.02, -187500.02, -187500.02, -187500.02, 0.000, 0.000, 0.000, 15:44:15.068
114, 96162.32, 66545.90, -187500.02, -187500.02, -187500.02, -187500.02, -187500.02, -187500.02, 0.000, 0.000, 0.000, 15:44:15.068
115, 97007.98, 67632.60, -187500.02, -187500.02, -187500.02, -187500.02, -187500.02, -187500.02, 0.000, 0.000, 0.000, 15:44:15.068
116, 97977.37, 68764.89, -187500.02, -187500.02, -187500.02, -187500.02, -187500.02, -187500.02, 0.000, 0.000, 0.000, 15:44:15.068
117, 97786.11, 68483.28, -187500.02, -187500.02, -187500.02, -187500.02, -187500.02, -187500.02, 0.000, 0.000, 0.000, 15:44:15.068
118, 97129.32, 67670.30, -187500.02, -187500.02, -187500.02, -187500.02, -187500.02, -187500.02, 0.000, 0.000, 0.000, 15:44:15.068
119, 96154.50, 66536.18, -187500.02, -187500.02, -187500.02, -187500.02, -187500.02, -187500.02, 0.000, 0.000, 0.000, 15:44:15.069
120, 97006.73, 67633.09, -187500.02, -187500.02, -187500.02, -187500.02, -187500.02, -187500.02, 0.022, 0.052, -1.030, 15:44:15.069
121, 97980.27, 68771.24, -187500.02, -187500.02, -187500.02, -187500.02, -187500.02, -187500.02, 0.000, 0.000, 0.000, 15:44:15.069
122, 97791.29, 68490.98, -187500.02, -187500.02, -187500.02, -187500.02, -187500.02, -187500.02, 0.000, 0.000, 0.000, 15:44:15.069
123, 97139.02, 67680.03, -187500.02, -187500.02, -187500.02, -187500.02, -187500.02, -187500.02, 0.000, 0.000, 0.000, 15:44:15.069
124, 96151.19, 66532.29, -187500.02, -187500.02, -187500.02, -187500.02, -187500.02, -187500.02, 0.000, 0.000, 0.000, 15:44:15.069
125, 96989.94, 67615.95, -187500.02, -187500.02, -187500.02, -187500.02, -187500.02, -187500.02, 0.000, 0.000, 0.000, 15:44:15.069
126, 97966.66, 68752.24, -187500.02, -187500.02, -187500.02, -187500.02, -187500.02, -187500.02, 0.000, 0.000, 0.000, 15:44:15.069
127, 97781.70, 68478.10, -187500.02, -187500.02, -187500.02, -187500.02, -187500.02, -187500.02, 0.000, 0.000, 0.000, 15:44:15.070
128, 97136.32, 67683.00, -187500.02, -187500.02, -187500.02, -187500.02, -187500.02, -187500.02, 0.000, 0.000, 0.000, 15:44:15.070
129, 96158.99, 66539.73, -187500.02, -187500.02, -187500.02, -187500.02, -187500.02, -187500.02, 0.022, 0.048, -1.026, 15:44:15.070
130, 97000.45, 67621.53, -187500.02, -187500.02, -187500.02, -187500.02, -187500.02, -187500.02, 0.000, 0.000, 0.000, 15:44:15.070
131, 97977.15, 68771.04, -187500.02, -187500.02, -187500.02, -187500.02, -187500.02, -187500.02, 0.000, 0.000, 0.000, 15:44:15.070
132, 97789.28, 68494.28, -187500.02, -187500.02, -187500.02, -187500.02, -187500.02, -187500.02, 0.000, 0.000, 0.000, 15:44:15.070
133, 97150.09, 67700.50, -187500.02, -187500.02, -187500.02, -187500.02, -187500.02, -187500.02, 0.000, 0.000, 0.000, 15:44:15.070
134, 96164.98, 66549.48, -187500.02, -187500.02, -187500.02, -187500.02, -187500.02, -187500.02, 0.000, 0.000, 0.000, 15:44:15.070
135, 96993.73, 67620.80, -187500.02, -187500.02, -187500.02, -187500.02, -187500.02, -187500.02, 0.000, 0.000, 0.000, 15:44:15.070
136, 97988.13, 68784.98, -187500.02, -187500.02, -187500.02, -187500.02, -187500.02, -187500.02, 0.000, 0.000, 0.000, 15:44:15.071
137, 97796.32, 68505.37, -187500.02, -187500.02, -187500.02, -187500.02, -187500.02, -187500.02, 0.000, 0.000, 0.000, 15:44:15.071
138, 97150.47, 67705.48, -187500.02, -187500.02, -187500.02, -187500.02, -187500.02, -187500.02, 0.000, 0.000, 0.000, 15:44:15.071
139, 96162.63, 66550.06, -187500.02, -187500.02, -187500.02, -187500.02, -187500.02, -187500.02, 0.028, 0.048, -1.018, 15:44:15.071
140, 96982.20, 67611.07, -187500.02, -187500.02, -187500.02, -187500.02, -187500.02, -187500.02, 0.000, 0.000, 0.000, 15:44:15.071
141, 97974.47, 68774.57, -187500.02, -187500.02, -187500.02, -187500.02, -187500.02, -187500.02, 0.000, 0.000, 0.000, 15:44:15.071
142, 97780.97, 68496.77, -187500.02, -187500.02, -187500.02, -187500.02, -187500.02, -187500.02, 0.000, 0.000, 0.000, 15:44:15.072
143, 97149.93, 67713.58, -187500.02, -187500.02, -187500.02, -187500.02, -187500.02, -187500.02, 0.000, 0.000, 0.000, 15:44:15.072
144, 96157.29, 66557.41, -187500.02, -187500.02, -187500.02, -187500.02, -187500.02, -187500.02, 0.000, 0.000, 0.000, 15:44:15.072
145, 96977.16, 67608.37, -187500.02, -187500.02, -187500.02, -187500.02, -187500.02, -187500.02, 0.000, 0.000, 0.000, 15:44:15.072
146, 97964.09, 68758.08, -187500.02, -187500.02, -187500.02, -187500.02, -187500.02, -187500.02, 0.000, 0.000, 0.000, 15:44:15.072
147, 97780.09, 68486.86, -187500.02, -187500.02, -187500.02, -187500.02, -187500.02, -187500.02, 0.000, 0.000, 0.000, 15:44:15.072
148, 97139.91, 67694.13, -187500.02, -187500.02, -187500.02, -187500.02, -187500.02, -187500.02, 0.000, 0.000, 0.000, 15:44:15.072
149, 96142.07, 66533.74, -187500.02, -187500.02, -187500.02, -187500.02, -187500.02, -187500.02, 0.022, 0.056, -1.016, 15:44:15.072
150, 96959.02, 67594.22, -187500.02, -187500.02, -187500.02, -187500.02, -187500.02, -187500.02, 0.000, 0.000, 0.000, 15:44:15.073
151, 97958.93, 68763.38, -187500.02, -187500.02, -187500.02, -187500.02, -187500.02, -187500.02, 0.000, 0.000, 0.000, 15:44:15.073
152, 97768.29, 68484.73, -187500.02, -187500.02, -187500.02, -187500.02, -187500.02, -187500.02, 0.000, 0.000, 0.000, 15:44:15.073
153, 97132.30, 67699.03, -187500.02, -187500.02, -187500.02, -187500.02, -187500.02, -187500.02, 0.000, 0.000, 0.000, 15:44:15.073
154, 96143.03, 66540.00, -187500.02, -187500.02, -187500.02, -187500.02, -187500.02, -187500.02, 0.000, 0.000, 0.000, 15:44:15.073
155, 96949.05, 67578.48, -187500.02, -187500.02, -187500.02, -187500.02, -187500.02, -187500.02, 0.000, 0.000, 0.000, 15:44:15.073
156, 97948.23, 68752.51, -187500.02, -187500.02, -187500.02, -187500.02, -187500.02, -187500.02, 0.000, 0.000, 0.000, 15:44:15.073
157, 97778.06, 68495.91, -187500.02, -187500.02, -187500.02, -187500.02, -187500.02, -187500.02, 0.000, 0.000, 0.000, 15:44:15.073
158, 97151.50, 67718.16, -187500.02, -187500.02, -187500.02, -187500.02, -187500.02, -187500.02, 0.000, 0.000, 0.000, 15:44:15.074
159, 96147.88, 66542.82, -187500.02, -187500.02, -187500.02, -187500.02, -187500.02, -187500.02, 0.026, 0.052, -1.022, 15:44:15.074
160, 96950.42, 67580.25, -187500.02, -187500.02, -187500.02, -187500.02, -187500.02, -187500.02, 0.000, 0.000, 0.000, 15:44:15.074
161, 97959.45, 68764.70, -187500.02, -187500.02, -187500.02, -187500.02, -187500.02, -187500.02, 0.000, 0.000, 0.000, 15:44:15.074
162, 97779.67, 68498.91, -187500.02, -187500.02, -187500.02, -187500.02, -187500.02, -187500.02, 0.000, 0.000, 0.000, 15:44:15.074
163, 97152.84, 67720.11, -187500.02, -187500.02, -187500.02, -187500.02, -187500.02, -187500.02, 0.000, 0.000, 0.000, 15:44:15.074
164, 96151.45, 66545.81, -187500.02, -187500.02, -187500.02, -187500.02, -187500.02, -187500.02, 0.000, 0.000, 0.000, 15:44:15.074
165, 96943.45, 67569.61, -187500.02, -187500.02, -187500.02, -187500.02, -187500.02, -187500.02, 0.000, 0.000, 0.000, 15:44:15.074
166, 97952.38, 68759.84, -187500.02, -187500.02, -187500.02, -187500.02, -187500.02, -187500.02, 0.000, 0.000, 0.000, 15:44:15.075
167, 97768.56, 68489.79, -187500.02, -187500.02, -187500.02, -187500.02, -187500.02, -187500.02, 0.000, 0.000, 0.000, 15:44:15.075
168, 97144.39, 67714.14, -187500.02, -187500.02, -187500.02, -187500.02, -187500.02, -187500.02, 0.000, 0.000, 0.000, 15:44:15.075
169, 96140.70, 66539.94, -187500.02, -187500.02, -187500.02, -187500.02, -187500.02, -187500.02, 0.022, 0.056, -1.024, 15:44:15.075
170, 96927.17, 67557.34, -187500.02, -187500.02, -187500.02, -187500.02, -187500.02, -187500.02, 0.000, 0.000, 0.000, 15:44:15.075
171, 97945.07, 68748.84, -187500.02, -187500.02, -187500.02, -187500.02, -187500.02, -187500.02, 0.000, 0.000, 0.000, 15:44:15.075
172, 97773.08, 68490.80, -187500.02, -187500.02, -187500.02, -187500.02, -187500.02, -187500.02, 0.000, 0.000, 0.000, 15:44:15.075
173, 97147.88, 67714.23, -187500.02, -187500.02, -187500.02, -187500.02, -187500.02, -187500.02, 0.000, 0.000, 0.000, 15:44:15.075
174, 96137.02, 66529.79, -187500.02, -187500.02, -187500.02, -187500.02, -187500.02, -187500.02, 0.000, 0.000, 0.000, 15:44:15.076
175, 96917.70, 67548.29, -187500.02, -187500.02, -187500.02, -187500.02, -187500.02, -187500.02, 0.000, 0.000, 0.000, 15:44:15.076
176, 97949.84, 68757.77, -187500.02, -187500.02, -187500.02, -187500.02, -187500.02, -187500.02, 0.000, 0.000, 0.000, 15:44:15.076
177, 97775.18, 68495.42, -187500.02, -187500.02, -187500.02, -187500.02, -187500.02, -187500.02, 0.000, 0.000, 0.000, 15:44:15.076
178, 97154.54, 67725.41, -187500.02, -187500.02, -187500.02, -187500.02, -187500.02, -187500.02, 0.000, 0.000, 0.000, 15:44:15.076
179, 96152.15, 66551.84, -187500.02, -187500.02, -187500.02, -187500.02, -187500.02, -187500.02, 0.022, 0.050, -1.024, 15:44:15.076
180, 96930.37, 67559.69, -187500.02, -187500.02, -187500.02, -187500.02, -187500.02, -187500.02, 0.000, 0.000, 0.000, 15:44:15.076
181, 97955.04, 68758.23, -187500.02, -187500.02, -187500.02, -187500.02, -187500.02, -187500.02, 0.000, 0.000, 0.000, 15:44:15.076
182, 97783.83, 68504.16, -187500.02, -187500.02, -187500.02, -187500.02, -187500.02, -187500.02, 0.000, 0.000, 0.000, 15:44:15.076
183, 97167.95, 67741.79, -187500.02, -187500.02, -187500.02, -187500.02, -187500.02, -187500.02, 0.000, 0.000, 0.000, 15:44:15.077
184, 96150.70, 66553.10, -187500.02, -187500.02, -187500.02, -187500.02, -187500.02, -187500.02, 0.000, 0.000, 0.000, 15:44:15.077
185, 96916.22, 67548.04, -187500.02, -187500.02, -187500.02, -187500.02, -187500.02, -187500.02, 0.000, 0.000, 0.000, 15:44:15.077
186, 97947.64, 68760.71, -187500.02, -187500.02, -187500.02, -187500.02, -187500.02, -187500.02, 0.000, 0.000, 0.000, 15:44:15.077
187, 97777.66, 68510.09, -187500.02, -187500.02, -187500.02, -187500.02, -187500.02, -187500.02, 0.000, 0.000, 0.000, 15:44:15.077
188, 97158.91, 67742.70, -187500.02, -187500.02, -187500.02, -187500.02, -187500.02, -187500.02, 0.000, 0.000, 0.000, 15:44:15.077
189, 96143.30, 66551.67, -187500.02, -187500.02, -187500.02, -187500.02, -187500.02, -187500.02, 0.026, 0.050, -1.028, 15:44:15.077
190, 96904.09, 67535.91, -187500.02, -187500.02, -187500.02, -187500.02, -187500.02, -187500.02, 0.000, 0.000, 0.000, 15:44:15.077
191, 97931.77, 68746.05, -187500.02, -187500.02, -187500.02, -187500.02, -187500.02, -187500.02, 0.000, 0.000, 0.000, 15:44:15.078
192, 97768.74, 68503.36, -187500.02, -187500.02, -187500.02, -187500.02, -187500.02, -187500.02, 0.000, 0.000, 0.000, 15:44:15.078
193, 97150.45, 67736.87, -187500.02, -187500.02, -187500.02, -187500.02, -187500.02, -187500.02, 0.000, 0.000, 0.000, 15:44:15.078
194, 96137.40, 66547.98, -187500.02, -187500.02, -187500.02, -187500.02, -187500.02, -187500.02, 0.000, 0.000, 0.000, 15:44:15.078
195, 96897.02, 67528.71, -187500.02, -187500.02, -187500.02, -187500.02, -187500.02, -187500.02, 0.000, 0.000, 0.000, 15:44:15.078
196, 97932.22, 68746.50, -187500.02, -187500.02, -187500.02, -187500.02, -187500.02, -187500.02, 0.000, 0.000, 0.000, 15:44:15.078
197, 97772.12, 68503.16, -187500.02, -187500.02, -187500.02, -187500.02, -187500.02, -187500.02, 0.000, 0.000, 0.000, 15:44:15.078
198, 97161.82, 67741.14, -187500.02, -187500.02, -187500.02, -187500.02, -187500.02, -187500.02, 0.000, 0.000, 0.000, 15:44:15.078
199, 96145.49, 66544.00, -187500.02, -187500.02, -187500.02, -187500.02, -187500.02, -187500.02, 0.024, 0.054, -1.030, 15:44:15.079
200, 96900.69, 67532.40, -187500.02, -187500.02, -187500.02, -187500.02, -187500.02, -187500.02, 0.000, 0.000, 0.000, 15:44:15.079
201, 97940.71, 68755.57, -187500.02, -187500.02, -187500.02, -187500.02, -187500.02, -187500.02, 0.000, 0.000, 0.000, 15:44:15.079
202, 97771.63, 68501.97, -187500.02, -187500.02, -187500.02, -187500.02, -187500.02, -187500.02, 0.000, 0.000, 0.000, 15:44:15.079
203, 97168.08, 67748.20, -187500.02, -187500.02, -187500.02, -187500.02, -187500.02, -187500.02, 0.000, 0.000, 0.000, 15:44:15.079
204, 96151.14, 66554.53, -187500.02, -187500.02, -187500.02, -187500.02, -187500.02, -187500.02, 0.000, 0.000, 0.000, 15:44:15.079
205, 96898.59, 67523.01, -187500.02, -187500.02, -187500.02, -187500.02, -187500.02, -187500.02, 0.000, 0.000, 0.000, 15:44:15.079
206, 97943.73, 68752.53, -187500.02, -187500.02, -187500.02, -187500.02, -187500.02, -187500.02, 0.000, 0.000, 0.000, 15:44:15.079
207, 97773.41, 68512.74, -187500.02, -187500.02, -187500.02, -187500.02, -187500.02, -187500.02, 0.000, 0.000, 0.000, 15:44:15.079
208, 97166.45, 67757.48, -187500.02, -187500.02, -187500.02, -187500.02, -187500.02, -187500.02, 0.000, 0.000, 0.000, 15:44:15.080
209, 96142.59, 66554.77, -187500.02, -187500.02, -187500.02, -187500.02, -187500.02, -187500.02, 0.020, 0.058, -1.026, 15:44:15.545
210, 96870.02, 67508.10, -187500.02, -187500.02, -187500.02, -187500.02, -187500.02, -187500.02, 0.000, 0.000, 0.000, 15:44:15.545
211, 97924.98, 68747.10, -187500.02, -187500.02, -187500.02, -187500.02, -187500.02, -187500.02, 0.000, 0.000, 0.000, 15:44:15.545
212, 97761.85, 68500.18, -187500.02, -187500.02, -187500.02, -187500.02, -187500.02, -187500.02, 0.000, 0.000, 0.000, 15:44:15.545
213, 97161.27, 67751.53, -187500.02, -187500.02, -187500.02, -187500.02, -187500.02, -187500.02, 0.000, 0.000, 0.000, 15:44:15.545
214, 96141.38, 66554.53, -187500.02, -187500.02, -187500.02, -187500.02, -187500.02, -187500.02, 0.000, 0.000, 0.000, 15:44:15.545
215, 96863.56, 67499.94, -187500.02, -187500.02, -187500.02, -187500.02, -187500.02, -187500.02, 0.000, 0.000, 0.000, 15:44:15.546
216, 97920.38, 68742.66, -187500.02, -187500.02, -187500.02, -187500.02, -187500.02, -187500.02, 0.000, 0.000, 0.000, 15:44:15.546
217, 97769.90, 68514.71, -187500.02, -187500.02, -187500.02, -187500.02, -187500.02, -187500.02, 0.000, 0.000, 0.000, 15:44:15.546
218, 97171.59, 67766.22, -187500.02, -187500.02, -187500.02, -187500.02, -187500.02, -187500.02, 0.000, 0.000, 0.000, 15:44:15.546
219, 96140.64, 66554.87, -187500.02, -187500.02, -187500.02, -187500.02, -187500.02, -187500.02, 0.018, 0.056, -1.018, 15:44:15.546
220, 96859.56, 67491.91, -187500.02, -187500.02, -187500.02, -187500.02, -187500.02, -187500.02, 0.000, 0.000, 0.000, 15:44:15.546
221, 97924.22, 68742.81, -187500.02, -187500.02, -187500.02, -187500.02, -187500.02, -187500.02, 0.000, 0.000, 0.000, 15:44:15.546
222, 97768.60, 68514.76, -187500.02, -187500.02, -187500.02, -187500.02, -187500.02, -187500.02, 0.000, 0.000, 0.000, 15:44:15.546
223, 97174.16, 67772.14, -187500.02, -187500.02, -187500.02, -187500.02, -187500.02, -187500.02, 0.000, 0.000, 0.000, 15:44:15.547
224, 96153.11, 66569.84, -187500.02, -187500.02, -187500.02, -187500.02, -187500.02, -187500.02, 0.000, 0.000, 0.000, 15:44:15.547
225, 96864.43, 67503.36, -187500.02, -187500.02, -187500.02, -187500.02, -187500.02, -187500.02, 0.000, 0.000, 0.000, 15:44:15.547
226, 97917.91, 68748.63, -187500.02, -187500.02, -187500.02, -187500.02, -187500.02, -187500.02, 0.000, 0.000, 0.000, 15:44:15.547
227, 97765.74, 68513.01, -187500.02, -187500.02, -187500.02, -187500.02, -187500.02, -187500.02, 0.000, 0.000, 0.000, 15:44:15.547
228, 97180.38, 67780.68, -187500.02, -187500.02, -187500.02, -187500.02, -187500.02, -187500.02, 0.000, 0.000, 0.000, 15:44:15.547
229, 96144.59, 66565.17, -187500.02, -187500.02, -187500.02, -187500.02, -187500.02, -187500.02, 0.024, 0.060, -1.012, 15:44:15.547
230, 96853.93, 67493.52, -187500.02, -187500.02, -187500.02, -187500.02, -187500.02, -187500.02, 0.000, 0.000, 0.000, 15:44:15.547
231, 97918.83, 68749.05, -187500.02, -187500.02, -187500.02, -187500.02, -187500.02, -187500.02, 0.000, 0.000, 0.000, 15:44:15.547
232, 97773.43, 68520.63, -187500.02, -187500.02, -187500.02, -187500.02, -187500.02, -187500.02, 0.000, 0.000, 0.000, 15:44:15.548
233, 97181.02, 67780.45, -187500.02, -187500.02, -187500.02, -187500.02, -187500.02, -187500.02, 0.000, 0.000, 0.000, 15:44:15.548
234, 96148.44, 66564.25, -187500.02, -187500.02, -187500.02, -187500.02, -187500.02, -187500.02, 0.000, 0.000, 0.000, 15:44:15.548
235, 96840.59, 67474.17, -187500.02, -187500.02, -187500.02, -187500.02, -187500.02, -187500.02, 0.000, 0.000, 0.000, 15:44:15.548
236, 97906.59, 68730.77, -187500.02, -187500.02, -187500.02, -187500.02, -187500.02, -187500.02, 0.000, 0.000, 0.000, 15:44:15.548
237, 97759.62, 68506.26, -187500.02, -187500.02, -187500.02, -187500.02, -187500.02, -187500.02, 0.000, 0.000, 0.000, 15:44:15.548
238, 97169.87, 67774.24, -187500.02, -187500.02, -187500.02, -187500.02, -187500.02, -187500.02, 0.000, 0.000, 0.000, 15:44:15.548
239, 96135.41, 66552.07, -187500.02, -187500.02, -187500.02, -187500.02, -187500.02, -187500.02, 0.020, 0.052, -1.020, 15:44:15.548
240, 96831.42, 67462.55, -187500.02, -187500.02, -187500.02, -187500.02, -187500.02, -187500.02, 0.000, 0.000, 0.000, 15:44:15.549
241, 97908.35, 68734.14, -187500.02, -187500.02, -187500.02, -187500.02, -187500.02, -187500.02, 0.000, 0.000, 0.000, 15:44:15.549
242, 97767.02, 68515.02, -187500.02, -187500.02, -187500.02, -187500.02, -187500.02, -187500.02, 0.000, 0.000, 0.000, 15:44:15.549
243, 97177.88, 67773.17, -187500.02, -187500.02, -187500.02, -187500.02, -187500.02, -187500.02, 0.000, 0.000, 0.000, 15:44:15.549
244, 96145.84, 66562.40, -187500.02, -187500.02, -187500.02, -187500.02, -187500.02, -187500.02, 0.000, 0.000, 0.000, 15:44:15.549
245, 96831.91, 67464.96, -187500.02, -187500.02, -187500.02, -187500.02, -187500.02, -187500.02, 0.000, 0.000, 0.000, 15:44:15.549
246, 97909.00, 68733.91, -187500.02, -187500.02, -187500.02, -187500.02, -187500.02, -187500.02, 0.000, 0.000, 0.000, 15:44:15.549
247, 97765.52, 68514.13, -187500.02, -187500.02, -187500.02, -187500.02, -187500.02, -187500.02, 0.000, 0.000, 0.000, 15:44:15.549
248, 97178.34, 67783.07, -187500.02, -187500.02, -187500.02, -187500.02, -187500.02, -187500.02, 0.000, 0.000, 0.000, 15:44:15.550
249, 96140.08, 66557.88, -187500.02, -187500.02, -187500.02, -187500.02, -187500.02, -187500.02, 0.018, 0.054, -1.022, 15:44:15.550
250, 96824.80, 67456.09, -187500.02, -187500.02, -187500.02, -187500.02, -187500.02, -187500.02, 0.000, 0.000, 0.000, 15:44:15.550
251, 97910.83, 68739.97, -187500.02, -187500.02, -187500.02, -187500.02, -187500.02, -187500.02, 0.000, 0.000, 0.000, 15:44:15.550
252, 97765.41, 68516.05, -187500.02, -187500.02, -187500.02, -187500.02, -187500.02, -187500.02, 0.000, 0.000, 0.000, 15:44:15.550
253, 97191.44, 67793.02, -187500.02, -187500.02, -187500.02, -187500.02, -187500.02, -187500.02, 0.000, 0.000, 0.000, 15:44:15.550
254, 96151.10, 66564.21, -187500.02, -187500.02, -187500.02, -187500.02, -187500.02, -187500.02, 0.000, 0.000, 0.000, 15:44:15.550
255, 96822.30, 67458.08, -187500.02, -187500.02, -187500.02, -187500.02, -187500.02, -187500.02, 0.000, 0.000, 0.000, 15:44:15.550
0, 97909.82, 68747.99, -187500.02, -187500.02, -187500.02, -187500.02, -187500.02, -187500.02, 0.000, 0.000, 0.000, 15:44:15.551
1, 97774.13, 68528.88, -187500.02, -187500.02, -187500.02, -187500.02, -187500.02, -187500.02, 0.000, 0.000, 0.000, 15:44:15.551
2, 97192.18, 67799.86, -187500.02, -187500.02, -187500.02, -187500.02, -187500.02, -187500.02, 0.014, 0.060, -1.022, 15:44:15.551
3, 96147.68, 66570.31, -187500.02, -187500.02, -187500.02, -187500.02, -187500.02, -187500.02, 0.000, 0.000, 0.000, 15:44:15.551
4, 96810.30, 67444.66, -187500.02, -187500.02, -187500.02, -187500.02, -187500.02, -187500.02, 0.000, 0.000, 0.000, 15:44:15.551
5, 97899.68, 68726.34, -187500.02, -187500.02, -187500.02, -187500.02, -187500.02, -187500.02, 0.000, 0.000, 0.000, 15:44:15.551
6, 97758.52, 68504.43, -187500.02, -187500.02, -187500.02, -187500.02, -187500.02, -187500.02, 0.000, 0.000, 0.000, 15:44:15.551
7, 97174.32, 67775.65, -187500.02, -187500.02, -187500.02, -187500.02, -187500.02, -187500.02, 0.000, 0.000, 0.000, 15:44:15.551
8, 96136.95, 66552.79, -187500.02, -187500.02, -187500.02, -187500.02, -187500.02, -187500.02, 0.000, 0.000, 0.000, 15:44:15.551
9, 96789.48, 67416.05, -187500.02, -187500.02, -187500.02, -187500.02, -187500.02, -187500.02, 0.000, 0.000, 0.000, 15:44:15.552
10, 97886.84, 68711.96, -187500.02, -187500.02, -187500.02, -187500.02, -187500.02, -187500.02, 0.000, 0.000, 0.000, 15:44:15.552
11, 97760.07, 68508.16, -187500.02, -187500.02, -187500.02, -187500.02, -187500.02, -187500.02, 0.000, 0.000, 0.000, 15:44:15.552
12, 97186.72, 67789.71, -187500.02, -187500.02, -187500.02, -187500.02, -187500.02, -187500.02, 0.016, 0.064, -1.020, 15:44:15.552
13, 96146.83, 66563.78, -187500.02, -187500.02, -187500.02, -187500.02, -187500.02, -187500.02, 0.000, 0.000, 0.000, 15:44:15.552
14, 96795.41, 67419.77, -187500.02, -187500.02, -187500.02, -187500.02, -187500.02, -187500.02, 0.000, 0.000, 0.000, 15:44:15.552
15, 97901.30, 68729.53, -187500.02, -187500.02, -187500.02, -187500.02, -187500.02, -187500.02, 0.000, 0.000, 0.000, 15:44:15.552
16, 97766.82, 68518.45, -187500.02, -187500.02, -187500.02, -187500.02, -187500.02, -187500.02, 0.000, 0.000, 0.000, 15:44:15.552
17, 97187.10, 67796.77, -187500.02, -187500.02, -187500.02, -187500.02, -187500.02, -187500.02, 0.000, 0.000, 0.000, 15:44:15.553
18, 96136.17, 66563.52, -187500.02, -187500.02, -187500.02, -187500.02, -187500.02, -187500.02, 0.000, 0.000, 0.000, 15:44:15.553
19, 96773.80, 67407.12, -187500.02, -187500.02, -187500.02, -187500.02, -187500.02, -187500.02, 0.000, 0.000, 0.000, 15:44:15.553
20, 97887.70, 68720.73, -187500.02, -187500.02, -187500.02, -187500.02, -187500.02, -187500.02, 0.000, 0.000, 0.000, 15:44:15.553
21, 97776.23, 68530.42, -187500.02, -187500.02, -187500.02, -187500.02, -187500.02, -187500.02, 0.000, 0.000, 0.000, 15:44:15.553
22, 97199.48, 67813.31, -187500.02, -187500.02, -187500.02, -187500.02, -187500.02, -187500.02, 0.016, 0.058, -1.028, 15:44:15.553
23, 96137.82, 66565.30, -187500.02, -187500.02, -187500.02, -187500.02, -187500.02, -187500.02, 0.000, 0.000, 0.000, 15:44:15.553
24, 96776.19, 67410.34, -187500.02, -187500.02, -187500.02, -187500.02, -187500.02, -187500.02, 0.000, 0.000, 0.000, 15:44:15.553
25, 97885.75, 68725.09, -187500.02, -187500.02, -187500.02, -187500.02, -187500.02, -187500.02, 0.000, 0.000, 0.000, 15:44:15.554
26, 97758.46, 68523.47, -187500.02, -187500.02, -187500.02, -187500.02, -187500.02, -187500.02, 0.000, 0.000, 0.000, 15:44:15.554
27, 97182.63, 67801.69, -187500.02, -187500.02, -187500.02, -187500.02, -187500.02, -187500.02, 0.000, 0.000, 0.000, 15:44:15.554
28, 96133.20, 66558.73, -187500.02, -187500.02, -187500.02, -187500.02, -187500.02, -187500.02, 0.000, 0.000, 0.000, 15:44:15.554
29, 96757.44, 67385.63, -187500.02, -187500.02, -187500.02, -187500.02, -187500.02, -187500.02, 0.000, 0.000, 0.000, 15:44:15.554
30, 97867.47, 68702.35, -187500.02, -187500.02, -187500.02, -187500.02, -187500.02, -187500.02, 0.000, 0.000, 0.000, 15:44:15.554
31, 97748.29, 68506.69, -187500.02, -187500.02, -187500.02, -187500.02, -187500.02, -187500.02, 0.000, 0.000, 0.000, 15:44:15.554
32, 97189.25, 67807.77, -187500.02, -187500.02, -187500.02, -187500.02, -187500.02, -187500.02, 0.016, 0.060, -1.018, 15:44:15.555
33, 96142.98, 66574.60, -187500.02, -187500.02, -187500.02, -187500.02, -187500.02, -187500.02, 0.000, 0.000, 0.000, 15:44:15.555
34, 96766.02, 67398.45, -187500.02, -187500.02, -187500.02, -187500.02, -187500.02, -187500.02, 0.000, 0.000, 0.000, 15:44:15.555
35, 97893.69, 68730.88, -187500.02, -187500.02, -187500.02, -187500.02, -187500.02, -187500.02, 0.000, 0.000, 0.000, 15:44:15.555
36, 97776.65, 68540.39, -187500.02, -187500.02, -187500.02, -187500.02, -187500.02, -187500.02, 0.000, 0.000, 0.000, 15:44:15.555
37, 97205.21, 67828.52, -187500.02, -187500.02, -187500.02, -187500.02, -187500.02, -187500.02, 0.000, 0.000, 0.000, 15:44:15.555
38, 96154.01, 66583.74, -187500.02, -187500.02, -187500.02, -187500.02, -187500.02, -187500.02, 0.000, 0.000, 0.000, 15:44:15.555
39, 96757.50, 67391.16, -187500.02, -187500.02, -187500.02, -187500.02, -187500.02, -187500.02, 0.000, 0.000, 0.000, 15:44:15.555
40, 97881.37, 68721.17, -187500.02, -187500.02, -187500.02, -187500.02, -187500.02, -187500.02, 0.000, 0.000, 0.000, 15:44:15.556
41, 97769.45, 68536.34, -187500.02, -187500.02, -187500.02, -187500.02, -187500.02, -187500.02, 0.000, 0.000, 0.000, 15:44:15.556
42, 97204.45, 67827.87, -187500.02, -187500.02, -187500.02, -187500.02, -187500.02, -187500.02, 0.016, 0.056, -1.016, 15:44:15.556
43, 96146.88, 66579.30, -187500.02, -187500.02, -187500.02, -187500.02, -187500.02, -187500.02, 0.000, 0.000, 0.000, 15:44:15.556
44, 96746.66, 67377.74, -187500.02, -187500.02, -187500.02, -187500.02, -187500.02, -187500.02, 0.000, 0.000, 0.000, 15:44:15.556
45, 97874.87, 68711.34, -187500.02, -187500.02, -187500.02, -187500.02, -187500.02, -187500.02, 0.000, 0.000, 0.000, 15:44:15.556
46, 97761.16, 68525.48, -187500.02, -187500.02, -187500.02, -187500.02, -187500.02, -187500.02, 0.000, 0.000, 0.000, 15:44:15.556
47, 97191.48, 67817.00, -187500.02, -187500.02, -187500.02, -187500.02, -187500.02, -187500.02, 0.000, 0.000, 0.000, 15:44:15.557
48, 96132.15, 66559.78, -187500.02, -187500.02, -187500.02, -187500.02, -187500.02, -187500.02, 0.000, 0.000, 0.000, 15:44:15.557
49, 96727.93, 67353.85, -187500.02, -187500.02, -187500.02, -187500.02, -187500.02, -187500.02, 0.000, 0.000, 0.000, 15:44:15.557
50, 97849.63, 68687.00, -187500.02, -187500.02, -187500.02, -187500.02, -187500.02, -187500.02, 0.000, 0.000, 0.000, 15:44:15.557
51, 97736.55, 68502.44, -187500.02, -187500.02, -187500.02, -187500.02, -187500.02, -187500.02, 0.000, 0.000, 0.000, 15:44:15.557
52, 97186.16, 67812.15, -187500.02, -187500.02, -187500.02, -187500.02, -187500.02, -187500.02, 0.018, 0.052, -1.022, 15:44:15.557
53, 96135.32, 66565.88, -187500.02, -187500.02, -187500.02, -187500.02, -187500.02, -187500.02, 0.000, 0.000, 0.000, 15:44:15.557
54, 96725.18, 67355.03, -187500.02, -187500.02, -187500.02, -187500.02, -187500.02, -187500.02, 0.000, 0.000, 0.000, 15:44:15.557
55, 97860.09, 68697.64, -187500.02, -187500.02, -187500.02, -187500.02, -187500.02, -187500.02, 0.000, 0.000, 0.000, 15:44:15.557
56, 97756.65, 68522.35, -187500.02, -187500.02, -187500.02, -187500.02, -187500.02, -187500.02, 0.000, 0.000, 0.000, 15:44:15.558
57, 97199.75, 67827.98, -187500.02, -187500.02, -187500.02, -187500.02, -187500.02, -187500.02, 0.000, 0.000, 0.000, 15:44:15.558
58, 96148.87, 66579.52, -187500.02, -187500.02, -187500.02, -187500.02, -187500.02, -187500.02, 0.000, 0.000, 0.000, 15:44:15.558
59, 96733.34, 67354.34, -187500.02, -187500.02, -187500.02, -187500.02, -187500.02, -187500.02, 0.000, 0.000, 0.000, 15:44:15.558
60, 97864.34, 68697.44, -187500.02, -187500.02, -187500.02, -187500.02, -187500.02, -187500.02, 0.000, 0.000, 0.000, 15:44:15.558
61, 97758.55, 68519.25, -187500.02, -187500.02, -187500.02, -187500.02, -187500.02, -187500.02, 0.000, 0.000, 0.000, 15:44:15.558
62, 97210.80, 67830.50, -187500.02, -187500.02, -187500.02, -187500.02, -187500.02, -187500.02, 0.020, 0.050, -1.026, 15:44:15.558
63, 96146.61, 66570.58, -187500.02, -187500.02, -187500.02, -187500.02, -187500.02, -187500.02, 0.000, 0.000, 0.000, 15:44:15.558
64, 96716.04, 67334.63, -187500.02, -187500.02, -187500.02, -187500.02, -187500.02, -187500.02, 0.000, 0.000, 0.000, 15:44:15.559
65, 97864.63, 68696.16, -187500.02, -187500.02, -187500.02, -187500.02, -187500.02, -187500.02, 0.000, 0.000, 0.000, 15:44:15.559
66, 97755.48, 68515.27, -187500.02, -187500.02, -187500.02, -187500.02, -187500.02, -187500.02, 0.000, 0.000, 0.000, 15:44:15.559
67, 97212.05, 67830.01, -187500.02, -187500.02, -187500.02, -187500.02, -187500.02, -187500.02, 0.000, 0.000, 0.000, 15:44:15.559
68, 96148.59, 66572.34, -187500.02, -187500.02, -187500.02, -187500.02, -187500.02, -187500.02, 0.000, 0.000, 0.000, 15:44:15.559
69, 96705.09, 67322.40, -187500.02, -187500.02, -187500.02, -187500.02, -187500.02, -187500.02, 0.000, 0.000, 0.000, 15:44:15.559
70, 97846.57, 68681.37, -187500.02, -187500.02, -187500.02, -187500.02, -187500.02, -187500.02, 0.000, 0.000, 0.000, 15:44:15.559
71, 97743.80, 68510.06, -187500.02, -187500.02, -187500.02, -187500.02, -187500.02, -187500.02, 0.000, 0.000, 0.000, 15:44:15.559
72, 97194.41, 67823.26, -187500.02, -187500.02, -187500.02, -187500.02, -187500.02, -187500.02, 0.022, 0.052, -1.024, 15:44:15.560
73, 96131.97, 66561.34, -187500.02, -187500.02, -187500.02, -187500.02, -187500.02, -187500.02, 0.000, 0.000, 0.000, 15:44:16.024
74, 96684.81, 67300.56, -187500.02, -187500.02, -187500.02, -187500.02, -187500.02, -187500.02, 0.000, 0.000, 0.000, 15:44:16.024
75, 97826.79, 68657.94, -187500.02, -187500.02, -187500.02, -187500.02, -187500.02, -187500.02, 0.000, 0.000, 0.000, 15:44:16.024
76, 97733.71, 68497.09, -187500.02, -187500.02, -187500.02, -187500.02, -187500.02, -187500.02, 0.000, 0.000, 0.000, 15:44:16.024
77, 97191.22, 67813.60, -187500.02, -187500.02, -187500.02, -187500.02, -187500.02, -187500.02, 0.000, 0.000, 0.000, 15:44:16.024
78, 96135.14, 66564.92, -187500.02, -187500.02, -187500.02, -187500.02, -187500.02, -187500.02, 0.000, 0.000, 0.000, 15:44:16.025
79, 96674.84, 67295.18, -187500.02, -187500.02, -187500.02, -187500.02, -187500.02, -187500.02, 0.000, 0.000, 0.000, 15:44:16.025
80, 97837.47, 68673.63, -187500.02, -187500.02, -187500.02, -187500.02, -187500.02, -187500.02, 0.000, 0.000, 0.000, 15:44:16.025
81, 97751.77, 68517.33, -187500.02, -187500.02, -187500.02, -187500.02, -187500.02, -187500.02, 0.000, 0.000, 0.000, 15:44:16.025
82, 97209.39, 67832.11, -187500.02, -187500.02, -187500.02, -187500.02, -187500.02, -187500.02, 0.024, 0.052, -1.022, 15:44:16.025
83, 96142.59, 66567.31, -187500.02, -187500.02, -187500.02, -187500.02, -187500.02, -187500.02, 0.000, 0.000, 0.000, 15:44:16.025
84, 96685.20, 67299.49, -187500.02, -187500.02, -187500.02, -187500.02, -187500.02, -187500.02, 0.000, 0.000, 0.000, 15:44:16.025
85, 97841.38, 68673.52, -187500.02, -187500.02, -187500.02, -187500.02, -187500.02, -187500.02, 0.000, 0.000, 0.000, 15:44:16.025
86, 97764.72, 68526.76, -187500.02, -187500.02, -187500.02, -187500.02, -187500.02, -187500.02, 0.000, 0.000, 0.000, 15:44:16.025
87, 97225.59, 67850.64, -187500.02, -187500.02, -187500.02, -187500.02, -187500.02, -187500.02, 0.000, 0.000, 0.000, 15:44:16.026
88, 96153.29, 66582.89, -187500.02, -187500.02, -187500.02, -187500.02, -187500.02, -187500.02, 0.000, 0.000, 0.000, 15:44:16.026
89, 96681.17, 67293.08, -187500.02, -187500.02, -187500.02, -187500.02, -187500.02, -187500.02, 0.000, 0.000, 0.000, 15:44:16.026
90, 97845.96, 68678.70, -187500.02, -187500.02, -187500.02, -187500.02, -187500.02, -187500.02, 0.000, 0.000, 0.000, 15:44:16.026
91, 97761.14, 68527.02, -187500.02, -187500.02, -187500.02, -187500.02, -187500.02, -187500.02, 0.000, 0.000, 0.000, 15:44:16.026
92, 97216.09, 67846.77, -187500.02, -187500.02, -187500.02, -187500.02, -187500.02, -187500.02, 0.024, 0.054, -1.018, 15:44:16.026
93, 96145.91, 66575.05, -187500.02, -187500.02, -187500.02, -187500.02, -187500.02, -187500.02, 0.000, 0.000, 0.000, 15:44:16.026
94, 96659.40, 67273.95, -187500.02, -187500.02, -187500.02, -187500.02, -187500.02, -187500.02, 0.000, 0.000, 0.000, 15:44:16.026
95, 97825.49, 68659.21, -187500.02, -187500.02, -187500.02, -187500.02, -187500.02, -187500.02, 0.000, 0.000, 0.000, 15:44:16.027
96, 97743.88, 68501.68, -187500.02, -187500.02, -187500.02, -187500.02, -187500.02, -187500.02, 0.000, 0.000, 0.000, 15:44:16.027
97, 97203.62, 67831.66, -187500.02, -187500.02, -187500.02, -187500.02, -187500.02, -187500.02, 0.000, 0.000, 0.000, 15:44:16.027
98, 96131.74, 66561.99, -187500.02, -187500.02, -187500.02, -187500.02, -187500.02, -187500.02, 0.000, 0.000, 0.000, 15:44:16.027
99, 96639.13, 67250.25, -187500.02, -187500.02, -187500.02, -187500.02, -187500.02, -187500.02, 0.000, 0.000, 0.000, 15:44:16.027
100, 97807.23, 68642.96, -187500.02, -187500.02, -187500.02, -187500.02, -187500.02, -187500.02, 0.000, 0.000, 0.000, 15:44:16.027
101, 97721.09, 68486.95, -187500.02, -187500.02, -187500.02, -187500.02, -187500.02, -187500.02, 0.000, 0.000, 0.000, 15:44:16.027
102, 97188.73, 67820.58, -187500.02, -187500.02, -187500.02, -187500.02, -187500.02, -187500.02, 0.020, 0.054, -1.022, 15:44:16.027
103, 96130.13, 66558.15, -187500.02, -187500.02, -187500.02, -187500.02, -187500.02, -187500.02, 0.000, 0.000, 0.000, 15:44:16.028
104, 96634.03, 67243.59, -187500.02, -187500.02, -187500.02, -187500.02, -187500.02, -187500.02, 0.000, 0.000, 0.000, 15:44:16.028
105, 97809.30, 68644.73, -187500.02, -187500.02, -187500.02, -187500.02, -187500.02, -187500.02, 0.000, 0.000, 0.000, 15:44:16.028
106, 97740.24, 68506.10, -187500.02, -187500.02, -187500.02, -187500.02, -187500.02, -187500.02, 0.000, 0.000, 0.000, 15:44:16.028
107, 97212.41, 67839.98, -187500.02, -187500.02, -187500.02, -187500.02, -187500.02, -187500.02, 0.000, 0.000, 0.000, 15:44:16.028
108, 96138.56, 66568.68, -187500.02, -187500.02, -187500.02, -187500.02, -187500.02, -187500.02, 0.000, 0.000, 0.000, 15:44:16.028
109, 96643.02, 67255.10, -187500.02, -187500.02, -187500.02, -187500.02, -187500.02, -187500.02, 0.000, 0.000, 0.000, 15:44:16.028
110, 97818.56, 68656.04, -187500.02, -187500.02, -187500.02, -187500.02, -187500.02, -187500.02, 0.000, 0.000, 0.000, 15:44:16.028
111, 97746.63, 68515.59, -187500.02, -187500.02, -187500.02, -187500.02, -187500.02, -187500.02, 0.000, 0.000, 0.000, 15:44:16.029
112, 97213.95, 67846.77, -187500.02, -187500.02, -187500.02, -187500.02, -187500.02, -187500.02, 0.018, 0.056, -1.026, 15:44:16.029
113, 96138.41, 66573.41, -187500.02, -187500.02, -187500.02, -187500.02, -187500.02, -187500.02, 0.000, 0.000, 0.000, 15:44:16.029
114, 96625.16, 67238.16, -187500.02, -187500.02, -187500.02, -187500.02, -187500.02, -187500.02, 0.000, 0.000, 0.000, 15:44:16.029
115, 97810.70, 68654.12, -187500.02, -187500.02, -187500.02, -187500.02, -187500.02, -187500.02, 0.000, 0.000, 0.000, 15:44:16.029
116, 97735.23, 68508.02, -187500.02, -187500.02, -187500.02, -187500.02, -187500.02, -187500.02, 0.000, 0.000, 0.000, 15:44:16.029
117, 97210.91, 67845.86, -187500.02, -187500.02, -187500.02, -187500.02, -187500.02, -187500.02, 0.000, 0.000, 0.000, 15:44:16.029
118, 96136.03, 66578.05, -187500.02, -187500.02, -187500.02, -187500.02, -187500.02, -187500.02, 0.000, 0.000, 0.000, 15:44:16.029
119, 96614.54, 67230.87, -187500.02, -187500.02, -187500.02, -187500.02, -187500.02, -187500.02, 0.000, 0.000, 0.000, 15:44:16.030
120, 97793.70, 68633.69, -187500.02, -187500.02, -187500.02, -187500.02, -187500.02, -187500.02, 0.000, 0.000, 0.000, 15:44:16.030
121, 97730.32, 68499.04, -187500.02, -187500.02, -187500.02, -187500.02, -187500.02, -187500.02, 0.000, 0.000, 0.000, 15:44:16.030
122, 97199.27, 67833.77, -187500.02, -187500.02, -187500.02, -187500.02, -187500.02, -187500.02, 0.022, 0.062, -1.028, 15:44:16.030
123, 96125.23, 66562.29, -187500.02, -187500.02, -187500.02, -187500.02, -187500.02, -187500.02, 0.000, 0.000, 0.000, 15:44:16.030
124, 96600.03, 67209.93, -187500.02, -187500.02, -187500.02, -187500.02, -187500.02, -187500.02, 0.000, 0.000, 0.000, 15:44:16.030
125, 97777.66, 68615.67, -187500.02, -187500.02, -187500.02, -187500.02, -187500.02, -187500.02, 0.000, 0.000, 0.000, 15:44:16.030
126, 97721.45, 68490.13, -187500.02, -187500.02, -187500.02, -187500.02, -187500.02, -187500.02, 0.000, 0.000, 0.000, 15:44:16.030
127, 97204.18, 67838.10, -187500.02, -187500.02, -187500.02, -187500.02, -187500.02, -187500.02, 0.000, 0.000, 0.000, 15:44:16.030
128, 96129.59, 66559.76, -187500.02, -187500.02, -187500.02, -187500.02, -187500.02, -187500.02, 0.000, 0.000, 0.000, 15:44:16.031
129, 96592.75, 67192.65, -187500.02, -187500.02, -187500.02, -187500.02, -187500.02, -187500.02, 0.000, 0.000, 0.000, 15:44:16.031
130, 97791.92, 68625.87, -187500.02, -187500.02, -187500.02, -187500.02, -187500.02, -187500.02, 0.000, 0.000, 0.000, 15:44:16.031
131, 97734.88, 68506.73, -187500.02, -187500.02, -187500.02, -187500.02, -187500.02, -187500.02, 0.026, 0.064, -1.026, 15:44:16.031
132, 97220.83, 67856.83, -187500.02, -187500.02, -187500.02, -187500.02, -187500.02, -187500.02, 0.000, 0.000, 0.000, 15:44:16.031
133, 96149.13, 66579.36, -187500.02, -187500.02, -187500.02, -187500.02, -187500.02, -187500.02, 0.000, 0.000, 0.000, 15:44:16.031
134, 96601.73, 67198.30, -187500.02, -187500.02, -187500.02, -187500.02, -187500.02, -187500.02, 0.000, 0.000, 0.000, 15:44:16.031
135, 97793.30, 68624.15, -187500.02, -187500.02, -187500.02, -187500.02, -187500.02, -187500.02, 0.000, 0.000, 0.000, 15:44:16.032
136, 97747.26, 68512.25, -187500.02, -187500.02, -187500.02, -187500.02, -187500.02, -187500.02, 0.000, 0.000, 0.000, 15:44:16.032
137, 97223.24, 67853.95, -187500.02, -187500.02, -187500.02, -187500.02, -187500.02, -187500.02, 0.000, 0.000, 0.000, 15:44:16.032
138, 96139.14, 66572.41, -187500.02, -187500.02, -187500.02, -187500.02, -187500.02, -187500.02, 0.000, 0.000, 0.000, 15:44:16.032
139, 96587.12, 67191.89, -187500.02, -187500.02, -187500.02, -187500.02, -187500.02, -187500.02, 0.000, 0.000, 0.000, 15:44:16.032
140, 97783.65, 68616.70, -187500.02, -187500.02, -187500.02, -187500.02, -187500.02, -187500.02, 0.000, 0.000, 0.000, 15:44:16.032
141, 97727.21, 68492.74, -187500.02, -187500.02, -187500.02, -187500.02, -187500.02, -187500.02, 0.028, 0.064, -1.030, 15:44:16.032
142, 97202.91, 67834.21, -187500.02, -187500.02, -187500.02, -187500.02, -187500.02, -187500.02, 0.000, 0.000, 0.000, 15:44:16.032
143, 96135.84, 66566.84, -187500.02, -187500.02, -187500.02, -187500.02, -187500.02, -187500.02, 0.000, 0.000, 0.000, 15:44:16.032
144, 96566.02, 67164.20, -187500.02, -187500.02, -187500.02, -187500.02, -187500.02, -187500.02, 0.000, 0.000, 0.000, 15:44:16.033
145, 97759.95, 68592.31, -187500.02, -187500.02, -187500.02, -187500.02, -187500.02, -187500.02, 0.000, 0.000, 0.000, 15:44:16.033
146, 97713.44, 68484.38, -187500.02, -187500.02, -187500.02, -187500.02, -187500.02, -187500.02, 0.000, 0.000, 0.000, 15:44:16.033
147, 97199.46, 67835.17, -187500.02, -187500.02, -187500.02, -187500.02, -187500.02, -187500.02, 0.000, 0.000, 0.000, 15:44:16.033
148, 96113.30, 66543.24, -187500.02, -187500.02, -187500.02, -187500.02, -187500.02, -187500.02, 0.000, 0.000, 0.000, 15:44:16.033
