%OpenBCI Raw EEG Data
%
%Sample Rate = 250.0 Hz
%First Column = SampleIndex
%Last Column = Timestamp 
%Other Columns = EEG data in microvolts followed by Accel Data (in G) interleaved with Aux Data
0, 43792.81, 36432.96, -187500.02, -187500.02, -187500.02, -187500.02, -187500.02, -187500.02, -0.090, -0.056, 1.008, 14:31:15.623
1, 43771.75, 36459.65, -187500.02, -187500.02, -187500.02, -187500.02, -187500.02, -187500.02, 0.000, 0.000, 0.000, 14:31:15.624
2, 43829.33, 36490.96, -187500.02, -187500.02, -187500.02, -187500.02, -187500.02, -187500.02, 0.000, 0.000, 0.000, 14:31:15.625
3, 43893.75, 36487.72, -187500.02, -187500.02, -187500.02, -187500.02, -187500.02, -187500.02, 0.000, 0.000, 0.000, 14:31:15.625
4, 43872.65, 36445.88, -187500.02, -187500.02, -187500.02, -187500.02, -187500.02, -187500.02, 0.000, 0.000, 0.000, 14:31:15.626
5, 43790.44, 36427.66, -187500.02, -187500.02, -187500.02, -187500.02, -187500.02, -187500.02, 0.000, 0.000, 0.000, 14:31:15.627
6, 43761.29, 36454.24, -187500.02, -187500.02, -187500.02, -187500.02, -187500.02, -187500.02, 0.000, 0.000, 0.000, 14:31:15.628
7, 43820.35, 36483.95, -187500.02, -187500.02, -187500.02, -187500.02, -187500.02, -187500.02, -0.192, -0.044, 1.016, 14:31:15.628
8, 43878.69, 36473.73, -187500.02, -187500.02, -187500.02, -187500.02, -187500.02, -187500.02, 0.000, 0.000, 0.000, 14:31:15.629
9, 43856.09, 36433.81, -187500.02, -187500.02, -187500.02, -187500.02, -187500.02, -187500.02, 0.000, 0.000, 0.000, 14:31:15.630
10, 43773.50, 36413.63, -187500.02, -187500.02, -187500.02, -187500.02, -187500.02, -187500.02, 0.000, 0.000, 0.000, 14:31:15.630
11, 43748.64, 36444.14, -187500.02, -187500.02, -187500.02, -187500.02, -187500.02, -187500.02, 0.000, 0.000, 0.000, 14:31:15.631
12, 43811.92, 36478.56, -187500.02, -187500.02, -187500.02, -187500.02, -187500.02, -187500.02, 0.000, 0.000, 0.000, 14:31:15.631
13, 43876.76, 36473.46, -187500.02, -187500.02, -187500.02, -187500.02, -187500.02, -187500.02, 0.000, 0.000, 0.000, 14:31:15.632
14, 43858.19, 36437.01, -187500.02, -187500.02, -187500.02, -187500.02, -187500.02, -187500.02, 0.000, 0.000, 0.000, 14:31:15.632
15, 43788.45, 36433.57, -187500.02, -187500.02, -187500.02, -187500.02, -187500.02, -187500.02, 0.000, 0.000, 0.000, 14:31:15.633
16, 43762.57, 36460.90, -187500.02, -187500.02, -187500.02, -187500.02, -187500.02, -187500.02, 0.000, 0.000, 0.000, 14:31:15.633
17, 43819.45, 36491.39, -187500.02, -187500.02, -187500.02, -187500.02, -187500.02, -187500.02, -0.196, -0.050, 1.016, 14:31:15.634
18, 43875.69, 36473.89, -187500.02, -187500.02, -187500.02, -187500.02, -187500.02, -187500.02, 0.000, 0.000, 0.000, 14:31:15.635
19, 43861.81, 36436.61, -187500.02, -187500.02, -187500.02, -187500.02, -187500.02, -187500.02, 0.000, 0.000, 0.000, 14:31:15.635
20, 43785.12, 36424.67, -187500.02, -187500.02, -187500.02, -187500.02, -187500.02, -187500.02, 0.000, 0.000, 0.000, 14:31:15.636
21, 43762.99, 36461.91, -187500.02, -187500.02, -187500.02, -187500.02, -187500.02, -187500.02, 0.000, 0.000, 0.000, 14:31:15.637
22, 43820.91, 36505.38, -187500.02, -187500.02, -187500.02, -187500.02, -187500.02, -187500.02, 0.000, 0.000, 0.000, 14:31:15.637
23, 43876.00, 36483.48, -187500.02, -187500.02, -187500.02, -187500.02, -187500.02, -187500.02, 0.000, 0.000, 0.000, 14:31:15.638
24, 43864.05, 36434.19, -187500.02, -187500.02, -187500.02, -187500.02, -187500.02, -187500.02, 0.000, 0.000, 0.000, 14:31:15.639
25, 43775.46, 36424.36, -187500.02, -187500.02, -187500.02, -187500.02, -187500.02, -187500.02, 0.000, 0.000, 0.000, 14:31:15.639
26, 43729.38, 36441.63, -187500.02, -187500.02, -187500.02, -187500.02, -187500.02, -187500.02, 0.000, 0.000, 0.000, 14:31:15.640
27, 43795.94, 36477.18, -187500.02, -187500.02, -187500.02, -187500.02, -187500.02, -187500.02, -0.188, -0.046, 1.018, 14:31:15.640
28, 43866.14, 36471.34, -187500.02, -187500.02, -187500.02, -187500.02, -187500.02, -187500.02, 0.000, 0.000, 0.000, 14:31:15.641
29, 43848.82, 36432.80, -187500.02, -187500.02, -187500.02, -187500.02, -187500.02, -187500.02, 0.000, 0.000, 0.000, 14:31:15.642
30, 43764.51, 36421.45, -187500.02, -187500.02, -187500.02, -187500.02, -187500.02, -187500.02, 0.000, 0.000, 0.000, 14:31:15.643
31, 43729.02, 36446.80, -187500.02, -187500.02, -187500.02, -187500.02, -187500.02, -187500.02, 0.000, 0.000, 0.000, 14:31:15.643
32, 43806.82, 36494.65, -187500.02, -187500.02, -187500.02, -187500.02, -187500.02, -187500.02, 0.000, 0.000, 0.000, 14:31:15.644
33, 43870.46, 36482.49, -187500.02, -187500.02, -187500.02, -187500.02, -187500.02, -187500.02, 0.000, 0.000, 0.000, 14:31:15.645
34, 43847.95, 36433.07, -187500.02, -187500.02, -187500.02, -187500.02, -187500.02, -187500.02, 0.000, 0.000, 0.000, 14:31:15.646
35, 43777.41, 36427.08, -187500.02, -187500.02, -187500.02, -187500.02, -187500.02, -187500.02, 0.000, 0.000, 0.000, 14:31:15.646
36, 43747.08, 36451.69, -187500.02, -187500.02, -187500.02, -187500.02, -187500.02, -187500.02, -0.190, -0.050, 1.014, 14:31:15.647
37, 43820.62, 36495.59, -187500.02, -187500.02, -187500.02, -187500.02, -187500.02, -187500.02, 0.000, 0.000, 0.000, 14:31:15.647
38, 43885.32, 36483.59, -187500.02, -187500.02, -187500.02, -187500.02, -187500.02, -187500.02, 0.000, 0.000, 0.000, 14:31:15.648
39, 43864.80, 36442.37, -187500.02, -187500.02, -187500.02, -187500.02, -187500.02, -187500.02, 0.000, 0.000, 0.000, 14:31:15.649
40, 43794.17, 36446.11, -187500.02, -187500.02, -187500.02, -187500.02, -187500.02, -187500.02, 0.000, 0.000, 0.000, 14:31:15.649
41, 43767.26, 36477.02, -187500.02, -187500.02, -187500.02, -187500.02, -187500.02, -187500.02, 0.000, 0.000, 0.000, 14:31:15.650
42, 43818.87, 36501.22, -187500.02, -187500.02, -187500.02, -187500.02, -187500.02, -187500.02, 0.000, 0.000, 0.000, 14:31:15.650
43, 43889.84, 36499.30, -187500.02, -187500.02, -187500.02, -187500.02, -187500.02, -187500.02, 0.000, 0.000, 0.000, 14:31:15.651
44, 43876.14, 36461.08, -187500.02, -187500.02, -187500.02, -187500.02, -187500.02, -187500.02, 0.000, 0.000, 0.000, 14:31:15.652
45, 43787.87, 36433.03, -187500.02, -187500.02, -187500.02, -187500.02, -187500.02, -187500.02, 0.000, 0.000, 0.000, 14:31:15.652
46, 43763.37, 36461.80, -187500.02, -187500.02, -187500.02, -187500.02, -187500.02, -187500.02, -0.188, -0.048, 1.008, 14:31:15.653
47, 43834.43, 36503.19, -187500.02, -187500.02, -187500.02, -187500.02, -187500.02, -187500.02, 0.000, 0.000, 0.000, 14:31:15.653
48, 43895.29, 36493.09, -187500.02, -187500.02, -187500.02, -187500.02, -187500.02, -187500.02, 0.000, 0.000, 0.000, 14:31:15.654
49, 43874.08, 36446.57, -187500.02, -187500.02, -187500.02, -187500.02, -187500.02, -187500.02, 0.000, 0.000, 0.000, 14:31:15.655
50, 43797.48, 36441.90, -187500.02, -187500.02, -187500.02, -187500.02, -187500.02, -187500.02, 0.000, 0.000, 0.000, 14:31:15.655
51, 43779.58, 36491.30, -187500.02, -187500.02, -187500.02, -187500.02, -187500.02, -187500.02, 0.000, 0.000, 0.000, 14:31:15.656
52, 43834.00, 36510.79, -187500.02, -187500.02, -187500.02, -187500.02, -187500.02, -187500.02, 0.000, 0.000, 0.000, 14:31:15.656
53, 43887.76, 36482.85, -187500.02, -187500.02, -187500.02, -187500.02, -187500.02, -187500.02, 0.000, 0.000, 0.000, 14:31:15.657
54, 43872.61, 36439.51, -187500.02, -187500.02, -187500.02, -187500.02, -187500.02, -187500.02, 0.000, 0.000, 0.000, 14:31:15.657
55, 43790.73, 36424.78, -187500.02, -187500.02, -187500.02, -187500.02, -187500.02, -187500.02, 0.000, 0.000, 0.000, 14:31:15.658
56, 43774.88, 36468.39, -187500.02, -187500.02, -187500.02, -187500.02, -187500.02, -187500.02, -0.192, -0.048, 1.006, 14:31:15.659
57, 43839.01, 36504.73, -187500.02, -187500.02, -187500.02, -187500.02, -187500.02, -187500.02, 0.000, 0.000, 0.000, 14:31:15.659
58, 43894.31, 36484.93, -187500.02, -187500.02, -187500.02, -187500.02, -187500.02, -187500.02, 0.000, 0.000, 0.000, 14:31:15.660
59, 43883.31, 36447.25, -187500.02, -187500.02, -187500.02, -187500.02, -187500.02, -187500.02, 0.000, 0.000, 0.000, 14:31:15.660
60, 43812.73, 36439.85, -187500.02, -187500.02, -187500.02, -187500.02, -187500.02, -187500.02, 0.000, 0.000, 0.000, 14:31:15.661
61, 43792.32, 36482.20, -187500.02, -187500.02, -187500.02, -187500.02, -187500.02, -187500.02, 0.000, 0.000, 0.000, 14:31:15.661
62, 43843.93, 36520.16, -187500.02, -187500.02, -187500.02, -187500.02, -187500.02, -187500.02, 0.000, 0.000, 0.000, 14:31:15.663
63, 43895.32, 36499.84, -187500.02, -187500.02, -187500.02, -187500.02, -187500.02, -187500.02, 0.000, 0.000, 0.000, 14:31:15.664
64, 43872.14, 36447.36, -187500.02, -187500.02, -187500.02, -187500.02, -187500.02, -187500.02, 0.000, 0.000, 0.000, 14:31:15.664
65, 43804.41, 36447.27, -187500.02, -187500.02, -187500.02, -187500.02, -187500.02, -187500.02, 0.000, 0.000, 0.000, 14:31:15.665
66, 43781.34, 36478.14, -187500.02, -187500.02, -187500.02, -187500.02, -187500.02, -187500.02, -0.188, -0.048, 1.008, 14:31:15.666
67, 43850.34, 36520.47, -187500.02, -187500.02, -187500.02, -187500.02, -187500.02, -187500.02, 0.000, 0.000, 0.000, 14:31:15.666
68, 43912.70, 36510.57, -187500.02, -187500.02, -187500.02, -187500.02, -187500.02, -187500.02, 0.000, 0.000, 0.000, 14:31:15.667
69, 43878.02, 36444.45, -187500.02, -187500.02, -187500.02, -187500.02, -187500.02, -187500.02, 0.000, 0.000, 0.000, 14:31:15.668
70, 43796.68, 36429.27, -187500.02, -187500.02, -187500.02, -187500.02, -187500.02, -187500.02, 0.000, 0.000, 0.000, 14:31:15.668
71, 43786.64, 36479.68, -187500.02, -187500.02, -187500.02, -187500.02, -187500.02, -187500.02, 0.000, 0.000, 0.000, 14:31:15.669
72, 43844.84, 36516.58, -187500.02, -187500.02, -187500.02, -187500.02, -187500.02, -187500.02, 0.000, 0.000, 0.000, 14:31:15.670
73, 43885.86, 36491.14, -187500.02, -187500.02, -187500.02, -187500.02, -187500.02, -187500.02, 0.000, 0.000, 0.000, 14:31:15.670
74, 43859.06, 36439.20, -187500.02, -187500.02, -187500.02, -187500.02, -187500.02, -187500.02, 0.000, 0.000, 0.000, 14:31:15.671
75, 43795.80, 36434.30, -187500.02, -187500.02, -187500.02, -187500.02, -187500.02, -187500.02, 0.000, 0.000, 0.000, 14:31:15.671
76, 43773.97, 36467.99, -187500.02, -187500.02, -187500.02, -187500.02, -187500.02, -187500.02, -0.184, -0.048, 1.008, 14:31:15.672
77, 43841.45, 36517.95, -187500.02, -187500.02, -187500.02, -187500.02, -187500.02, -187500.02, 0.000, 0.000, 0.000, 14:31:15.672
78, 43903.07, 36510.90, -187500.02, -187500.02, -187500.02, -187500.02, -187500.02, -187500.02, 0.000, 0.000, 0.000, 14:31:15.673
79, 43871.98, 36450.02, -187500.02, -187500.02, -187500.02, -187500.02, -187500.02, -187500.02, 0.000, 0.000, 0.000, 14:31:15.674
80, 43784.65, 36429.18, -187500.02, -187500.02, -187500.02, -187500.02, -187500.02, -187500.02, 0.000, 0.000, 0.000, 14:31:15.675
81, 43777.59, 36491.79, -187500.02, -187500.02, -187500.02, -187500.02, -187500.02, -187500.02, 0.000, 0.000, 0.000, 14:31:15.675
82, 43839.93, 36518.35, -187500.02, -187500.02, -187500.02, -187500.02, -187500.02, -187500.02, 0.000, 0.000, 0.000, 14:31:15.676
83, 43887.54, 36476.91, -187500.02, -187500.02, -187500.02, -187500.02, -187500.02, -187500.02, 0.000, 0.000, 0.000, 14:31:15.677
84, 43859.73, 36424.49, -187500.02, -187500.02, -187500.02, -187500.02, -187500.02, -187500.02, 0.000, 0.000, 0.000, 14:31:15.678
85, 43790.48, 36421.85, -187500.02, -187500.02, -187500.02, -187500.02, -187500.02, -187500.02, 0.000, 0.000, 0.000, 14:31:15.678
86, 43781.55, 36472.57, -187500.02, -187500.02, -187500.02, -187500.02, -187500.02, -187500.02, -0.184, -0.050, 1.006, 14:31:15.679
87, 43852.38, 36521.88, -187500.02, -187500.02, -187500.02, -187500.02, -187500.02, -187500.02, 0.000, 0.000, 0.000, 14:31:15.680
88, 43903.25, 36505.56, -187500.02, -187500.02, -187500.02, -187500.02, -187500.02, -187500.02, 0.000, 0.000, 0.000, 14:31:15.681
89, 43862.75, 36438.01, -187500.02, -187500.02, -187500.02, -187500.02, -187500.02, -187500.02, 0.000, 0.000, 0.000, 14:31:15.681
90, 43806.29, 36434.04, -187500.02, -187500.02, -187500.02, -187500.02, -187500.02, -187500.02, 0.000, 0.000, 0.000, 14:31:15.682
91, 43801.26, 36481.02, -187500.02, -187500.02, -187500.02, -187500.02, -187500.02, -187500.02, 0.000, 0.000, 0.000, 14:31:15.683
92, 43854.19, 36514.32, -187500.02, -187500.02, -187500.02, -187500.02, -187500.02, -187500.02, 0.000, 0.000, 0.000, 14:31:15.684
93, 43907.07, 36507.44, -187500.02, -187500.02, -187500.02, -187500.02, -187500.02, -187500.02, 0.000, 0.000, 0.000, 14:31:15.685
94, 43875.49, 36446.62, -187500.02, -187500.02, -187500.02, -187500.02, -187500.02, -187500.02, 0.000, 0.000, 0.000, 14:31:15.685
95, 43807.59, 36438.01, -187500.02, -187500.02, -187500.02, -187500.02, -187500.02, -187500.02, 0.000, 0.000, 0.000, 14:31:15.686
96, 43803.38, 36495.52, -187500.02, -187500.02, -187500.02, -187500.02, -187500.02, -187500.02, -0.188, -0.050, 1.014, 14:31:15.687
97, 43861.54, 36531.40, -187500.02, -187500.02, -187500.02, -187500.02, -187500.02, -187500.02, 0.000, 0.000, 0.000, 14:31:15.687
98, 43903.21, 36506.30, -187500.02, -187500.02, -187500.02, -187500.02, -187500.02, -187500.02, 0.000, 0.000, 0.000, 14:31:15.688
99, 43878.73, 36455.52, -187500.02, -187500.02, -187500.02, -187500.02, -187500.02, -187500.02, 0.000, 0.000, 0.000, 14:31:15.689
100, 43810.60, 36444.16, -187500.02, -187500.02, -187500.02, -187500.02, -187500.02, -187500.02, 0.000, 0.000, 0.000, 14:31:15.689
101, 43790.48, 36476.46, -187500.02, -187500.02, -187500.02, -187500.02, -187500.02, -187500.02, 0.000, 0.000, 0.000, 14:31:15.690
102, 43857.50, 36525.39, -187500.02, -187500.02, -187500.02, -187500.02, -187500.02, -187500.02, 0.000, 0.000, 0.000, 14:31:15.690
103, 43900.34, 36504.22, -187500.02, -187500.02, -187500.02, -187500.02, -187500.02, -187500.02, 0.000, 0.000, 0.000, 14:31:15.691
104, 43869.23, 36449.52, -187500.02, -187500.02, -187500.02, -187500.02, -187500.02, -187500.02, 0.000, 0.000, 0.000, 14:31:15.691
105, 43803.34, 36434.64, -187500.02, -187500.02, -187500.02, -187500.02, -187500.02, -187500.02, 0.000, 0.000, 0.000, 14:31:15.692
106, 43788.12, 36476.32, -187500.02, -187500.02, -187500.02, -187500.02, -187500.02, -187500.02, -0.192, -0.046, 1.010, 14:31:15.693
107, 43849.90, 36526.62, -187500.02, -187500.02, -187500.02, -187500.02, -187500.02, -187500.02, 0.000, 0.000, 0.000, 14:31:15.693
108, 43898.63, 36510.59, -187500.02, -187500.02, -187500.02, -187500.02, -187500.02, -187500.02, 0.000, 0.000, 0.000, 14:31:15.694
109, 43871.89, 36457.64, -187500.02, -187500.02, -187500.02, -187500.02, -187500.02, -187500.02, 0.000, 0.000, 0.000, 14:31:15.695
110, 43805.91, 36449.57, -187500.02, -187500.02, -187500.02, -187500.02, -187500.02, -187500.02, 0.000, 0.000, 0.000, 14:31:15.695
111, 43800.54, 36497.71, -187500.02, -187500.02, -187500.02, -187500.02, -187500.02, -187500.02, 0.000, 0.000, 0.000, 14:31:15.696
112, 43855.98, 36533.52, -187500.02, -187500.02, -187500.02, -187500.02, -187500.02, -187500.02, 0.000, 0.000, 0.000, 14:31:15.697
113, 43903.05, 36520.18, -187500.02, -187500.02, -187500.02, -187500.02, -187500.02, -187500.02, 0.000, 0.000, 0.000, 14:31:15.697
114, 43878.29, 36471.41, -187500.02, -187500.02, -187500.02, -187500.02, -187500.02, -187500.02, 0.000, 0.000, 0.000, 14:31:15.698
115, 43811.45, 36460.79, -187500.02, -187500.02, -187500.02, -187500.02, -187500.02, -187500.02, 0.000, 0.000, 0.000, 14:31:15.699
116, 43799.40, 36500.24, -187500.02, -187500.02, -187500.02, -187500.02, -187500.02, -187500.02, -0.182, -0.052, 1.020, 14:31:15.699
117, 43858.82, 36538.48, -187500.02, -187500.02, -187500.02, -187500.02, -187500.02, -187500.02, 0.000, 0.000, 0.000, 14:31:15.700
118, 43899.00, 36518.30, -187500.02, -187500.02, -187500.02, -187500.02, -187500.02, -187500.02, 0.000, 0.000, 0.000, 14:31:15.700
119, 43876.59, 36467.99, -187500.02, -187500.02, -187500.02, -187500.02, -187500.02, -187500.02, 0.000, 0.000, 0.000, 14:31:15.701
120, 43806.09, 36456.39, -187500.02, -187500.02, -187500.02, -187500.02, -187500.02, -187500.02, 0.000, 0.000, 0.000, 14:31:16.104
121, 43786.06, 36490.94, -187500.02, -187500.02, -187500.02, -187500.02, -187500.02, -187500.02, 0.000, 0.000, 0.000, 14:31:16.104
122, 43846.72, 36530.71, -187500.02, -187500.02, -187500.02, -187500.02, -187500.02, -187500.02, 0.000, 0.000, 0.000, 14:31:16.105
123, 43894.24, 36517.00, -187500.02, -187500.02, -187500.02, -187500.02, -187500.02, -187500.02, 0.000, 0.000, 0.000, 14:31:16.106
124, 43862.08, 36460.57, -187500.02, -187500.02, -187500.02, -187500.02, -187500.02, -187500.02, 0.000, 0.000, 0.000, 14:31:16.106
125, 43793.91, 36446.69, -187500.02, -187500.02, -187500.02, -187500.02, -187500.02, -187500.02, 0.000, 0.000, 0.000, 14:31:16.107
126, 43795.07, 36498.00, -187500.02, -187500.02, -187500.02, -187500.02, -187500.02, -187500.02, -0.184, -0.046, 1.010, 14:31:16.108
127, 43863.64, 36542.60, -187500.02, -187500.02, -187500.02, -187500.02, -187500.02, -187500.02, 0.000, 0.000, 0.000, 14:31:16.108
128, 43904.10, 36513.77, -187500.02, -187500.02, -187500.02, -187500.02, -187500.02, -187500.02, 0.000, 0.000, 0.000, 14:31:16.109
129, 43882.02, 36463.65, -187500.02, -187500.02, -187500.02, -187500.02, -187500.02, -187500.02, 0.000, 0.000, 0.000, 14:31:16.110
130, 43817.11, 36455.80, -187500.02, -187500.02, -187500.02, -187500.02, -187500.02, -187500.02, 0.000, 0.000, 0.000, 14:31:16.111
131, 43801.50, 36492.62, -187500.02, -187500.02, -187500.02, -187500.02, -187500.02, -187500.02, 0.000, 0.000, 0.000, 14:31:16.111
132, 43861.36, 36532.88, -187500.02, -187500.02, -187500.02, -187500.02, -187500.02, -187500.02, 0.000, 0.000, 0.000, 14:31:16.112
133, 43902.36, 36508.91, -187500.02, -187500.02, -187500.02, -187500.02, -187500.02, -187500.02, 0.000, 0.000, 0.000, 14:31:16.113
134, 43892.30, 36480.59, -187500.02, -187500.02, -187500.02, -187500.02, -187500.02, -187500.02, 0.000, 0.000, 0.000, 14:31:16.114
135, 43827.61, 36476.66, -187500.02, -187500.02, -187500.02, -187500.02, -187500.02, -187500.02, 0.000, 0.000, 0.000, 14:31:16.114
136, 43803.38, 36498.59, -187500.02, -187500.02, -187500.02, -187500.02, -187500.02, -187500.02, -0.184, -0.044, 1.002, 14:31:16.115
137, 43870.82, 36540.81, -187500.02, -187500.02, -187500.02, -187500.02, -187500.02, -187500.02, 0.000, 0.000, 0.000, 14:31:16.116
138, 43928.02, 36536.99, -187500.02, -187500.02, -187500.02, -187500.02, -187500.02, -187500.02, 0.000, 0.000, 0.000, 14:31:16.116
139, 43892.68, 36472.19, -187500.02, -187500.02, -187500.02, -187500.02, -187500.02, -187500.02, 0.000, 0.000, 0.000, 14:31:16.117
140, 43823.30, 36462.02, -187500.02, -187500.02, -187500.02, -187500.02, -187500.02, -187500.02, 0.000, 0.000, 0.000, 14:31:16.118
141, 43804.81, 36499.93, -187500.02, -187500.02, -187500.02, -187500.02, -187500.02, -187500.02, 0.000, 0.000, 0.000, 14:31:16.118
142, 43860.13, 36526.75, -187500.02, -187500.02, -187500.02, -187500.02, -187500.02, -187500.02, 0.000, 0.000, 0.000, 14:31:16.119
143, 43918.81, 36514.23, -187500.02, -187500.02, -187500.02, -187500.02, -187500.02, -187500.02, 0.000, 0.000, 0.000, 14:31:16.119
144, 43893.46, 36461.53, -187500.02, -187500.02, -187500.02, -187500.02, -187500.02, -187500.02, 0.000, 0.000, 0.000, 14:31:16.120
145, 43820.35, 36452.18, -187500.02, -187500.02, -187500.02, -187500.02, -187500.02, -187500.02, 0.000, 0.000, 0.000, 14:31:16.121
146, 43795.22, 36486.83, -187500.02, -187500.02, -187500.02, -187500.02, -187500.02, -187500.02, -0.184, -0.046, 1.002, 14:31:16.121
147, 43849.85, 36533.66, -187500.02, -187500.02, -187500.02, -187500.02, -187500.02, -187500.02, 0.000, 0.000, 0.000, 14:31:16.122
148, 43898.40, 36521.50, -187500.02, -187500.02, -187500.02, -187500.02, -187500.02, -187500.02, 0.000, 0.000, 0.000, 14:31:16.122
149, 43860.36, 36453.41, -187500.02, -187500.02, -187500.02, -187500.02, -187500.02, -187500.02, 0.000, 0.000, 0.000, 14:31:16.123
150, 43808.03, 36456.61, -187500.02, -187500.02, -187500.02, -187500.02, -187500.02, -187500.02, 0.000, 0.000, 0.000, 14:31:16.123
151, 43784.99, 36490.41, -187500.02, -187500.02, -187500.02, -187500.02, -187500.02, -187500.02, 0.000, 0.000, 0.000, 14:31:16.124
152, 43836.89, 36523.60, -187500.02, -187500.02, -187500.02, -187500.02, -187500.02, -187500.02, 0.000, 0.000, 0.000, 14:31:16.124
153, 43893.89, 36506.12, -187500.02, -187500.02, -187500.02, -187500.02, -187500.02, -187500.02, 0.000, 0.000, 0.000, 14:31:16.125
154, 43879.04, 36460.32, -187500.02, -187500.02, -187500.02, -187500.02, -187500.02, -187500.02, 0.000, 0.000, 0.000, 14:31:16.126
155, 43798.87, 36453.79, -187500.02, -187500.02, -187500.02, -187500.02, -187500.02, -187500.02, 0.000, 0.000, 0.000, 14:31:16.126
156, 43786.82, 36494.21, -187500.02, -187500.02, -187500.02, -187500.02, -187500.02, -187500.02, -0.184, -0.050, 1.002, 14:31:16.127
157, 43847.62, 36527.49, -187500.02, -187500.02, -187500.02, -187500.02, -187500.02, -187500.02, 0.000, 0.000, 0.000, 14:31:16.128
158, 43904.79, 36519.08, -187500.02, -187500.02, -187500.02, -187500.02, -187500.02, -187500.02, 0.000, 0.000, 0.000, 14:31:16.128
159, 43874.08, 36468.55, -187500.02, -187500.02, -187500.02, -187500.02, -187500.02, -187500.02, 0.000, 0.000, 0.000, 14:31:16.129
160, 43809.37, 36455.56, -187500.02, -187500.02, -187500.02, -187500.02, -187500.02, -187500.02, 0.000, 0.000, 0.000, 14:31:16.131
161, 43793.61, 36487.95, -187500.02, -187500.02, -187500.02, -187500.02, -187500.02, -187500.02, 0.000, 0.000, 0.000, 14:31:16.133
162, 43851.17, 36528.32, -187500.02, -187500.02, -187500.02, -187500.02, -187500.02, -187500.02, 0.000, 0.000, 0.000, 14:31:16.134
163, 43896.10, 36515.53, -187500.02, -187500.02, -187500.02, -187500.02, -187500.02, -187500.02, 0.000, 0.000, 0.000, 14:31:16.135
164, 43875.51, 36467.68, -187500.02, -187500.02, -187500.02, -187500.02, -187500.02, -187500.02, 0.000, 0.000, 0.000, 14:31:16.135
165, 43804.54, 36452.54, -187500.02, -187500.02, -187500.02, -187500.02, -187500.02, -187500.02, 0.000, 0.000, 0.000, 14:31:16.137
166, 43783.49, 36486.70, -187500.02, -187500.02, -187500.02, -187500.02, -187500.02, -187500.02, -0.186, -0.048, 1.006, 14:31:16.138
167, 43848.71, 36532.20, -187500.02, -187500.02, -187500.02, -187500.02, -187500.02, -187500.02, 0.000, 0.000, 0.000, 14:31:16.140
168, 43899.50, 36511.28, -187500.02, -187500.02, -187500.02, -187500.02, -187500.02, -187500.02, 0.000, 0.000, 0.000, 14:31:16.141
169, 43884.99, 36467.65, -187500.02, -187500.02, -187500.02, -187500.02, -187500.02, -187500.02, 0.000, 0.000, 0.000, 14:31:16.144
170, 43810.40, 36450.53, -187500.02, -187500.02, -187500.02, -187500.02, -187500.02, -187500.02, 0.000, 0.000, 0.000, 14:31:16.145
171, 43799.74, 36500.09, -187500.02, -187500.02, -187500.02, -187500.02, -187500.02, -187500.02, 0.000, 0.000, 0.000, 14:31:16.146
172, 43850.41, 36537.25, -187500.02, -187500.02, -187500.02, -187500.02, -187500.02, -187500.02, 0.000, 0.000, 0.000, 14:31:16.147
173, 43916.35, 36521.77, -187500.02, -187500.02, -187500.02, -187500.02, -187500.02, -187500.02, 0.000, 0.000, 0.000, 14:31:16.147
174, 43894.20, 36474.52, -187500.02, -187500.02, -187500.02, -187500.02, -187500.02, -187500.02, 0.000, 0.000, 0.000, 14:31:16.148
175, 43820.68, 36463.76, -187500.02, -187500.02, -187500.02, -187500.02, -187500.02, -187500.02, -0.190, -0.054, 1.004, 14:31:16.149
176, 43802.46, 36501.34, -187500.02, -187500.02, -187500.02, -187500.02, -187500.02, -187500.02, 0.000, 0.000, 0.000, 14:31:16.149
177, 43856.11, 36540.47, -187500.02, -187500.02, -187500.02, -187500.02, -187500.02, -187500.02, 0.000, 0.000, 0.000, 14:31:16.150
178, 43906.56, 36523.04, -187500.02, -187500.02, -187500.02, -187500.02, -187500.02, -187500.02, 0.000, 0.000, 0.000, 14:31:16.150
179, 43892.30, 36479.48, -187500.02, -187500.02, -187500.02, -187500.02, -187500.02, -187500.02, 0.000, 0.000, 0.000, 14:31:16.151
180, 43827.23, 36474.38, -187500.02, -187500.02, -187500.02, -187500.02, -187500.02, -187500.02, 0.000, 0.000, 0.000, 14:31:16.152
181, 43794.06, 36502.48, -187500.02, -187500.02, -187500.02, -187500.02, -187500.02, -187500.02, 0.000, 0.000, 0.000, 14:31:16.153
182, 43860.56, 36549.46, -187500.02, -187500.02, -187500.02, -187500.02, -187500.02, -187500.02, 0.000, 0.000, 0.000, 14:31:16.154
183, 43918.14, 36526.93, -187500.02, -187500.02, -187500.02, -187500.02, -187500.02, -187500.02, 0.000, 0.000, 0.000, 14:31:16.154
184, 43898.40, 36473.11, -187500.02, -187500.02, -187500.02, -187500.02, -187500.02, -187500.02, 0.000, 0.000, 0.000, 14:31:16.155
185, 43816.93, 36459.54, -187500.02, -187500.02, -187500.02, -187500.02, -187500.02, -187500.02, -0.188, -0.056, 1.004, 14:31:16.156
186, 43793.64, 36501.29, -187500.02, -187500.02, -187500.02, -187500.02, -187500.02, -187500.02, 0.000, 0.000, 0.000, 14:31:16.156
187, 43852.27, 36541.10, -187500.02, -187500.02, -187500.02, -187500.02, -187500.02, -187500.02, 0.000, 0.000, 0.000, 14:31:16.157
188, 43903.70, 36516.18, -187500.02, -187500.02, -187500.02, -187500.02, -187500.02, -187500.02, 0.000, 0.000, 0.000, 14:31:16.158
189, 43902.91, 36474.74, -187500.02, -187500.02, -187500.02, -187500.02, -187500.02, -187500.02, 0.000, 0.000, 0.000, 14:31:16.158
190, 43825.96, 36459.54, -187500.02, -187500.02, -187500.02, -187500.02, -187500.02, -187500.02, 0.000, 0.000, 0.000, 14:31:16.160
191, 43784.96, 36498.25, -187500.02, -187500.02, -187500.02, -187500.02, -187500.02, -187500.02, 0.000, 0.000, 0.000, 14:31:16.160
192, 43845.45, 36539.09, -187500.02, -187500.02, -187500.02, -187500.02, -187500.02, -187500.02, 0.000, 0.000, 0.000, 14:31:16.161
193, 43901.73, 36531.00, -187500.02, -187500.02, -187500.02, -187500.02, -187500.02, -187500.02, 0.000, 0.000, 0.000, 14:31:16.162
194, 43883.96, 36485.91, -187500.02, -187500.02, -187500.02, -187500.02, -187500.02, -187500.02, 0.000, 0.000, 0.000, 14:31:16.163
195, 43805.42, 36457.41, -187500.02, -187500.02, -187500.02, -187500.02, -187500.02, -187500.02, -0.184, -0.050, 1.006, 14:31:16.163
196, 43786.48, 36496.53, -187500.02, -187500.02, -187500.02, -187500.02, -187500.02, -187500.02, 0.000, 0.000, 0.000, 14:31:16.164
197, 43837.47, 36526.08, -187500.02, -187500.02, -187500.02, -187500.02, -187500.02, -187500.02, 0.000, 0.000, 0.000, 14:31:16.165
198, 43904.95, 36518.50, -187500.02, -187500.02, -187500.02, -187500.02, -187500.02, -187500.02, 0.000, 0.000, 0.000, 14:31:16.165
199, 43893.35, 36472.08, -187500.02, -187500.02, -187500.02, -187500.02, -187500.02, -187500.02, 0.000, 0.000, 0.000, 14:31:16.166
200, 43823.34, 36463.65, -187500.02, -187500.02, -187500.02, -187500.02, -187500.02, -187500.02, 0.000, 0.000, 0.000, 14:31:16.167
201, 43798.00, 36499.48, -187500.02, -187500.02, -187500.02, -187500.02, -187500.02, -187500.02, 0.000, 0.000, 0.000, 14:31:16.167
202, 43847.55, 36533.25, -187500.02, -187500.02, -187500.02, -187500.02, -187500.02, -187500.02, 0.000, 0.000, 0.000, 14:31:16.168
203, 43906.29, 36518.55, -187500.02, -187500.02, -187500.02, -187500.02, -187500.02, -187500.02, 0.000, 0.000, 0.000, 14:31:16.169
204, 43895.67, 36477.44, -187500.02, -187500.02, -187500.02, -187500.02, -187500.02, -187500.02, 0.000, 0.000, 0.000, 14:31:16.169
205, 43821.04, 36467.83, -187500.02, -187500.02, -187500.02, -187500.02, -187500.02, -187500.02, -0.184, -0.050, 1.008, 14:31:16.170
206, 43780.11, 36492.38, -187500.02, -187500.02, -187500.02, -187500.02, -187500.02, -187500.02, 0.000, 0.000, 0.000, 14:31:16.170
207, 43839.91, 36531.42, -187500.02, -187500.02, -187500.02, -187500.02, -187500.02, -187500.02, 0.000, 0.000, 0.000, 14:31:16.171
208, 43911.83, 36527.29, -187500.02, -187500.02, -187500.02, -187500.02, -187500.02, -187500.02, 0.000, 0.000, 0.000, 14:31:16.172
209, 43895.61, 36476.73, -187500.02, -187500.02, -187500.02, -187500.02, -187500.02, -187500.02, 0.000, 0.000, 0.000, 14:31:16.172
210, 43826.38, 36463.99, -187500.02, -187500.02, -187500.02, -187500.02, -187500.02, -187500.02, 0.000, 0.000, 0.000, 14:31:16.173
211, 43784.52, 36497.00, -187500.02, -187500.02, -187500.02, -187500.02, -187500.02, -187500.02, 0.000, 0.000, 0.000, 14:31:16.174
212, 43843.84, 36543.94, -187500.02, -187500.02, -187500.02, -187500.02, -187500.02, -187500.02, 0.000, 0.000, 0.000, 14:31:16.174
213, 43914.67, 36534.62, -187500.02, -187500.02, -187500.02, -187500.02, -187500.02, -187500.02, 0.000, 0.000, 0.000, 14:31:16.175
214, 43909.04, 36485.73, -187500.02, -187500.02, -187500.02, -187500.02, -187500.02, -187500.02, 0.000, 0.000, 0.000, 14:31:16.179
215, 43836.02, 36474.56, -187500.02, -187500.02, -187500.02, -187500.02, -187500.02, -187500.02, -0.190, -0.050, 1.004, 14:31:16.180
216, 43810.78, 36517.83, -187500.02, -187500.02, -187500.02, -187500.02, -187500.02, -187500.02, 0.000, 0.000, 0.000, 14:31:16.181
217, 43865.36, 36558.22, -187500.02, -187500.02, -187500.02, -187500.02, -187500.02, -187500.02, 0.000, 0.000, 0.000, 14:31:16.181
218, 43923.03, 36541.10, -187500.02, -187500.02, -187500.02, -187500.02, -187500.02, -187500.02, 0.000, 0.000, 0.000, 14:31:16.182
219, 43909.31, 36494.50, -187500.02, -187500.02, -187500.02, -187500.02, -187500.02, -187500.02, 0.000, 0.000, 0.000, 14:31:16.183
220, 43829.18, 36472.77, -187500.02, -187500.02, -187500.02, -187500.02, -187500.02, -187500.02, 0.000, 0.000, 0.000, 14:31:16.190
221, 43798.49, 36504.80, -187500.02, -187500.02, -187500.02, -187500.02, -187500.02, -187500.02, 0.000, 0.000, 0.000, 14:31:16.191
222, 43862.73, 36541.48, -187500.02, -187500.02, -187500.02, -187500.02, -187500.02, -187500.02, 0.000, 0.000, 0.000, 14:31:16.192
223, 43931.48, 36527.18, -187500.02, -187500.02, -187500.02, -187500.02, -187500.02, -187500.02, 0.000, 0.000, 0.000, 14:31:16.195
224, 43897.86, 36475.70, -187500.02, -187500.02, -187500.02, -187500.02, -187500.02, -187500.02, 0.000, 0.000, 0.000, 14:31:16.196
225, 43810.78, 36460.90, -187500.02, -187500.02, -187500.02, -187500.02, -187500.02, -187500.02, -0.192, -0.046, 1.008, 14:31:16.197
226, 43776.20, 36491.25, -187500.02, -187500.02, -187500.02, -187500.02, -187500.02, -187500.02, 0.000, 0.000, 0.000, 14:31:16.198
227, 43832.86, 36526.28, -187500.02, -187500.02, -187500.02, -187500.02, -187500.02, -187500.02, 0.000, 0.000, 0.000, 14:31:16.198
228, 43898.85, 36516.20, -187500.02, -187500.02, -187500.02, -187500.02, -187500.02, -187500.02, 0.000, 0.000, 0.000, 14:31:16.199
229, 43887.07, 36474.09, -187500.02, -187500.02, -187500.02, -187500.02, -187500.02, -187500.02, 0.000, 0.000, 0.000, 14:31:16.200
230, 43808.19, 36455.16, -187500.02, -187500.02, -187500.02, -187500.02, -187500.02, -187500.02, 0.000, 0.000, 0.000, 14:31:16.201
231, 43789.82, 36496.71, -187500.02, -187500.02, -187500.02, -187500.02, -187500.02, -187500.02, 0.000, 0.000, 0.000, 14:31:16.202
232, 43845.58, 36534.73, -187500.02, -187500.02, -187500.02, -187500.02, -187500.02, -187500.02, 0.000, 0.000, 0.000, 14:31:16.205
233, 43906.63, 36523.60, -187500.02, -187500.02, -187500.02, -187500.02, -187500.02, -187500.02, 0.000, 0.000, 0.000, 14:31:16.207
234, 43890.78, 36470.74, -187500.02, -187500.02, -187500.02, -187500.02, -187500.02, -187500.02, 0.000, 0.000, 0.000, 14:31:16.210
235, 43818.63, 36456.97, -187500.02, -187500.02, -187500.02, -187500.02, -187500.02, -187500.02, -0.184, -0.046, 1.008, 14:31:16.211
236, 43795.87, 36499.68, -187500.02, -187500.02, -187500.02, -187500.02, -187500.02, -187500.02, 0.000, 0.000, 0.000, 14:31:16.212
237, 43856.04, 36546.42, -187500.02, -187500.02, -187500.02, -187500.02, -187500.02, -187500.02, 0.000, 0.000, 0.000, 14:31:16.213
238, 43933.61, 36547.87, -187500.02, -187500.02, -187500.02, -187500.02, -187500.02, -187500.02, 0.000, 0.000, 0.000, 14:31:16.214
239, 43916.50, 36499.79, -187500.02, -187500.02, -187500.02, -187500.02, -187500.02, -187500.02, 0.000, 0.000, 0.000, 14:31:16.215
240, 43836.69, 36481.46, -187500.02, -187500.02, -187500.02, -187500.02, -187500.02, -187500.02, 0.000, 0.000, 0.000, 14:31:16.584
241, 43814.31, 36516.18, -187500.02, -187500.02, -187500.02, -187500.02, -187500.02, -187500.02, 0.000, 0.000, 0.000, 14:31:16.584
242, 43869.39, 36555.58, -187500.02, -187500.02, -187500.02, -187500.02, -187500.02, -187500.02, 0.000, 0.000, 0.000, 14:31:16.585
243, 43938.16, 36543.11, -187500.02, -187500.02, -187500.02, -187500.02, -187500.02, -187500.02, 0.000, 0.000, 0.000, 14:31:16.586
244, 43911.70, 36483.10, -187500.02, -187500.02, -187500.02, -187500.02, -187500.02, -187500.02, 0.000, 0.000, 0.000, 14:31:16.587
245, 43827.25, 36471.86, -187500.02, -187500.02, -187500.02, -187500.02, -187500.02, -187500.02, -0.184, -0.046, 1.008, 14:31:16.587
246, 43800.72, 36503.48, -187500.02, -187500.02, -187500.02, -187500.02, -187500.02, -187500.02, 0.000, 0.000, 0.000, 14:31:16.588
247, 43854.30, 36540.72, -187500.02, -187500.02, -187500.02, -187500.02, -187500.02, -187500.02, 0.000, 0.000, 0.000, 14:31:16.589
248, 43921.54, 36537.97, -187500.02, -187500.02, -187500.02, -187500.02, -187500.02, -187500.02, 0.000, 0.000, 0.000, 14:31:16.589
249, 43905.75, 36480.26, -187500.02, -187500.02, -187500.02, -187500.02, -187500.02, -187500.02, 0.000, 0.000, 0.000, 14:31:16.590
250, 43825.36, 36458.58, -187500.02, -187500.02, -187500.02, -187500.02, -187500.02, -187500.02, 0.000, 0.000, 0.000, 14:31:16.591
251, 43803.34, 36498.39, -187500.02, -187500.02, -187500.02, -187500.02, -187500.02, -187500.02, 0.000, 0.000, 0.000, 14:31:16.592
252, 43856.56, 36535.51, -187500.02, -187500.02, -187500.02, -187500.02, -187500.02, -187500.02, 0.000, 0.000, 0.000, 14:31:16.596
253, 43923.64, 36530.21, -187500.02, -187500.02, -187500.02, -187500.02, -187500.02, -187500.02, 0.000, 0.000, 0.000, 14:31:16.597
254, 43905.87, 36481.98, -187500.02, -187500.02, -187500.02, -187500.02, -187500.02, -187500.02, 0.000, 0.000, 0.000, 14:31:16.598
255, 43838.05, 36472.23, -187500.02, -187500.02, -187500.02, -187500.02, -187500.02, -187500.02, -0.184, -0.046, 1.018, 14:31:16.598
0, 43815.77, 36512.82, -187500.02, -187500.02, -187500.02, -187500.02, -187500.02, -187500.02, 0.000, 0.000, 0.000, 14:31:16.599
1, 43872.88, 36555.72, -187500.02, -187500.02, -187500.02, -187500.02, -187500.02, -187500.02, 0.000, 0.000, 0.000, 14:31:16.600
2, 43928.29, 36537.46, -187500.02, -187500.02, -187500.02, -187500.02, -187500.02, -187500.02, 0.000, 0.000, 0.000, 14:31:16.602
3, 43903.96, 36479.92, -187500.02, -187500.02, -187500.02, -187500.02, -187500.02, -187500.02, 0.000, 0.000, 0.000, 14:31:16.602
4, 43837.31, 36474.22, -187500.02, -187500.02, -187500.02, -187500.02, -187500.02, -187500.02, 0.000, 0.000, 0.000, 14:31:16.603
5, 43814.58, 36506.41, -187500.02, -187500.02, -187500.02, -187500.02, -187500.02, -187500.02, 0.000, 0.000, 0.000, 14:31:16.604
6, 43876.88, 36546.71, -187500.02, -187500.02, -187500.02, -187500.02, -187500.02, -187500.02, 0.000, 0.000, 0.000, 14:31:16.604
7, 43926.61, 36537.48, -187500.02, -187500.02, -187500.02, -187500.02, -187500.02, -187500.02, 0.000, 0.000, 0.000, 14:31:16.605
8, 43898.20, 36477.11, -187500.02, -187500.02, -187500.02, -187500.02, -187500.02, -187500.02, 0.000, 0.000, 0.000, 14:31:16.606
9, 43813.84, 36457.19, -187500.02, -187500.02, -187500.02, -187500.02, -187500.02, -187500.02, -0.190, -0.046, 1.018, 14:31:16.606
10, 43801.62, 36505.05, -187500.02, -187500.02, -187500.02, -187500.02, -187500.02, -187500.02, 0.000, 0.000, 0.000, 14:31:16.607
11, 43852.20, 36539.54, -187500.02, -187500.02, -187500.02, -187500.02, -187500.02, -187500.02, 0.000, 0.000, 0.000, 14:31:16.607
12, 43909.11, 36526.46, -187500.02, -187500.02, -187500.02, -187500.02, -187500.02, -187500.02, 0.000, 0.000, 0.000, 14:31:16.609
13, 43886.93, 36474.18, -187500.02, -187500.02, -187500.02, -187500.02, -187500.02, -187500.02, 0.000, 0.000, 0.000, 14:31:16.610
14, 43820.66, 36466.20, -187500.02, -187500.02, -187500.02, -187500.02, -187500.02, -187500.02, 0.000, 0.000, 0.000, 14:31:16.611
15, 43802.67, 36508.09, -187500.02, -187500.02, -187500.02, -187500.02, -187500.02, -187500.02, 0.000, 0.000, 0.000, 14:31:16.612
16, 43857.21, 36548.99, -187500.02, -187500.02, -187500.02, -187500.02, -187500.02, -187500.02, 0.000, 0.000, 0.000, 14:31:16.612
17, 43913.00, 36534.33, -187500.02, -187500.02, -187500.02, -187500.02, -187500.02, -187500.02, 0.000, 0.000, 0.000, 14:31:16.613
18, 43893.44, 36479.52, -187500.02, -187500.02, -187500.02, -187500.02, -187500.02, -187500.02, 0.000, 0.000, 0.000, 14:31:16.614
19, 43817.62, 36460.57, -187500.02, -187500.02, -187500.02, -187500.02, -187500.02, -187500.02, -0.184, -0.040, 1.014, 14:31:16.614
20, 43809.86, 36516.56, -187500.02, -187500.02, -187500.02, -187500.02, -187500.02, -187500.02, 0.000, 0.000, 0.000, 14:31:16.615
21, 43869.61, 36562.25, -187500.02, -187500.02, -187500.02, -187500.02, -187500.02, -187500.02, 0.000, 0.000, 0.000, 14:31:16.615
22, 43923.77, 36555.00, -187500.02, -187500.02, -187500.02, -187500.02, -187500.02, -187500.02, 0.000, 0.000, 0.000, 14:31:16.616
23, 43910.16, 36493.74, -187500.02, -187500.02, -187500.02, -187500.02, -187500.02, -187500.02, 0.000, 0.000, 0.000, 14:31:16.617
24, 43831.59, 36466.56, -187500.02, -187500.02, -187500.02, -187500.02, -187500.02, -187500.02, 0.000, 0.000, 0.000, 14:31:16.617
25, 43804.05, 36499.23, -187500.02, -187500.02, -187500.02, -187500.02, -187500.02, -187500.02, 0.000, 0.000, 0.000, 14:31:16.618
26, 43867.87, 36546.87, -187500.02, -187500.02, -187500.02, -187500.02, -187500.02, -187500.02, 0.000, 0.000, 0.000, 14:31:16.619
27, 43928.17, 36536.79, -187500.02, -187500.02, -187500.02, -187500.02, -187500.02, -187500.02, 0.000, 0.000, 0.000, 14:31:16.619
28, 43909.87, 36485.80, -187500.02, -187500.02, -187500.02, -187500.02, -187500.02, -187500.02, 0.000, 0.000, 0.000, 14:31:16.620
29, 43833.11, 36472.08, -187500.02, -187500.02, -187500.02, -187500.02, -187500.02, -187500.02, -0.180, -0.042, 1.002, 14:31:16.620
30, 43803.98, 36505.80, -187500.02, -187500.02, -187500.02, -187500.02, -187500.02, -187500.02, 0.000, 0.000, 0.000, 14:31:16.621
31, 43855.44, 36541.48, -187500.02, -187500.02, -187500.02, -187500.02, -187500.02, -187500.02, 0.000, 0.000, 0.000, 14:31:16.622
32, 43916.91, 36531.76, -187500.02, -187500.02, -187500.02, -187500.02, -187500.02, -187500.02, 0.000, 0.000, 0.000, 14:31:16.623
33, 43905.73, 36485.62, -187500.02, -187500.02, -187500.02, -187500.02, -187500.02, -187500.02, 0.000, 0.000, 0.000, 14:31:16.624
34, 43827.14, 36462.27, -187500.02, -187500.02, -187500.02, -187500.02, -187500.02, -187500.02, 0.000, 0.000, 0.000, 14:31:16.624
35, 43807.05, 36504.73, -187500.02, -187500.02, -187500.02, -187500.02, -187500.02, -187500.02, 0.000, 0.000, 0.000, 14:31:16.625
36, 43861.16, 36550.04, -187500.02, -187500.02, -187500.02, -187500.02, -187500.02, -187500.02, 0.000, 0.000, 0.000, 14:31:16.626
37, 43928.13, 36546.33, -187500.02, -187500.02, -187500.02, -187500.02, -187500.02, -187500.02, 0.000, 0.000, 0.000, 14:31:16.627
38, 43916.15, 36481.87, -187500.02, -187500.02, -187500.02, -187500.02, -187500.02, -187500.02, 0.000, 0.000, 0.000, 14:31:16.628
39, 43848.78, 36476.04, -187500.02, -187500.02, -187500.02, -187500.02, -187500.02, -187500.02, -0.182, -0.044, 1.004, 14:31:16.629
40, 43823.52, 36512.20, -187500.02, -187500.02, -187500.02, -187500.02, -187500.02, -187500.02, 0.000, 0.000, 0.000, 14:31:16.630
41, 43878.95, 36568.88, -187500.02, -187500.02, -187500.02, -187500.02, -187500.02, -187500.02, 0.000, 0.000, 0.000, 14:31:16.631
42, 43934.01, 36556.43, -187500.02, -187500.02, -187500.02, -187500.02, -187500.02, -187500.02, 0.000, 0.000, 0.000, 14:31:16.631
43, 43922.14, 36490.09, -187500.02, -187500.02, -187500.02, -187500.02, -187500.02, -187500.02, 0.000, 0.000, 0.000, 14:31:16.632
44, 43830.90, 36458.36, -187500.02, -187500.02, -187500.02, -187500.02, -187500.02, -187500.02, 0.000, 0.000, 0.000, 14:31:16.633
45, 43802.89, 36498.79, -187500.02, -187500.02, -187500.02, -187500.02, -187500.02, -187500.02, 0.000, 0.000, 0.000, 14:31:16.633
46, 43857.90, 36545.19, -187500.02, -187500.02, -187500.02, -187500.02, -187500.02, -187500.02, 0.000, 0.000, 0.000, 14:31:16.634
47, 43907.56, 36525.97, -187500.02, -187500.02, -187500.02, -187500.02, -187500.02, -187500.02, 0.000, 0.000, 0.000, 14:31:16.635
48, 43901.93, 36484.59, -187500.02, -187500.02, -187500.02, -187500.02, -187500.02, -187500.02, -0.178, -0.044, 1.006, 14:31:16.635
49, 43831.03, 36469.42, -187500.02, -187500.02, -187500.02, -187500.02, -187500.02, -187500.02, 0.000, 0.000, 0.000, 14:31:16.636
50, 43804.79, 36503.32, -187500.02, -187500.02, -187500.02, -187500.02, -187500.02, -187500.02, 0.000, 0.000, 0.000, 14:31:16.637
51, 43866.66, 36550.09, -187500.02, -187500.02, -187500.02, -187500.02, -187500.02, -187500.02, 0.000, 0.000, 0.000, 14:31:16.637
52, 43928.02, 36540.65, -187500.02, -187500.02, -187500.02, -187500.02, -187500.02, -187500.02, 0.000, 0.000, 0.000, 14:31:16.638
53, 43905.78, 36481.71, -187500.02, -187500.02, -187500.02, -187500.02, -187500.02, -187500.02, 0.000, 0.000, 0.000, 14:31:16.638
54, 43840.84, 36473.71, -187500.02, -187500.02, -187500.02, -187500.02, -187500.02, -187500.02, 0.000, 0.000, 0.000, 14:31:16.639
55, 43815.92, 36510.50, -187500.02, -187500.02, -187500.02, -187500.02, -187500.02, -187500.02, 0.000, 0.000, 0.000, 14:31:16.640
56, 43873.88, 36556.43, -187500.02, -187500.02, -187500.02, -187500.02, -187500.02, -187500.02, 0.000, 0.000, 0.000, 14:31:16.640
57, 43924.30, 36537.64, -187500.02, -187500.02, -187500.02, -187500.02, -187500.02, -187500.02, 0.000, 0.000, 0.000, 14:31:16.641
58, 43914.16, 36487.01, -187500.02, -187500.02, -187500.02, -187500.02, -187500.02, -187500.02, -0.180, -0.042, 1.008, 14:31:16.642
59, 43840.57, 36463.72, -187500.02, -187500.02, -187500.02, -187500.02, -187500.02, -187500.02, 0.000, 0.000, 0.000, 14:31:16.643
60, 43817.93, 36504.69, -187500.02, -187500.02, -187500.02, -187500.02, -187500.02, -187500.02, 0.000, 0.000, 0.000, 14:31:16.644
61, 43873.88, 36553.37, -187500.02, -187500.02, -187500.02, -187500.02, -187500.02, -187500.02, 0.000, 0.000, 0.000, 14:31:16.644
62, 43938.39, 36547.36, -187500.02, -187500.02, -187500.02, -187500.02, -187500.02, -187500.02, 0.000, 0.000, 0.000, 14:31:16.645
63, 43922.20, 36498.30, -187500.02, -187500.02, -187500.02, -187500.02, -187500.02, -187500.02, 0.000, 0.000, 0.000, 14:31:16.647
64, 43837.31, 36470.49, -187500.02, -187500.02, -187500.02, -187500.02, -187500.02, -187500.02, 0.000, 0.000, 0.000, 14:31:16.647
65, 43818.71, 36513.63, -187500.02, -187500.02, -187500.02, -187500.02, -187500.02, -187500.02, 0.000, 0.000, 0.000, 14:31:16.648
66, 43869.23, 36549.41, -187500.02, -187500.02, -187500.02, -187500.02, -187500.02, -187500.02, 0.000, 0.000, 0.000, 14:31:16.649
67, 43919.86, 36528.14, -187500.02, -187500.02, -187500.02, -187500.02, -187500.02, -187500.02, 0.000, 0.000, 0.000, 14:31:16.650
68, 43907.05, 36480.46, -187500.02, -187500.02, -187500.02, -187500.02, -187500.02, -187500.02, -0.188, -0.046, 1.006, 14:31:16.650
69, 43836.71, 36463.85, -187500.02, -187500.02, -187500.02, -187500.02, -187500.02, -187500.02, 0.000, 0.000, 0.000, 14:31:16.651
70, 43820.28, 36516.16, -187500.02, -187500.02, -187500.02, -187500.02, -187500.02, -187500.02, 0.000, 0.000, 0.000, 14:31:16.652
71, 43867.91, 36557.59, -187500.02, -187500.02, -187500.02, -187500.02, -187500.02, -187500.02, 0.000, 0.000, 0.000, 14:31:16.652
72, 43937.89, 36554.29, -187500.02, -187500.02, -187500.02, -187500.02, -187500.02, -187500.02, 0.000, 0.000, 0.000, 14:31:16.654
73, 43926.47, 36498.27, -187500.02, -187500.02, -187500.02, -187500.02, -187500.02, -187500.02, 0.000, 0.000, 0.000, 14:31:16.654
74, 43851.82, 36472.37, -187500.02, -187500.02, -187500.02, -187500.02, -187500.02, -187500.02, 0.000, 0.000, 0.000, 14:31:16.655
75, 43821.78, 36501.61, -187500.02, -187500.02, -187500.02, -187500.02, -187500.02, -187500.02, 0.000, 0.000, 0.000, 14:31:16.656
76, 43875.36, 36550.93, -187500.02, -187500.02, -187500.02, -187500.02, -187500.02, -187500.02, 0.000, 0.000, 0.000, 14:31:16.656
77, 43930.52, 36539.76, -187500.02, -187500.02, -187500.02, -187500.02, -187500.02, -187500.02, 0.000, 0.000, 0.000, 14:31:16.657
78, 43920.37, 36491.46, -187500.02, -187500.02, -187500.02, -187500.02, -187500.02, -187500.02, -0.188, -0.044, 1.008, 14:31:16.658
79, 43848.02, 36473.84, -187500.02, -187500.02, -187500.02, -187500.02, -187500.02, -187500.02, 0.000, 0.000, 0.000, 14:31:16.659
80, 43825.49, 36510.81, -187500.02, -187500.02, -187500.02, -187500.02, -187500.02, -187500.02, 0.000, 0.000, 0.000, 14:31:16.660
81, 43888.34, 36565.20, -187500.02, -187500.02, -187500.02, -187500.02, -187500.02, -187500.02, 0.000, 0.000, 0.000, 14:31:16.660
82, 43945.61, 36556.81, -187500.02, -187500.02, -187500.02, -187500.02, -187500.02, -187500.02, 0.000, 0.000, 0.000, 14:31:16.661
83, 43932.02, 36505.54, -187500.02, -187500.02, -187500.02, -187500.02, -187500.02, -187500.02, 0.000, 0.000, 0.000, 14:31:16.662
84, 43861.36, 36486.11, -187500.02, -187500.02, -187500.02, -187500.02, -187500.02, -187500.02, 0.000, 0.000, 0.000, 14:31:16.663
85, 43828.77, 36517.52, -187500.02, -187500.02, -187500.02, -187500.02, -187500.02, -187500.02, 0.000, 0.000, 0.000, 14:31:16.664
86, 43877.99, 36559.38, -187500.02, -187500.02, -187500.02, -187500.02, -187500.02, -187500.02, 0.000, 0.000, 0.000, 14:31:16.665
87, 43935.84, 36545.35, -187500.02, -187500.02, -187500.02, -187500.02, -187500.02, -187500.02, 0.000, 0.000, 0.000, 14:31:16.665
88, 43933.65, 36496.35, -187500.02, -187500.02, -187500.02, -187500.02, -187500.02, -187500.02, -0.192, -0.048, 1.006, 14:31:16.666
89, 43855.66, 36479.36, -187500.02, -187500.02, -187500.02, -187500.02, -187500.02, -187500.02, 0.000, 0.000, 0.000, 14:31:16.667
90, 43822.70, 36516.29, -187500.02, -187500.02, -187500.02, -187500.02, -187500.02, -187500.02, 0.000, 0.000, 0.000, 14:31:16.667
91, 43883.63, 36575.01, -187500.02, -187500.02, -187500.02, -187500.02, -187500.02, -187500.02, 0.000, 0.000, 0.000, 14:31:16.668
92, 43945.52, 36553.84, -187500.02, -187500.02, -187500.02, -187500.02, -187500.02, -187500.02, 0.000, 0.000, 0.000, 14:31:16.669
93, 43934.45, 36493.42, -187500.02, -187500.02, -187500.02, -187500.02, -187500.02, -187500.02, 0.000, 0.000, 0.000, 14:31:16.669
94, 43860.80, 36475.79, -187500.02, -187500.02, -187500.02, -187500.02, -187500.02, -187500.02, 0.000, 0.000, 0.000, 14:31:16.670
95, 43838.88, 36518.46, -187500.02, -187500.02, -187500.02, -187500.02, -187500.02, -187500.02, 0.000, 0.000, 0.000, 14:31:16.670
96, 43893.04, 36560.95, -187500.02, -187500.02, -187500.02, -187500.02, -187500.02, -187500.02, 0.000, 0.000, 0.000, 14:31:16.671
97, 43953.03, 36550.11, -187500.02, -187500.02, -187500.02, -187500.02, -187500.02, -187500.02, 0.000, 0.000, 0.000, 14:31:16.672
98, 43951.53, 36508.45, -187500.02, -187500.02, -187500.02, -187500.02, -187500.02, -187500.02, -0.188, -0.048, 1.010, 14:31:16.672
99, 43869.68, 36479.92, -187500.02, -187500.02, -187500.02, -187500.02, -187500.02, -187500.02, 0.000, 0.000, 0.000, 14:31:16.673
100, 43829.67, 36508.96, -187500.02, -187500.02, -187500.02, -187500.02, -187500.02, -187500.02, 0.000, 0.000, 0.000, 14:31:16.674
101, 43878.64, 36552.66, -187500.02, -187500.02, -187500.02, -187500.02, -187500.02, -187500.02, 0.000, 0.000, 0.000, 14:31:16.674
102, 43941.89, 36542.60, -187500.02, -187500.02, -187500.02, -187500.02, -187500.02, -187500.02, 0.000, 0.000, 0.000, 14:31:16.675
103, 43930.12, 36490.65, -187500.02, -187500.02, -187500.02, -187500.02, -187500.02, -187500.02, 0.000, 0.000, 0.000, 14:31:16.676
104, 43851.84, 36471.92, -187500.02, -187500.02, -187500.02, -187500.02, -187500.02, -187500.02, 0.000, 0.000, 0.000, 14:31:17.064
105, 43819.07, 36505.00, -187500.02, -187500.02, -187500.02, -187500.02, -187500.02, -187500.02, 0.000, 0.000, 0.000, 14:31:17.065
106, 43879.07, 36550.15, -187500.02, -187500.02, -187500.02, -187500.02, -187500.02, -187500.02, 0.000, 0.000, 0.000, 14:31:17.065
107, 43942.28, 36542.22, -187500.02, -187500.02, -187500.02, -187500.02, -187500.02, -187500.02, 0.000, 0.000, 0.000, 14:31:17.066
108, 43928.24, 36490.38, -187500.02, -187500.02, -187500.02, -187500.02, -187500.02, -187500.02, -0.186, -0.048, 1.006, 14:31:17.067
109, 43858.59, 36475.79, -187500.02, -187500.02, -187500.02, -187500.02, -187500.02, -187500.02, 0.000, 0.000, 0.000, 14:31:17.067
110, 43833.94, 36512.16, -187500.02, -187500.02, -187500.02, -187500.02, -187500.02, -187500.02, 0.000, 0.000, 0.000, 14:31:17.068
111, 43885.86, 36572.41, -187500.02, -187500.02, -187500.02, -187500.02, -187500.02, -187500.02, 0.000, 0.000, 0.000, 14:31:17.068
112, 43948.80, 36570.71, -187500.02, -187500.02, -187500.02, -187500.02, -187500.02, -187500.02, 0.000, 0.000, 0.000, 14:31:17.069
113, 43932.48, 36514.12, -187500.02, -187500.02, -187500.02, -187500.02, -187500.02, -187500.02, 0.000, 0.000, 0.000, 14:31:17.070
114, 43845.88, 36465.28, -187500.02, -187500.02, -187500.02, -187500.02, -187500.02, -187500.02, 0.000, 0.000, 0.000, 14:31:17.070
115, 43811.74, 36491.12, -187500.02, -187500.02, -187500.02, -187500.02, -187500.02, -187500.02, 0.000, 0.000, 0.000, 14:31:17.071
116, 43870.97, 36538.33, -187500.02, -187500.02, -187500.02, -187500.02, -187500.02, -187500.02, 0.000, 0.000, 0.000, 14:31:17.071
117, 43941.58, 36535.31, -187500.02, -187500.02, -187500.02, -187500.02, -187500.02, -187500.02, 0.000, 0.000, 0.000, 14:31:17.072
118, 43937.29, 36491.03, -187500.02, -187500.02, -187500.02, -187500.02, -187500.02, -187500.02, -0.186, -0.044, 1.004, 14:31:17.073
119, 43862.12, 36474.56, -187500.02, -187500.02, -187500.02, -187500.02, -187500.02, -187500.02, 0.000, 0.000, 0.000, 14:31:17.073
120, 43830.05, 36518.52, -187500.02, -187500.02, -187500.02, -187500.02, -187500.02, -187500.02, 0.000, 0.000, 0.000, 14:31:17.074
121, 43887.94, 36562.00, -187500.02, -187500.02, -187500.02, -187500.02, -187500.02, -187500.02, 0.000, 0.000, 0.000, 14:31:17.075
122, 43959.66, 36554.96, -187500.02, -187500.02, -187500.02, -187500.02, -187500.02, -187500.02, 0.000, 0.000, 0.000, 14:31:17.076
123, 43943.66, 36499.46, -187500.02, -187500.02, -187500.02, -187500.02, -187500.02, -187500.02, 0.000, 0.000, 0.000, 14:31:17.076
124, 43861.59, 36475.81, -187500.02, -187500.02, -187500.02, -187500.02, -187500.02, -187500.02, 0.000, 0.000, 0.000, 14:31:17.077
125, 43820.93, 36503.53, -187500.02, -187500.02, -187500.02, -187500.02, -187500.02, -187500.02, 0.000, 0.000, 0.000, 14:31:17.078
126, 43885.77, 36560.39, -187500.02, -187500.02, -187500.02, -187500.02, -187500.02, -187500.02, 0.000, 0.000, 0.000, 14:31:17.078
127, 43952.74, 36546.73, -187500.02, -187500.02, -187500.02, -187500.02, -187500.02, -187500.02, 0.000, 0.000, 0.000, 14:31:17.079
128, 43941.49, 36491.52, -187500.02, -187500.02, -187500.02, -187500.02, -187500.02, -187500.02, -0.182, -0.046, 0.998, 14:31:17.079
129, 43864.07, 36465.53, -187500.02, -187500.02, -187500.02, -187500.02, -187500.02, -187500.02, 0.000, 0.000, 0.000, 14:31:17.080
130, 43836.04, 36510.97, -187500.02, -187500.02, -187500.02, -187500.02, -187500.02, -187500.02, 0.000, 0.000, 0.000, 14:31:17.080
131, 43881.79, 36549.59, -187500.02, -187500.02, -187500.02, -187500.02, -187500.02, -187500.02, 0.000, 0.000, 0.000, 14:31:17.081
132, 43936.13, 36527.49, -187500.02, -187500.02, -187500.02, -187500.02, -187500.02, -187500.02, 0.000, 0.000, 0.000, 14:31:17.081
133, 43932.38, 36489.11, -187500.02, -187500.02, -187500.02, -187500.02, -187500.02, -187500.02, 0.000, 0.000, 0.000, 14:31:17.082
134, 43855.35, 36482.89, -187500.02, -187500.02, -187500.02, -187500.02, -187500.02, -187500.02, 0.000, 0.000, 0.000, 14:31:17.082
135, 43818.92, 36506.86, -187500.02, -187500.02, -187500.02, -187500.02, -187500.02, -187500.02, 0.000, 0.000, 0.000, 14:31:17.083
136, 43883.09, 36570.34, -187500.02, -187500.02, -187500.02, -187500.02, -187500.02, -187500.02, 0.000, 0.000, 0.000, 14:31:17.084
137, 43945.29, 36561.75, -187500.02, -187500.02, -187500.02, -187500.02, -187500.02, -187500.02, 0.000, 0.000, 0.000, 14:31:17.084
138, 43941.02, 36512.71, -187500.02, -187500.02, -187500.02, -187500.02, -187500.02, -187500.02, -0.186, -0.046, 1.000, 14:31:17.085
139, 43853.14, 36482.88, -187500.02, -187500.02, -187500.02, -187500.02, -187500.02, -187500.02, 0.000, 0.000, 0.000, 14:31:17.085
140, 43820.01, 36512.33, -187500.02, -187500.02, -187500.02, -187500.02, -187500.02, -187500.02, 0.000, 0.000, 0.000, 14:31:17.086
141, 43881.03, 36556.37, -187500.02, -187500.02, -187500.02, -187500.02, -187500.02, -187500.02, 0.000, 0.000, 0.000, 14:31:17.086
142, 43950.12, 36552.34, -187500.02, -187500.02, -187500.02, -187500.02, -187500.02, -187500.02, 0.000, 0.000, 0.000, 14:31:17.087
143, 43940.36, 36500.80, -187500.02, -187500.02, -187500.02, -187500.02, -187500.02, -187500.02, 0.000, 0.000, 0.000, 14:31:17.087
144, 43858.93, 36481.49, -187500.02, -187500.02, -187500.02, -187500.02, -187500.02, -187500.02, 0.000, 0.000, 0.000, 14:31:17.088
145, 43831.41, 36527.40, -187500.02, -187500.02, -187500.02, -187500.02, -187500.02, -187500.02, 0.000, 0.000, 0.000, 14:31:17.088
146, 43884.88, 36568.08, -187500.02, -187500.02, -187500.02, -187500.02, -187500.02, -187500.02, 0.000, 0.000, 0.000, 14:31:17.089
147, 43953.21, 36553.95, -187500.02, -187500.02, -187500.02, -187500.02, -187500.02, -187500.02, 0.000, 0.000, 0.000, 14:31:17.089
148, 43943.62, 36500.87, -187500.02, -187500.02, -187500.02, -187500.02, -187500.02, -187500.02, -0.184, -0.048, 1.008, 14:31:17.090
149, 43853.99, 36466.36, -187500.02, -187500.02, -187500.02, -187500.02, -187500.02, -187500.02, 0.000, 0.000, 0.000, 14:31:17.091
150, 43823.84, 36518.12, -187500.02, -187500.02, -187500.02, -187500.02, -187500.02, -187500.02, 0.000, 0.000, 0.000, 14:31:17.091
151, 43891.74, 36569.80, -187500.02, -187500.02, -187500.02, -187500.02, -187500.02, -187500.02, 0.000, 0.000, 0.000, 14:31:17.092
152, 43972.90, 36564.86, -187500.02, -187500.02, -187500.02, -187500.02, -187500.02, -187500.02, 0.000, 0.000, 0.000, 14:31:17.093
153, 43962.93, 36527.87, -187500.02, -187500.02, -187500.02, -187500.02, -187500.02, -187500.02, 0.000, 0.000, 0.000, 14:31:17.094
154, 43854.48, 36484.89, -187500.02, -187500.02, -187500.02, -187500.02, -187500.02, -187500.02, 0.000, 0.000, 0.000, 14:31:17.094
155, 43830.25, 36522.86, -187500.02, -187500.02, -187500.02, -187500.02, -187500.02, -187500.02, 0.000, 0.000, 0.000, 14:31:17.095
156, 43894.82, 36573.53, -187500.02, -187500.02, -187500.02, -187500.02, -187500.02, -187500.02, 0.000, 0.000, 0.000, 14:31:17.096
157, 43960.25, 36572.64, -187500.02, -187500.02, -187500.02, -187500.02, -187500.02, -187500.02, 0.000, 0.000, 0.000, 14:31:17.097
158, 43959.75, 36532.47, -187500.02, -187500.02, -187500.02, -187500.02, -187500.02, -187500.02, -0.184, -0.046, 1.004, 14:31:17.098
159, 43877.50, 36498.57, -187500.02, -187500.02, -187500.02, -187500.02, -187500.02, -187500.02, 0.000, 0.000, 0.000, 14:31:17.098
160, 43830.94, 36511.55, -187500.02, -187500.02, -187500.02, -187500.02, -187500.02, -187500.02, 0.000, 0.000, 0.000, 14:31:17.099
161, 43877.75, 36555.50, -187500.02, -187500.02, -187500.02, -187500.02, -187500.02, -187500.02, 0.000, 0.000, 0.000, 14:31:17.100
162, 43953.41, 36556.30, -187500.02, -187500.02, -187500.02, -187500.02, -187500.02, -187500.02, 0.000, 0.000, 0.000, 14:31:17.101
163, 43954.73, 36517.32, -187500.02, -187500.02, -187500.02, -187500.02, -187500.02, -187500.02, 0.000, 0.000, 0.000, 14:31:17.101
164, 43872.76, 36491.28, -187500.02, -187500.02, -187500.02, -187500.02, -187500.02, -187500.02, 0.000, 0.000, 0.000, 14:31:17.102
165, 43835.57, 36522.55, -187500.02, -187500.02, -187500.02, -187500.02, -187500.02, -187500.02, 0.000, 0.000, 0.000, 14:31:17.103
166, 43874.08, 36551.56, -187500.02, -187500.02, -187500.02, -187500.02, -187500.02, -187500.02, 0.000, 0.000, 0.000, 14:31:17.105
167, 43944.15, 36552.88, -187500.02, -187500.02, -187500.02, -187500.02, -187500.02, -187500.02, 0.000, 0.000, 0.000, 14:31:17.106
168, 43951.30, 36514.64, -187500.02, -187500.02, -187500.02, -187500.02, -187500.02, -187500.02, -0.188, -0.048, 0.994, 14:31:17.107
169, 43859.89, 36472.32, -187500.02, -187500.02, -187500.02, -187500.02, -187500.02, -187500.02, 0.000, 0.000, 0.000, 14:31:17.107
170, 43835.30, 36530.08, -187500.02, -187500.02, -187500.02, -187500.02, -187500.02, -187500.02, 0.000, 0.000, 0.000, 14:31:17.108
171, 43880.63, 36561.69, -187500.02, -187500.02, -187500.02, -187500.02, -187500.02, -187500.02, 0.000, 0.000, 0.000, 14:31:17.109
172, 43957.21, 36566.85, -187500.02, -187500.02, -187500.02, -187500.02, -187500.02, -187500.02, 0.000, 0.000, 0.000, 14:31:17.110
173, 43953.68, 36513.77, -187500.02, -187500.02, -187500.02, -187500.02, -187500.02, -187500.02, 0.000, 0.000, 0.000, 14:31:17.110
174, 43874.46, 36495.46, -187500.02, -187500.02, -187500.02, -187500.02, -187500.02, -187500.02, 0.000, 0.000, 0.000, 14:31:17.111
175, 43829.54, 36516.74, -187500.02, -187500.02, -187500.02, -187500.02, -187500.02, -187500.02, 0.000, 0.000, 0.000, 14:31:17.115
176, 43887.00, 36570.31, -187500.02, -187500.02, -187500.02, -187500.02, -187500.02, -187500.02, 0.000, 0.000, 0.000, 14:31:17.116
177, 43963.18, 36566.22, -187500.02, -187500.02, -187500.02, -187500.02, -187500.02, -187500.02, -0.184, -0.048, 1.002, 14:31:17.117
178, 43961.25, 36533.28, -187500.02, -187500.02, -187500.02, -187500.02, -187500.02, -187500.02, 0.000, 0.000, 0.000, 14:31:17.119
179, 43885.50, 36504.51, -187500.02, -187500.02, -187500.02, -187500.02, -187500.02, -187500.02, 0.000, 0.000, 0.000, 14:31:17.120
180, 43847.04, 36537.81, -187500.02, -187500.02, -187500.02, -187500.02, -187500.02, -187500.02, 0.000, 0.000, 0.000, 14:31:17.121
181, 43895.79, 36589.43, -187500.02, -187500.02, -187500.02, -187500.02, -187500.02, -187500.02, 0.000, 0.000, 0.000, 14:31:17.122
182, 43963.96, 36566.69, -187500.02, -187500.02, -187500.02, -187500.02, -187500.02, -187500.02, 0.000, 0.000, 0.000, 14:31:17.122
183, 43956.13, 36518.68, -187500.02, -187500.02, -187500.02, -187500.02, -187500.02, -187500.02, 0.000, 0.000, 0.000, 14:31:17.123
184, 43885.73, 36502.99, -187500.02, -187500.02, -187500.02, -187500.02, -187500.02, -187500.02, 0.000, 0.000, 0.000, 14:31:17.123
185, 43852.31, 36531.78, -187500.02, -187500.02, -187500.02, -187500.02, -187500.02, -187500.02, 0.000, 0.000, 0.000, 14:31:17.124
186, 43889.30, 36566.96, -187500.02, -187500.02, -187500.02, -187500.02, -187500.02, -187500.02, 0.000, 0.000, 0.000, 14:31:17.125
187, 43960.63, 36566.74, -187500.02, -187500.02, -187500.02, -187500.02, -187500.02, -187500.02, -0.186, -0.050, 1.006, 14:31:17.125
188, 43951.98, 36515.55, -187500.02, -187500.02, -187500.02, -187500.02, -187500.02, -187500.02, 0.000, 0.000, 0.000, 14:31:17.126
189, 43879.80, 36492.60, -187500.02, -187500.02, -187500.02, -187500.02, -187500.02, -187500.02, 0.000, 0.000, 0.000, 14:31:17.128
190, 43845.32, 36540.43, -187500.02, -187500.02, -187500.02, -187500.02, -187500.02, -187500.02, 0.000, 0.000, 0.000, 14:31:17.129
191, 43908.30, 36594.79, -187500.02, -187500.02, -187500.02, -187500.02, -187500.02, -187500.02, 0.000, 0.000, 0.000, 14:31:17.130
192, 43973.23, 36591.19, -187500.02, -187500.02, -187500.02, -187500.02, -187500.02, -187500.02, 0.000, 0.000, 0.000, 14:31:17.131
193, 43958.62, 36534.28, -187500.02, -187500.02, -187500.02, -187500.02, -187500.02, -187500.02, 0.000, 0.000, 0.000, 14:31:17.131
194, 43881.12, 36505.83, -187500.02, -187500.02, -187500.02, -187500.02, -187500.02, -187500.02, 0.000, 0.000, 0.000, 14:31:17.132
195, 43855.15, 36540.63, -187500.02, -187500.02, -187500.02, -187500.02, -187500.02, -187500.02, 0.000, 0.000, 0.000, 14:31:17.133
196, 43903.34, 36581.49, -187500.02, -187500.02, -187500.02, -187500.02, -187500.02, -187500.02, 0.000, 0.000, 0.000, 14:31:17.133
197, 43961.41, 36568.55, -187500.02, -187500.02, -187500.02, -187500.02, -187500.02, -187500.02, -0.186, -0.052, 1.004, 14:31:17.134
198, 43952.71, 36521.09, -187500.02, -187500.02, -187500.02, -187500.02, -187500.02, -187500.02, 0.000, 0.000, 0.000, 14:31:17.135
199, 43888.77, 36506.95, -187500.02, -187500.02, -187500.02, -187500.02, -187500.02, -187500.02, 0.000, 0.000, 0.000, 14:31:17.135
200, 43869.86, 36551.61, -187500.02, -187500.02, -187500.02, -187500.02, -187500.02, -187500.02, 0.000, 0.000, 0.000, 14:31:17.136
201, 43904.59, 36583.88, -187500.02, -187500.02, -187500.02, -187500.02, -187500.02, -187500.02, 0.000, 0.000, 0.000, 14:31:17.137
202, 43961.21, 36571.50, -187500.02, -187500.02, -187500.02, -187500.02, -187500.02, -187500.02, 0.000, 0.000, 0.000, 14:31:17.137
203, 43953.61, 36520.31, -187500.02, -187500.02, -187500.02, -187500.02, -187500.02, -187500.02, 0.000, 0.000, 0.000, 14:31:17.138
204, 43886.66, 36502.95, -187500.02, -187500.02, -187500.02, -187500.02, -187500.02, -187500.02, 0.000, 0.000, 0.000, 14:31:17.138
205, 43853.38, 36536.05, -187500.02, -187500.02, -187500.02, -187500.02, -187500.02, -187500.02, 0.000, 0.000, 0.000, 14:31:17.139
206, 43904.28, 36580.84, -187500.02, -187500.02, -187500.02, -187500.02, -187500.02, -187500.02, 0.000, 0.000, 0.000, 14:31:17.140
207, 43968.23, 36574.36, -187500.02, -187500.02, -187500.02, -187500.02, -187500.02, -187500.02, -0.184, -0.046, 1.014, 14:31:17.140
208, 43960.92, 36527.55, -187500.02, -187500.02, -187500.02, -187500.02, -187500.02, -187500.02, 0.000, 0.000, 0.000, 14:31:17.141
209, 43888.21, 36507.98, -187500.02, -187500.02, -187500.02, -187500.02, -187500.02, -187500.02, 0.000, 0.000, 0.000, 14:31:17.142
210, 43857.43, 36540.92, -187500.02, -187500.02, -187500.02, -187500.02, -187500.02, -187500.02, 0.000, 0.000, 0.000, 14:31:17.143
211, 43914.56, 36592.49, -187500.02, -187500.02, -187500.02, -187500.02, -187500.02, -187500.02, 0.000, 0.000, 0.000, 14:31:17.144
212, 43978.38, 36586.05, -187500.02, -187500.02, -187500.02, -187500.02, -187500.02, -187500.02, 0.000, 0.000, 0.000, 14:31:17.144
213, 43972.45, 36540.07, -187500.02, -187500.02, -187500.02, -187500.02, -187500.02, -187500.02, 0.000, 0.000, 0.000, 14:31:17.145
214, 43909.91, 36523.55, -187500.02, -187500.02, -187500.02, -187500.02, -187500.02, -187500.02, 0.000, 0.000, 0.000, 14:31:17.146
215, 43887.22, 36561.48, -187500.02, -187500.02, -187500.02, -187500.02, -187500.02, -187500.02, 0.000, 0.000, 0.000, 14:31:17.147
216, 43938.75, 36608.80, -187500.02, -187500.02, -187500.02, -187500.02, -187500.02, -187500.02, 0.000, 0.000, 0.000, 14:31:17.147
217, 43990.09, 36591.01, -187500.02, -187500.02, -187500.02, -187500.02, -187500.02, -187500.02, -0.184, -0.046, 1.008, 14:31:17.148
218, 43982.29, 36545.79, -187500.02, -187500.02, -187500.02, -187500.02, -187500.02, -187500.02, 0.000, 0.000, 0.000, 14:31:17.149
219, 43911.01, 36524.74, -187500.02, -187500.02, -187500.02, -187500.02, -187500.02, -187500.02, 0.000, 0.000, 0.000, 14:31:17.150
220, 43877.72, 36550.20, -187500.02, -187500.02, -187500.02, -187500.02, -187500.02, -187500.02, 0.000, 0.000, 0.000, 14:31:17.150
221, 43930.09, 36597.14, -187500.02, -187500.02, -187500.02, -187500.02, -187500.02, -187500.02, 0.000, 0.000, 0.000, 14:31:17.151
222, 44000.32, 36594.45, -187500.02, -187500.02, -187500.02, -187500.02, -187500.02, -187500.02, 0.000, 0.000, 0.000, 14:31:17.152
223, 43987.70, 36539.85, -187500.02, -187500.02, -187500.02, -187500.02, -187500.02, -187500.02, 0.000, 0.000, 0.000, 14:31:17.152
224, 43920.68, 36526.50, -187500.02, -187500.02, -187500.02, -187500.02, -187500.02, -187500.02, 0.000, 0.000, 0.000, 14:31:17.544
225, 43884.05, 36556.46, -187500.02, -187500.02, -187500.02, -187500.02, -187500.02, -187500.02, 0.000, 0.000, 0.000, 14:31:17.545
226, 43924.53, 36595.30, -187500.02, -187500.02, -187500.02, -187500.02, -187500.02, -187500.02, 0.000, 0.000, 0.000, 14:31:17.546
227, 43996.64, 36602.25, -187500.02, -187500.02, -187500.02, -187500.02, -187500.02, -187500.02, -0.188, -0.048, 1.004, 14:31:17.547
228, 43984.95, 36549.44, -187500.02, -187500.02, -187500.02, -187500.02, -187500.02, -187500.02, 0.000, 0.000, 0.000, 14:31:17.547
229, 43904.52, 36518.91, -187500.02, -187500.02, -187500.02, -187500.02, -187500.02, -187500.02, 0.000, 0.000, 0.000, 14:31:17.548
230, 43876.54, 36552.90, -187500.02, -187500.02, -187500.02, -187500.02, -187500.02, -187500.02, 0.000, 0.000, 0.000, 14:31:17.549
231, 43926.61, 36599.91, -187500.02, -187500.02, -187500.02, -187500.02, -187500.02, -187500.02, 0.000, 0.000, 0.000, 14:31:17.550
232, 43992.10, 36597.58, -187500.02, -187500.02, -187500.02, -187500.02, -187500.02, -187500.02, 0.000, 0.000, 0.000, 14:31:17.551
233, 43973.01, 36536.85, -187500.02, -187500.02, -187500.02, -187500.02, -187500.02, -187500.02, 0.000, 0.000, 0.000, 14:31:17.552
234, 43903.36, 36515.69, -187500.02, -187500.02, -187500.02, -187500.02, -187500.02, -187500.02, 0.000, 0.000, 0.000, 14:31:17.552
235, 43868.38, 36548.18, -187500.02, -187500.02, -187500.02, -187500.02, -187500.02, -187500.02, 0.000, 0.000, 0.000, 14:31:17.553
236, 43911.92, 36587.03, -187500.02, -187500.02, -187500.02, -187500.02, -187500.02, -187500.02, 0.000, 0.000, 0.000, 14:31:17.554
237, 43977.68, 36578.43, -187500.02, -187500.02, -187500.02, -187500.02, -187500.02, -187500.02, -0.190, -0.042, 1.006, 14:31:17.555
238, 43976.30, 36538.04, -187500.02, -187500.02, -187500.02, -187500.02, -187500.02, -187500.02, 0.000, 0.000, 0.000, 14:31:17.555
239, 43907.39, 36524.27, -187500.02, -187500.02, -187500.02, -187500.02, -187500.02, -187500.02, 0.000, 0.000, 0.000, 14:31:17.556
240, 43878.95, 36558.73, -187500.02, -187500.02, -187500.02, -187500.02, -187500.02, -187500.02, 0.000, 0.000, 0.000, 14:31:17.557
241, 43936.55, 36617.99, -187500.02, -187500.02, -187500.02, -187500.02, -187500.02, -187500.02, 0.000, 0.000, 0.000, 14:31:17.557
242, 43996.28, 36605.20, -187500.02, -187500.02, -187500.02, -187500.02, -187500.02, -187500.02, 0.000, 0.000, 0.000, 14:31:17.558
243, 43989.75, 36543.92, -187500.02, -187500.02, -187500.02, -187500.02, -187500.02, -187500.02, 0.000, 0.000, 0.000, 14:31:17.559
244, 43919.70, 36518.64, -187500.02, -187500.02, -187500.02, -187500.02, -187500.02, -187500.02, 0.000, 0.000, 0.000, 14:31:17.560
245, 43896.66, 36560.37, -187500.02, -187500.02, -187500.02, -187500.02, -187500.02, -187500.02, 0.000, 0.000, 0.000, 14:31:17.561
246, 43942.81, 36610.05, -187500.02, -187500.02, -187500.02, -187500.02, -187500.02, -187500.02, 0.000, 0.000, 0.000, 14:31:17.561
247, 44004.91, 36607.04, -187500.02, -187500.02, -187500.02, -187500.02, -187500.02, -187500.02, -0.190, -0.046, 1.006, 14:31:17.563
248, 43998.49, 36565.24, -187500.02, -187500.02, -187500.02, -187500.02, -187500.02, -187500.02, 0.000, 0.000, 0.000, 14:31:17.564
249, 43922.07, 36536.74, -187500.02, -187500.02, -187500.02, -187500.02, -187500.02, -187500.02, 0.000, 0.000, 0.000, 14:31:17.566
250, 43885.28, 36561.62, -187500.02, -187500.02, -187500.02, -187500.02, -187500.02, -187500.02, 0.000, 0.000, 0.000, 14:31:17.567
251, 43939.75, 36610.66, -187500.02, -187500.02, -187500.02, -187500.02, -187500.02, -187500.02, 0.000, 0.000, 0.000, 14:31:17.568
252, 44000.28, 36605.81, -187500.02, -187500.02, -187500.02, -187500.02, -187500.02, -187500.02, 0.000, 0.000, 0.000, 14:31:17.568
253, 43991.34, 36560.70, -187500.02, -187500.02, -187500.02, -187500.02, -187500.02, -187500.02, 0.000, 0.000, 0.000, 14:31:17.569
254, 43929.02, 36541.01, -187500.02, -187500.02, -187500.02, -187500.02, -187500.02, -187500.02, 0.000, 0.000, 0.000, 14:31:17.569
255, 43902.76, 36571.23, -187500.02, -187500.02, -187500.02, -187500.02, -187500.02, -187500.02, 0.000, 0.000, 0.000, 14:31:17.570
0, 43942.61, 36618.04, -187500.02, -187500.02, -187500.02, -187500.02, -187500.02, -187500.02, 0.000, 0.000, 0.000, 14:31:17.571
1, 44013.29, 36634.35, -187500.02, -187500.02, -187500.02, -187500.02, -187500.02, -187500.02, -0.186, -0.048, 1.000, 14:31:17.572
2, 44002.45, 36565.11, -187500.02, -187500.02, -187500.02, -187500.02, -187500.02, -187500.02, 0.000, 0.000, 0.000, 14:31:17.572
3, 43937.47, 36541.17, -187500.02, -187500.02, -187500.02, -187500.02, -187500.02, -187500.02, 0.000, 0.000, 0.000, 14:31:17.573
4, 43908.12, 36578.81, -187500.02, -187500.02, -187500.02, -187500.02, -187500.02, -187500.02, 0.000, 0.000, 0.000, 14:31:17.573
5, 43950.21, 36620.65, -187500.02, -187500.02, -187500.02, -187500.02, -187500.02, -187500.02, 0.000, 0.000, 0.000, 14:31:17.574
6, 44013.13, 36615.02, -187500.02, -187500.02, -187500.02, -187500.02, -187500.02, -187500.02, 0.000, 0.000, 0.000, 14:31:17.574
7, 44018.36, 36581.07, -187500.02, -187500.02, -187500.02, -187500.02, -187500.02, -187500.02, 0.000, 0.000, 0.000, 14:31:17.575
8, 43953.27, 36568.66, -187500.02, -187500.02, -187500.02, -187500.02, -187500.02, -187500.02, 0.000, 0.000, 0.000, 14:31:17.576
9, 43929.45, 36595.75, -187500.02, -187500.02, -187500.02, -187500.02, -187500.02, -187500.02, 0.000, 0.000, 0.000, 14:31:17.577
10, 43988.59, 36647.00, -187500.02, -187500.02, -187500.02, -187500.02, -187500.02, -187500.02, 0.000, 0.000, 0.000, 14:31:17.578
11, 44065.08, 36657.82, -187500.02, -187500.02, -187500.02, -187500.02, -187500.02, -187500.02, -0.178, -0.050, 1.002, 14:31:17.579
12, 44070.62, 36619.33, -187500.02, -187500.02, -187500.02, -187500.02, -187500.02, -187500.02, 0.000, 0.000, 0.000, 14:31:17.579
13, 43997.91, 36597.20, -187500.02, -187500.02, -187500.02, -187500.02, -187500.02, -187500.02, 0.000, 0.000, 0.000, 14:31:17.580
14, 43966.02, 36633.26, -187500.02, -187500.02, -187500.02, -187500.02, -187500.02, -187500.02, 0.000, 0.000, 0.000, 14:31:17.580
15, 44012.73, 36677.85, -187500.02, -187500.02, -187500.02, -187500.02, -187500.02, -187500.02, 0.000, 0.000, 0.000, 14:31:17.581
16, 44085.21, 36681.20, -187500.02, -187500.02, -187500.02, -187500.02, -187500.02, -187500.02, 0.000, 0.000, 0.000, 14:31:17.581
17, 44081.57, 36632.92, -187500.02, -187500.02, -187500.02, -187500.02, -187500.02, -187500.02, 0.000, 0.000, 0.000, 14:31:17.582
18, 44009.73, 36607.60, -187500.02, -187500.02, -187500.02, -187500.02, -187500.02, -187500.02, 0.000, 0.000, 0.000, 14:31:17.582
19, 43984.63, 36649.02, -187500.02, -187500.02, -187500.02, -187500.02, -187500.02, -187500.02, 0.000, 0.000, 0.000, 14:31:17.583
20, 44046.66, 36711.78, -187500.02, -187500.02, -187500.02, -187500.02, -187500.02, -187500.02, 0.000, 0.000, 0.000, 14:31:17.583
21, 44119.05, 36719.02, -187500.02, -187500.02, -187500.02, -187500.02, -187500.02, -187500.02, -0.178, -0.050, 1.004, 14:31:17.584
22, 44119.95, 36679.66, -187500.02, -187500.02, -187500.02, -187500.02, -187500.02, -187500.02, 0.000, 0.000, 0.000, 14:31:17.584
23, 44051.00, 36657.22, -187500.02, -187500.02, -187500.02, -187500.02, -187500.02, -187500.02, 0.000, 0.000, 0.000, 14:31:17.585
24, 44013.80, 36679.37, -187500.02, -187500.02, -187500.02, -187500.02, -187500.02, -187500.02, 0.000, 0.000, 0.000, 14:31:17.585
25, 44059.33, 36726.11, -187500.02, -187500.02, -187500.02, -187500.02, -187500.02, -187500.02, 0.000, 0.000, 0.000, 14:31:17.586
26, 44134.88, 36732.50, -187500.02, -187500.02, -187500.02, -187500.02, -187500.02, -187500.02, 0.000, 0.000, 0.000, 14:31:17.586
27, 44146.13, 36687.39, -187500.02, -187500.02, -187500.02, -187500.02, -187500.02, -187500.02, 0.000, 0.000, 0.000, 14:31:17.587
28, 44065.41, 36656.26, -187500.02, -187500.02, -187500.02, -187500.02, -187500.02, -187500.02, 0.000, 0.000, 0.000, 14:31:17.588
29, 44030.57, 36694.34, -187500.02, -187500.02, -187500.02, -187500.02, -187500.02, -187500.02, 0.000, 0.000, 0.000, 14:31:17.589
30, 44080.45, 36744.61, -187500.02, -187500.02, -187500.02, -187500.02, -187500.02, -187500.02, 0.000, 0.000, 0.000, 14:31:17.589
31, 44142.08, 36732.99, -187500.02, -187500.02, -187500.02, -187500.02, -187500.02, -187500.02, -0.182, -0.048, 1.006, 14:31:17.590
32, 44145.79, 36690.10, -187500.02, -187500.02, -187500.02, -187500.02, -187500.02, -187500.02, 0.000, 0.000, 0.000, 14:31:17.590
33, 44067.11, 36668.44, -187500.02, -187500.02, -187500.02, -187500.02, -187500.02, -187500.02, 0.000, 0.000, 0.000, 14:31:17.591
34, 44040.22, 36721.43, -187500.02, -187500.02, -187500.02, -187500.02, -187500.02, -187500.02, 0.000, 0.000, 0.000, 14:31:17.591
35, 44084.30, 36752.14, -187500.02, -187500.02, -187500.02, -187500.02, -187500.02, -187500.02, 0.000, 0.000, 0.000, 14:31:17.592
36, 44147.20, 36728.90, -187500.02, -187500.02, -187500.02, -187500.02, -187500.02, -187500.02, 0.000, 0.000, 0.000, 14:31:17.592
37, 44145.45, 36682.83, -187500.02, -187500.02, -187500.02, -187500.02, -187500.02, -187500.02, 0.000, 0.000, 0.000, 14:31:17.593
38, 44064.59, 36653.80, -187500.02, -187500.02, -187500.02, -187500.02, -187500.02, -187500.02, 0.000, 0.000, 0.000, 14:31:17.594
39, 44031.13, 36690.68, -187500.02, -187500.02, -187500.02, -187500.02, -187500.02, -187500.02, 0.000, 0.000, 0.000, 14:31:17.594
40, 44088.64, 36749.44, -187500.02, -187500.02, -187500.02, -187500.02, -187500.02, -187500.02, 0.000, 0.000, 0.000, 14:31:17.595
41, 44160.21, 36750.60, -187500.02, -187500.02, -187500.02, -187500.02, -187500.02, -187500.02, -0.182, -0.046, 1.006, 14:31:17.596
42, 44155.16, 36704.20, -187500.02, -187500.02, -187500.02, -187500.02, -187500.02, -187500.02, 0.000, 0.000, 0.000, 14:31:17.597
43, 44083.74, 36685.94, -187500.02, -187500.02, -187500.02, -187500.02, -187500.02, -187500.02, 0.000, 0.000, 0.000, 14:31:17.597
44, 44055.38, 36718.17, -187500.02, -187500.02, -187500.02, -187500.02, -187500.02, -187500.02, 0.000, 0.000, 0.000, 14:31:17.598
45, 44103.30, 36764.73, -187500.02, -187500.02, -187500.02, -187500.02, -187500.02, -187500.02, 0.000, 0.000, 0.000, 14:31:17.599
46, 44171.02, 36765.46, -187500.02, -187500.02, -187500.02, -187500.02, -187500.02, -187500.02, 0.000, 0.000, 0.000, 14:31:17.599
47, 44174.69, 36715.76, -187500.02, -187500.02, -187500.02, -187500.02, -187500.02, -187500.02, 0.000, 0.000, 0.000, 14:31:17.600
48, 44088.55, 36677.82, -187500.02, -187500.02, -187500.02, -187500.02, -187500.02, -187500.02, 0.000, 0.000, 0.000, 14:31:17.601
49, 44046.95, 36713.52, -187500.02, -187500.02, -187500.02, -187500.02, -187500.02, -187500.02, 0.000, 0.000, 0.000, 14:31:17.601
50, 44097.58, 36761.78, -187500.02, -187500.02, -187500.02, -187500.02, -187500.02, -187500.02, 0.000, 0.000, 0.000, 14:31:17.602
51, 44162.31, 36751.70, -187500.02, -187500.02, -187500.02, -187500.02, -187500.02, -187500.02, -0.182, -0.044, 1.006, 14:31:17.603
52, 44154.39, 36700.31, -187500.02, -187500.02, -187500.02, -187500.02, -187500.02, -187500.02, 0.000, 0.000, 0.000, 14:31:17.603
53, 44080.48, 36683.97, -187500.02, -187500.02, -187500.02, -187500.02, -187500.02, -187500.02, 0.000, 0.000, 0.000, 14:31:17.604
54, 44040.33, 36717.46, -187500.02, -187500.02, -187500.02, -187500.02, -187500.02, -187500.02, 0.000, 0.000, 0.000, 14:31:17.605
55, 44090.96, 36750.67, -187500.02, -187500.02, -187500.02, -187500.02, -187500.02, -187500.02, 0.000, 0.000, 0.000, 14:31:17.605
56, 44171.23, 36754.05, -187500.02, -187500.02, -187500.02, -187500.02, -187500.02, -187500.02, 0.000, 0.000, 0.000, 14:31:17.606
57, 44162.20, 36699.71, -187500.02, -187500.02, -187500.02, -187500.02, -187500.02, -187500.02, 0.000, 0.000, 0.000, 14:31:17.607
58, 44081.66, 36670.11, -187500.02, -187500.02, -187500.02, -187500.02, -187500.02, -187500.02, 0.000, 0.000, 0.000, 14:31:17.608
59, 44039.77, 36699.46, -187500.02, -187500.02, -187500.02, -187500.02, -187500.02, -187500.02, 0.000, 0.000, 0.000, 14:31:17.609
60, 44089.02, 36753.22, -187500.02, -187500.02, -187500.02, -187500.02, -187500.02, -187500.02, -0.180, -0.054, 1.008, 14:31:17.610
61, 44156.72, 36747.34, -187500.02, -187500.02, -187500.02, -187500.02, -187500.02, -187500.02, 0.000, 0.000, 0.000, 14:31:17.611
62, 44158.30, 36700.00, -187500.02, -187500.02, -187500.02, -187500.02, -187500.02, -187500.02, 0.000, 0.000, 0.000, 14:31:17.611
63, 44078.62, 36670.34, -187500.02, -187500.02, -187500.02, -187500.02, -187500.02, -187500.02, 0.000, 0.000, 0.000, 14:31:17.612
64, 44049.83, 36709.90, -187500.02, -187500.02, -187500.02, -187500.02, -187500.02, -187500.02, 0.000, 0.000, 0.000, 14:31:17.613
65, 44095.50, 36753.15, -187500.02, -187500.02, -187500.02, -187500.02, -187500.02, -187500.02, 0.000, 0.000, 0.000, 14:31:17.616
66, 44169.77, 36757.75, -187500.02, -187500.02, -187500.02, -187500.02, -187500.02, -187500.02, 0.000, 0.000, 0.000, 14:31:17.617
67, 44166.78, 36711.31, -187500.02, -187500.02, -187500.02, -187500.02, -187500.02, -187500.02, 0.000, 0.000, 0.000, 14:31:17.618
68, 44082.55, 36678.05, -187500.02, -187500.02, -187500.02, -187500.02, -187500.02, -187500.02, 0.000, 0.000, 0.000, 14:31:17.619
69, 44044.58, 36708.36, -187500.02, -187500.02, -187500.02, -187500.02, -187500.02, -187500.02, 0.000, 0.000, 0.000, 14:31:17.620
70, 44098.47, 36764.10, -187500.02, -187500.02, -187500.02, -187500.02, -187500.02, -187500.02, -0.182, -0.048, 1.008, 14:31:17.621
71, 44156.00, 36751.16, -187500.02, -187500.02, -187500.02, -187500.02, -187500.02, -187500.02, 0.000, 0.000, 0.000, 14:31:17.621
72, 44160.30, 36706.61, -187500.02, -187500.02, -187500.02, -187500.02, -187500.02, -187500.02, 0.000, 0.000, 0.000, 14:31:17.622
73, 44091.70, 36681.47, -187500.02, -187500.02, -187500.02, -187500.02, -187500.02, -187500.02, 0.000, 0.000, 0.000, 14:31:17.623
74, 44059.15, 36718.13, -187500.02, -187500.02, -187500.02, -187500.02, -187500.02, -187500.02, 0.000, 0.000, 0.000, 14:31:17.623
75, 44107.72, 36767.25, -187500.02, -187500.02, -187500.02, -187500.02, -187500.02, -187500.02, 0.000, 0.000, 0.000, 14:31:17.624
76, 44171.67, 36762.05, -187500.02, -187500.02, -187500.02, -187500.02, -187500.02, -187500.02, 0.000, 0.000, 0.000, 14:31:17.624
77, 44169.19, 36709.90, -187500.02, -187500.02, -187500.02, -187500.02, -187500.02, -187500.02, 0.000, 0.000, 0.000, 14:31:17.625
78, 44099.07, 36682.25, -187500.02, -187500.02, -187500.02, -187500.02, -187500.02, -187500.02, 0.000, 0.000, 0.000, 14:31:17.625
79, 44066.24, 36723.73, -187500.02, -187500.02, -187500.02, -187500.02, -187500.02, -187500.02, 0.000, 0.000, 0.000, 14:31:17.626
80, 44099.30, 36752.97, -187500.02, -187500.02, -187500.02, -187500.02, -187500.02, -187500.02, -0.184, -0.048, 1.002, 14:31:17.627
81, 44166.38, 36745.86, -187500.02, -187500.02, -187500.02, -187500.02, -187500.02, -187500.02, 0.000, 0.000, 0.000, 14:31:17.628
82, 44168.97, 36707.55, -187500.02, -187500.02, -187500.02, -187500.02, -187500.02, -187500.02, 0.000, 0.000, 0.000, 14:31:17.629
83, 44096.37, 36681.96, -187500.02, -187500.02, -187500.02, -187500.02, -187500.02, -187500.02, 0.000, 0.000, 0.000, 14:31:17.629
84, 44064.56, 36715.04, -187500.02, -187500.02, -187500.02, -187500.02, -187500.02, -187500.02, 0.000, 0.000, 0.000, 14:31:17.630
85, 44103.19, 36755.23, -187500.02, -187500.02, -187500.02, -187500.02, -187500.02, -187500.02, 0.000, 0.000, 0.000, 14:31:17.630
86, 44168.92, 36748.30, -187500.02, -187500.02, -187500.02, -187500.02, -187500.02, -187500.02, 0.000, 0.000, 0.000, 14:31:17.631
87, 44171.54, 36704.80, -187500.02, -187500.02, -187500.02, -187500.02, -187500.02, -187500.02, 0.000, 0.000, 0.000, 14:31:17.631
88, 44102.05, 36682.79, -187500.02, -187500.02, -187500.02, -187500.02, -187500.02, -187500.02, 0.000, 0.000, 0.000, 14:31:17.632
89, 44060.65, 36709.34, -187500.02, -187500.02, -187500.02, -187500.02, -187500.02, -187500.02, 0.000, 0.000, 0.000, 14:31:18.026
90, 44107.93, 36756.10, -187500.02, -187500.02, -187500.02, -187500.02, -187500.02, -187500.02, -0.182, -0.048, 1.004, 14:31:18.027
91, 44184.32, 36766.43, -187500.02, -187500.02, -187500.02, -187500.02, -187500.02, -187500.02, 0.000, 0.000, 0.000, 14:31:18.027
92, 44183.50, 36722.77, -187500.02, -187500.02, -187500.02, -187500.02, -187500.02, -187500.02, 0.000, 0.000, 0.000, 14:31:18.028
93, 44104.89, 36687.84, -187500.02, -187500.02, -187500.02, -187500.02, -187500.02, -187500.02, 0.000, 0.000, 0.000, 14:31:18.029
94, 44067.38, 36719.15, -187500.02, -187500.02, -187500.02, -187500.02, -187500.02, -187500.02, 0.000, 0.000, 0.000, 14:31:18.029
95, 44109.96, 36761.00, -187500.02, -187500.02, -187500.02, -187500.02, -187500.02, -187500.02, 0.000, 0.000, 0.000, 14:31:18.030
96, 44179.85, 36761.00, -187500.02, -187500.02, -187500.02, -187500.02, -187500.02, -187500.02, 0.000, 0.000, 0.000, 14:31:18.030
97, 44173.73, 36710.59, -187500.02, -187500.02, -187500.02, -187500.02, -187500.02, -187500.02, 0.000, 0.000, 0.000, 14:31:18.031
98, 44095.83, 36678.79, -187500.02, -187500.02, -187500.02, -187500.02, -187500.02, -187500.02, 0.000, 0.000, 0.000, 14:31:18.031
99, 44063.56, 36710.57, -187500.02, -187500.02, -187500.02, -187500.02, -187500.02, -187500.02, 0.000, 0.000, 0.000, 14:31:18.032
100, 44107.88, 36760.66, -187500.02, -187500.02, -187500.02, -187500.02, -187500.02, -187500.02, -0.180, -0.052, 1.004, 14:31:18.032
101, 44171.29, 36761.60, -187500.02, -187500.02, -187500.02, -187500.02, -187500.02, -187500.02, 0.000, 0.000, 0.000, 14:31:18.033
102, 44161.30, 36707.62, -187500.02, -187500.02, -187500.02, -187500.02, -187500.02, -187500.02, 0.000, 0.000, 0.000, 14:31:18.034
103, 44085.26, 36679.10, -187500.02, -187500.02, -187500.02, -187500.02, -187500.02, -187500.02, 0.000, 0.000, 0.000, 14:31:18.034
104, 44064.59, 36715.96, -187500.02, -187500.02, -187500.02, -187500.02, -187500.02, -187500.02, 0.000, 0.000, 0.000, 14:31:18.035
105, 44119.64, 36773.04, -187500.02, -187500.02, -187500.02, -187500.02, -187500.02, -187500.02, 0.000, 0.000, 0.000, 14:31:18.035
106, 44173.53, 36764.35, -187500.02, -187500.02, -187500.02, -187500.02, -187500.02, -187500.02, 0.000, 0.000, 0.000, 14:31:18.036
107, 44160.43, 36709.63, -187500.02, -187500.02, -187500.02, -187500.02, -187500.02, -187500.02, 0.000, 0.000, 0.000, 14:31:18.036
108, 44094.71, 36691.62, -187500.02, -187500.02, -187500.02, -187500.02, -187500.02, -187500.02, 0.000, 0.000, 0.000, 14:31:18.037
109, 44067.29, 36726.82, -187500.02, -187500.02, -187500.02, -187500.02, -187500.02, -187500.02, 0.000, 0.000, 0.000, 14:31:18.038
110, 44113.94, 36776.48, -187500.02, -187500.02, -187500.02, -187500.02, -187500.02, -187500.02, -0.182, -0.048, 1.002, 14:31:18.038
111, 44180.68, 36777.38, -187500.02, -187500.02, -187500.02, -187500.02, -187500.02, -187500.02, 0.000, 0.000, 0.000, 14:31:18.039
112, 44180.16, 36741.28, -187500.02, -187500.02, -187500.02, -187500.02, -187500.02, -187500.02, 0.000, 0.000, 0.000, 14:31:18.039
113, 44103.23, 36707.66, -187500.02, -187500.02, -187500.02, -187500.02, -187500.02, -187500.02, 0.000, 0.000, 0.000, 14:31:18.040
114, 44072.23, 36721.70, -187500.02, -187500.02, -187500.02, -187500.02, -187500.02, -187500.02, 0.000, 0.000, 0.000, 14:31:18.041
115, 44114.70, 36764.95, -187500.02, -187500.02, -187500.02, -187500.02, -187500.02, -187500.02, 0.000, 0.000, 0.000, 14:31:18.041
116, 44172.99, 36758.96, -187500.02, -187500.02, -187500.02, -187500.02, -187500.02, -187500.02, 0.000, 0.000, 0.000, 14:31:18.042
117, 44169.44, 36706.26, -187500.02, -187500.02, -187500.02, -187500.02, -187500.02, -187500.02, 0.000, 0.000, 0.000, 14:31:18.043
118, 44101.62, 36679.23, -187500.02, -187500.02, -187500.02, -187500.02, -187500.02, -187500.02, 0.000, 0.000, 0.000, 14:31:18.043
119, 44076.45, 36722.71, -187500.02, -187500.02, -187500.02, -187500.02, -187500.02, -187500.02, 0.000, 0.000, 0.000, 14:31:18.044
120, 44123.37, 36768.15, -187500.02, -187500.02, -187500.02, -187500.02, -187500.02, -187500.02, -0.174, -0.054, 1.008, 14:31:18.045
121, 44182.27, 36761.80, -187500.02, -187500.02, -187500.02, -187500.02, -187500.02, -187500.02, 0.000, 0.000, 0.000, 14:31:18.046
122, 44171.70, 36713.84, -187500.02, -187500.02, -187500.02, -187500.02, -187500.02, -187500.02, 0.000, 0.000, 0.000, 14:31:18.047
123, 44097.78, 36680.44, -187500.02, -187500.02, -187500.02, -187500.02, -187500.02, -187500.02, 0.000, 0.000, 0.000, 14:31:18.047
124, 44066.64, 36716.34, -187500.02, -187500.02, -187500.02, -187500.02, -187500.02, -187500.02, 0.000, 0.000, 0.000, 14:31:18.048
125, 44111.88, 36773.91, -187500.02, -187500.02, -187500.02, -187500.02, -187500.02, -187500.02, 0.000, 0.000, 0.000, 14:31:18.049
126, 44170.71, 36762.14, -187500.02, -187500.02, -187500.02, -187500.02, -187500.02, -187500.02, 0.000, 0.000, 0.000, 14:31:18.049
127, 44168.34, 36708.49, -187500.02, -187500.02, -187500.02, -187500.02, -187500.02, -187500.02, 0.000, 0.000, 0.000, 14:31:18.050
128, 44100.57, 36686.57, -187500.02, -187500.02, -187500.02, -187500.02, -187500.02, -187500.02, 0.000, 0.000, 0.000, 14:31:18.051
129, 44064.41, 36721.10, -187500.02, -187500.02, -187500.02, -187500.02, -187500.02, -187500.02, 0.000, 0.000, 0.000, 14:31:18.051
130, 44113.80, 36781.94, -187500.02, -187500.02, -187500.02, -187500.02, -187500.02, -187500.02, -0.174, -0.048, 1.004, 14:31:18.052
131, 44185.26, 36773.78, -187500.02, -187500.02, -187500.02, -187500.02, -187500.02, -187500.02, 0.000, 0.000, 0.000, 14:31:18.053
132, 44177.75, 36720.20, -187500.02, -187500.02, -187500.02, -187500.02, -187500.02, -187500.02, 0.000, 0.000, 0.000, 14:31:18.053
133, 44107.21, 36692.58, -187500.02, -187500.02, -187500.02, -187500.02, -187500.02, -187500.02, 0.000, 0.000, 0.000, 14:31:18.054
134, 44069.66, 36710.68, -187500.02, -187500.02, -187500.02, -187500.02, -187500.02, -187500.02, 0.000, 0.000, 0.000, 14:31:18.054
135, 44121.98, 36768.86, -187500.02, -187500.02, -187500.02, -187500.02, -187500.02, -187500.02, 0.000, 0.000, 0.000, 14:31:18.055
136, 44192.44, 36772.51, -187500.02, -187500.02, -187500.02, -187500.02, -187500.02, -187500.02, 0.000, 0.000, 0.000, 14:31:18.056
137, 44194.63, 36723.02, -187500.02, -187500.02, -187500.02, -187500.02, -187500.02, -187500.02, 0.000, 0.000, 0.000, 14:31:18.057
138, 44118.72, 36692.15, -187500.02, -187500.02, -187500.02, -187500.02, -187500.02, -187500.02, 0.000, 0.000, 0.000, 14:31:18.058
139, 44072.65, 36718.66, -187500.02, -187500.02, -187500.02, -187500.02, -187500.02, -187500.02, 0.000, 0.000, 0.000, 14:31:18.058
140, 44123.23, 36771.48, -187500.02, -187500.02, -187500.02, -187500.02, -187500.02, -187500.02, -0.178, -0.056, 1.004, 14:31:18.059
141, 44202.99, 36773.51, -187500.02, -187500.02, -187500.02, -187500.02, -187500.02, -187500.02, 0.000, 0.000, 0.000, 14:31:18.060
142, 44193.67, 36721.93, -187500.02, -187500.02, -187500.02, -187500.02, -187500.02, -187500.02, 0.000, 0.000, 0.000, 14:31:18.061
143, 44112.75, 36691.73, -187500.02, -187500.02, -187500.02, -187500.02, -187500.02, -187500.02, 0.000, 0.000, 0.000, 14:31:18.062
144, 44080.10, 36723.71, -187500.02, -187500.02, -187500.02, -187500.02, -187500.02, -187500.02, 0.000, 0.000, 0.000, 14:31:18.064
145, 44129.74, 36775.66, -187500.02, -187500.02, -187500.02, -187500.02, -187500.02, -187500.02, 0.000, 0.000, 0.000, 14:31:18.065
146, 44202.20, 36780.26, -187500.02, -187500.02, -187500.02, -187500.02, -187500.02, -187500.02, 0.000, 0.000, 0.000, 14:31:18.066
147, 44194.34, 36730.15, -187500.02, -187500.02, -187500.02, -187500.02, -187500.02, -187500.02, 0.000, 0.000, 0.000, 14:31:18.066
148, 44110.79, 36705.50, -187500.02, -187500.02, -187500.02, -187500.02, -187500.02, -187500.02, 0.000, 0.000, 0.000, 14:31:18.067
149, 44075.34, 36736.39, -187500.02, -187500.02, -187500.02, -187500.02, -187500.02, -187500.02, 0.000, 0.000, 0.000, 14:31:18.068
150, 44124.69, 36780.00, -187500.02, -187500.02, -187500.02, -187500.02, -187500.02, -187500.02, -0.178, -0.048, 1.008, 14:31:18.068
151, 44192.79, 36767.75, -187500.02, -187500.02, -187500.02, -187500.02, -187500.02, -187500.02, 0.000, 0.000, 0.000, 14:31:18.069
152, 44184.84, 36712.31, -187500.02, -187500.02, -187500.02, -187500.02, -187500.02, -187500.02, 0.000, 0.000, 0.000, 14:31:18.069
153, 44114.74, 36687.91, -187500.02, -187500.02, -187500.02, -187500.02, -187500.02, -187500.02, 0.000, 0.000, 0.000, 14:31:18.070
154, 44081.06, 36718.80, -187500.02, -187500.02, -187500.02, -187500.02, -187500.02, -187500.02, 0.000, 0.000, 0.000, 14:31:18.071
155, 44123.26, 36770.34, -187500.02, -187500.02, -187500.02, -187500.02, -187500.02, -187500.02, 0.000, 0.000, 0.000, 14:31:18.072
156, 44194.96, 36775.41, -187500.02, -187500.02, -187500.02, -187500.02, -187500.02, -187500.02, 0.000, 0.000, 0.000, 14:31:18.072
157, 44189.49, 36715.78, -187500.02, -187500.02, -187500.02, -187500.02, -187500.02, -187500.02, 0.000, 0.000, 0.000, 14:31:18.073
158, 44109.58, 36686.68, -187500.02, -187500.02, -187500.02, -187500.02, -187500.02, -187500.02, 0.000, 0.000, 0.000, 14:31:18.073
159, 44081.35, 36721.46, -187500.02, -187500.02, -187500.02, -187500.02, -187500.02, -187500.02, 0.000, 0.000, 0.000, 14:31:18.074
160, 44118.72, 36762.98, -187500.02, -187500.02, -187500.02, -187500.02, -187500.02, -187500.02, -0.184, -0.050, 1.014, 14:31:18.074
161, 44195.86, 36771.43, -187500.02, -187500.02, -187500.02, -187500.02, -187500.02, -187500.02, 0.000, 0.000, 0.000, 14:31:18.075
162, 44208.78, 36732.52, -187500.02, -187500.02, -187500.02, -187500.02, -187500.02, -187500.02, 0.000, 0.000, 0.000, 14:31:18.076
163, 44130.21, 36698.68, -187500.02, -187500.02, -187500.02, -187500.02, -187500.02, -187500.02, 0.000, 0.000, 0.000, 14:31:18.077
164, 44098.79, 36740.41, -187500.02, -187500.02, -187500.02, -187500.02, -187500.02, -187500.02, 0.000, 0.000, 0.000, 14:31:18.077
165, 44135.48, 36786.12, -187500.02, -187500.02, -187500.02, -187500.02, -187500.02, -187500.02, 0.000, 0.000, 0.000, 14:31:18.078
166, 44202.61, 36778.97, -187500.02, -187500.02, -187500.02, -187500.02, -187500.02, -187500.02, 0.000, 0.000, 0.000, 14:31:18.079
167, 44195.52, 36720.79, -187500.02, -187500.02, -187500.02, -187500.02, -187500.02, -187500.02, 0.000, 0.000, 0.000, 14:31:18.079
168, 44119.32, 36695.80, -187500.02, -187500.02, -187500.02, -187500.02, -187500.02, -187500.02, 0.000, 0.000, 0.000, 14:31:18.080
169, 44081.59, 36727.87, -187500.02, -187500.02, -187500.02, -187500.02, -187500.02, -187500.02, 0.000, 0.000, 0.000, 14:31:18.080
170, 44124.33, 36773.36, -187500.02, -187500.02, -187500.02, -187500.02, -187500.02, -187500.02, -0.182, -0.046, 1.014, 14:31:18.081
171, 44206.34, 36786.41, -187500.02, -187500.02, -187500.02, -187500.02, -187500.02, -187500.02, 0.000, 0.000, 0.000, 14:31:18.081
172, 44205.73, 36739.76, -187500.02, -187500.02, -187500.02, -187500.02, -187500.02, -187500.02, 0.000, 0.000, 0.000, 14:31:18.082
173, 44133.77, 36711.38, -187500.02, -187500.02, -187500.02, -187500.02, -187500.02, -187500.02, 0.000, 0.000, 0.000, 14:31:18.082
174, 44097.89, 36743.11, -187500.02, -187500.02, -187500.02, -187500.02, -187500.02, -187500.02, 0.000, 0.000, 0.000, 14:31:18.083
175, 44129.88, 36784.71, -187500.02, -187500.02, -187500.02, -187500.02, -187500.02, -187500.02, 0.000, 0.000, 0.000, 14:31:18.084
176, 44200.21, 36771.64, -187500.02, -187500.02, -187500.02, -187500.02, -187500.02, -187500.02, 0.000, 0.000, 0.000, 14:31:18.084
177, 44204.02, 36725.19, -187500.02, -187500.02, -187500.02, -187500.02, -187500.02, -187500.02, 0.000, 0.000, 0.000, 14:31:18.085
178, 44129.43, 36697.94, -187500.02, -187500.02, -187500.02, -187500.02, -187500.02, -187500.02, 0.000, 0.000, 0.000, 14:31:18.085
179, 44090.11, 36733.04, -187500.02, -187500.02, -187500.02, -187500.02, -187500.02, -187500.02, 0.000, 0.000, 0.000, 14:31:18.086
180, 44133.96, 36789.99, -187500.02, -187500.02, -187500.02, -187500.02, -187500.02, -187500.02, -0.186, -0.050, 1.018, 14:31:18.087
181, 44202.07, 36784.44, -187500.02, -187500.02, -187500.02, -187500.02, -187500.02, -187500.02, 0.000, 0.000, 0.000, 14:31:18.087
182, 44202.76, 36731.25, -187500.02, -187500.02, -187500.02, -187500.02, -187500.02, -187500.02, 0.000, 0.000, 0.000, 14:31:18.088
183, 44129.81, 36699.35, -187500.02, -187500.02, -187500.02, -187500.02, -187500.02, -187500.02, 0.000, 0.000, 0.000, 14:31:18.088
184, 44096.66, 36736.52, -187500.02, -187500.02, -187500.02, -187500.02, -187500.02, -187500.02, 0.000, 0.000, 0.000, 14:31:18.089
185, 44145.12, 36794.05, -187500.02, -187500.02, -187500.02, -187500.02, -187500.02, -187500.02, 0.000, 0.000, 0.000, 14:31:18.089
186, 44209.36, 36787.13, -187500.02, -187500.02, -187500.02, -187500.02, -187500.02, -187500.02, 0.000, 0.000, 0.000, 14:31:18.090
187, 44205.51, 36728.86, -187500.02, -187500.02, -187500.02, -187500.02, -187500.02, -187500.02, 0.000, 0.000, 0.000, 14:31:18.091
188, 44136.82, 36704.87, -187500.02, -187500.02, -187500.02, -187500.02, -187500.02, -187500.02, 0.000, 0.000, 0.000, 14:31:18.092
189, 44103.30, 36743.61, -187500.02, -187500.02, -187500.02, -187500.02, -187500.02, -187500.02, -0.182, -0.044, 1.014, 14:31:18.092
190, 44148.61, 36799.38, -187500.02, -187500.02, -187500.02, -187500.02, -187500.02, -187500.02, 0.000, 0.000, 0.000, 14:31:18.093
191, 44211.77, 36798.04, -187500.02, -187500.02, -187500.02, -187500.02, -187500.02, -187500.02, 0.000, 0.000, 0.000, 14:31:18.094
192, 44217.54, 36749.44, -187500.02, -187500.02, -187500.02, -187500.02, -187500.02, -187500.02, 0.000, 0.000, 0.000, 14:31:18.095
193, 44146.79, 36714.08, -187500.02, -187500.02, -187500.02, -187500.02, -187500.02, -187500.02, 0.000, 0.000, 0.000, 14:31:18.095
194, 44108.80, 36747.05, -187500.02, -187500.02, -187500.02, -187500.02, -187500.02, -187500.02, 0.000, 0.000, 0.000, 14:31:18.096
195, 44153.12, 36802.10, -187500.02, -187500.02, -187500.02, -187500.02, -187500.02, -187500.02, 0.000, 0.000, 0.000, 14:31:18.097
196, 44228.58, 36804.29, -187500.02, -187500.02, -187500.02, -187500.02, -187500.02, -187500.02, 0.000, 0.000, 0.000, 14:31:18.098
197, 44236.76, 36764.82, -187500.02, -187500.02, -187500.02, -187500.02, -187500.02, -187500.02, 0.000, 0.000, 0.000, 14:31:18.098
198, 44159.07, 36728.95, -187500.02, -187500.02, -187500.02, -187500.02, -187500.02, -187500.02, 0.000, 0.000, 0.000, 14:31:18.099
199, 44097.49, 36754.49, -187500.02, -187500.02, -187500.02, -187500.02, -187500.02, -187500.02, -0.186, -0.040, 1.018, 14:31:18.100
200, 44143.13, 36802.55, -187500.02, -187500.02, -187500.02, -187500.02, -187500.02, -187500.02, 0.000, 0.000, 0.000, 14:31:18.100
201, 44217.40, 36799.26, -187500.02, -187500.02, -187500.02, -187500.02, -187500.02, -187500.02, 0.000, 0.000, 0.000, 14:31:18.101
202, 44208.82, 36735.38, -187500.02, -187500.02, -187500.02, -187500.02, -187500.02, -187500.02, 0.000, 0.000, 0.000, 14:31:18.102
203, 44142.82, 36716.61, -187500.02, -187500.02, -187500.02, -187500.02, -187500.02, -187500.02, 0.000, 0.000, 0.000, 14:31:18.102
204, 44101.62, 36747.52, -187500.02, -187500.02, -187500.02, -187500.02, -187500.02, -187500.02, 0.000, 0.000, 0.000, 14:31:18.103
205, 44146.01, 36799.04, -187500.02, -187500.02, -187500.02, -187500.02, -187500.02, -187500.02, 0.000, 0.000, 0.000, 14:31:18.103
206, 44221.76, 36803.75, -187500.02, -187500.02, -187500.02, -187500.02, -187500.02, -187500.02, 0.000, 0.000, 0.000, 14:31:18.104
207, 44211.41, 36739.29, -187500.02, -187500.02, -187500.02, -187500.02, -187500.02, -187500.02, 0.000, 0.000, 0.000, 14:31:18.105
208, 44149.61, 36722.53, -187500.02, -187500.02, -187500.02, -187500.02, -187500.02, -187500.02, 0.000, 0.000, 0.000, 14:31:18.105
209, 44124.89, 36773.29, -187500.02, -187500.02, -187500.02, -187500.02, -187500.02, -187500.02, -0.178, -0.048, 1.016, 14:31:18.507
210, 44150.57, 36805.92, -187500.02, -187500.02, -187500.02, -187500.02, -187500.02, -187500.02, 0.000, 0.000, 0.000, 14:31:18.508
211, 44218.19, 36805.19, -187500.02, -187500.02, -187500.02, -187500.02, -187500.02, -187500.02, 0.000, 0.000, 0.000, 14:31:18.508
212, 44225.63, 36759.10, -187500.02, -187500.02, -187500.02, -187500.02, -187500.02, -187500.02, 0.000, 0.000, 0.000, 14:31:18.509
213, 44138.91, 36715.40, -187500.02, -187500.02, -187500.02, -187500.02, -187500.02, -187500.02, 0.000, 0.000, 0.000, 14:31:18.510
214, 44097.26, 36753.82, -187500.02, -187500.02, -187500.02, -187500.02, -187500.02, -187500.02, 0.000, 0.000, 0.000, 14:31:18.511
215, 44133.03, 36800.11, -187500.02, -187500.02, -187500.02, -187500.02, -187500.02, -187500.02, 0.000, 0.000, 0.000, 14:31:18.512
216, 44201.78, 36794.86, -187500.02, -187500.02, -187500.02, -187500.02, -187500.02, -187500.02, 0.000, 0.000, 0.000, 14:31:18.513
217, 44210.90, 36751.47, -187500.02, -187500.02, -187500.02, -187500.02, -187500.02, -187500.02, 0.000, 0.000, 0.000, 14:31:18.514
218, 44142.48, 36723.40, -187500.02, -187500.02, -187500.02, -187500.02, -187500.02, -187500.02, 0.000, 0.000, 0.000, 14:31:18.515
219, 44095.34, 36751.45, -187500.02, -187500.02, -187500.02, -187500.02, -187500.02, -187500.02, -0.180, -0.048, 1.010, 14:31:18.516
220, 44137.86, 36803.20, -187500.02, -187500.02, -187500.02, -187500.02, -187500.02, -187500.02, 0.000, 0.000, 0.000, 14:31:18.517
221, 44209.43, 36806.44, -187500.02, -187500.02, -187500.02, -187500.02, -187500.02, -187500.02, 0.000, 0.000, 0.000, 14:31:18.517
222, 44208.02, 36754.47, -187500.02, -187500.02, -187500.02, -187500.02, -187500.02, -187500.02, 0.000, 0.000, 0.000, 14:31:18.518
223, 44130.37, 36715.27, -187500.02, -187500.02, -187500.02, -187500.02, -187500.02, -187500.02, 0.000, 0.000, 0.000, 14:31:18.519
224, 44091.30, 36745.60, -187500.02, -187500.02, -187500.02, -187500.02, -187500.02, -187500.02, 0.000, 0.000, 0.000, 14:31:18.520
225, 44135.39, 36804.67, -187500.02, -187500.02, -187500.02, -187500.02, -187500.02, -187500.02, 0.000, 0.000, 0.000, 14:31:18.521
226, 44205.87, 36802.53, -187500.02, -187500.02, -187500.02, -187500.02, -187500.02, -187500.02, 0.000, 0.000, 0.000, 14:31:18.522
227, 44199.81, 36746.04, -187500.02, -187500.02, -187500.02, -187500.02, -187500.02, -187500.02, 0.000, 0.000, 0.000, 14:31:18.522
228, 44137.83, 36724.21, -187500.02, -187500.02, -187500.02, -187500.02, -187500.02, -187500.02, 0.000, 0.000, 0.000, 14:31:18.523
229, 44101.98, 36751.96, -187500.02, -187500.02, -187500.02, -187500.02, -187500.02, -187500.02, -0.182, -0.048, 1.006, 14:31:18.524
230, 44137.77, 36804.00, -187500.02, -187500.02, -187500.02, -187500.02, -187500.02, -187500.02, 0.000, 0.000, 0.000, 14:31:18.524
231, 44197.31, 36800.56, -187500.02, -187500.02, -187500.02, -187500.02, -187500.02, -187500.02, 0.000, 0.000, 0.000, 14:31:18.525
232, 44201.91, 36755.99, -187500.02, -187500.02, -187500.02, -187500.02, -187500.02, -187500.02, 0.000, 0.000, 0.000, 14:31:18.526
233, 44126.88, 36719.91, -187500.02, -187500.02, -187500.02, -187500.02, -187500.02, -187500.02, 0.000, 0.000, 0.000, 14:31:18.527
234, 44098.74, 36767.01, -187500.02, -187500.02, -187500.02, -187500.02, -187500.02, -187500.02, 0.000, 0.000, 0.000, 14:31:18.528
235, 44139.33, 36817.21, -187500.02, -187500.02, -187500.02, -187500.02, -187500.02, -187500.02, 0.000, 0.000, 0.000, 14:31:18.529
236, 44206.07, 36821.05, -187500.02, -187500.02, -187500.02, -187500.02, -187500.02, -187500.02, 0.000, 0.000, 0.000, 14:31:18.530
237, 44207.91, 36774.90, -187500.02, -187500.02, -187500.02, -187500.02, -187500.02, -187500.02, 0.000, 0.000, 0.000, 14:31:18.531
238, 44138.46, 36734.29, -187500.02, -187500.02, -187500.02, -187500.02, -187500.02, -187500.02, 0.000, 0.000, 0.000, 14:31:18.531
239, 44094.25, 36763.10, -187500.02, -187500.02, -187500.02, -187500.02, -187500.02, -187500.02, -0.178, -0.048, 1.006, 14:31:18.532
240, 44139.62, 36822.02, -187500.02, -187500.02, -187500.02, -187500.02, -187500.02, -187500.02, 0.000, 0.000, 0.000, 14:31:18.533
241, 44204.71, 36821.77, -187500.02, -187500.02, -187500.02, -187500.02, -187500.02, -187500.02, 0.000, 0.000, 0.000, 14:31:18.534
242, 44209.13, 36770.85, -187500.02, -187500.02, -187500.02, -187500.02, -187500.02, -187500.02, 0.000, 0.000, 0.000, 14:31:18.534
243, 44129.50, 36730.15, -187500.02, -187500.02, -187500.02, -187500.02, -187500.02, -187500.02, 0.000, 0.000, 0.000, 14:31:18.535
244, 44080.01, 36760.30, -187500.02, -187500.02, -187500.02, -187500.02, -187500.02, -187500.02, 0.000, 0.000, 0.000, 14:31:18.536
245, 44120.69, 36810.37, -187500.02, -187500.02, -187500.02, -187500.02, -187500.02, -187500.02, 0.000, 0.000, 0.000, 14:31:18.537
246, 44186.98, 36806.88, -187500.02, -187500.02, -187500.02, -187500.02, -187500.02, -187500.02, 0.000, 0.000, 0.000, 14:31:18.538
247, 44188.84, 36762.05, -187500.02, -187500.02, -187500.02, -187500.02, -187500.02, -187500.02, 0.000, 0.000, 0.000, 14:31:18.539
248, 44114.50, 36734.15, -187500.02, -187500.02, -187500.02, -187500.02, -187500.02, -187500.02, 0.000, 0.000, 0.000, 14:31:18.539
249, 44078.27, 36778.79, -187500.02, -187500.02, -187500.02, -187500.02, -187500.02, -187500.02, -0.182, -0.050, 1.004, 14:31:18.540
250, 44121.94, 36820.12, -187500.02, -187500.02, -187500.02, -187500.02, -187500.02, -187500.02, 0.000, 0.000, 0.000, 14:31:18.541
251, 44185.53, 36815.73, -187500.02, -187500.02, -187500.02, -187500.02, -187500.02, -187500.02, 0.000, 0.000, 0.000, 14:31:18.542
252, 44188.10, 36769.27, -187500.02, -187500.02, -187500.02, -187500.02, -187500.02, -187500.02, 0.000, 0.000, 0.000, 14:31:18.543
253, 44111.93, 36727.40, -187500.02, -187500.02, -187500.02, -187500.02, -187500.02, -187500.02, 0.000, 0.000, 0.000, 14:31:18.544
254, 44067.00, 36756.55, -187500.02, -187500.02, -187500.02, -187500.02, -187500.02, -187500.02, 0.000, 0.000, 0.000, 14:31:18.544
255, 44112.15, 36813.41, -187500.02, -187500.02, -187500.02, -187500.02, -187500.02, -187500.02, 0.000, 0.000, 0.000, 14:31:18.545
0, 44182.09, 36815.73, -187500.02, -187500.02, -187500.02, -187500.02, -187500.02, -187500.02, 0.000, 0.000, 0.000, 14:31:18.546
1, 44182.34, 36767.32, -187500.02, -187500.02, -187500.02, -187500.02, -187500.02, -187500.02, 0.000, 0.000, 0.000, 14:31:18.547
2, 44113.13, 36738.42, -187500.02, -187500.02, -187500.02, -187500.02, -187500.02, -187500.02, 0.000, 0.000, 0.000, 14:31:18.548
3, 44076.21, 36771.97, -187500.02, -187500.02, -187500.02, -187500.02, -187500.02, -187500.02, -0.180, -0.050, 1.008, 14:31:18.549
4, 44106.34, 36811.22, -187500.02, -187500.02, -187500.02, -187500.02, -187500.02, -187500.02, 0.000, 0.000, 0.000, 14:31:18.550
5, 44175.56, 36814.53, -187500.02, -187500.02, -187500.02, -187500.02, -187500.02, -187500.02, 0.000, 0.000, 0.000, 14:31:18.551
6, 44180.08, 36766.85, -187500.02, -187500.02, -187500.02, -187500.02, -187500.02, -187500.02, 0.000, 0.000, 0.000, 14:31:18.551
7, 44113.18, 36739.79, -187500.02, -187500.02, -187500.02, -187500.02, -187500.02, -187500.02, 0.000, 0.000, 0.000, 14:31:18.552
8, 44065.97, 36763.86, -187500.02, -187500.02, -187500.02, -187500.02, -187500.02, -187500.02, 0.000, 0.000, 0.000, 14:31:18.553
9, 44091.05, 36799.80, -187500.02, -187500.02, -187500.02, -187500.02, -187500.02, -187500.02, 0.000, 0.000, 0.000, 14:31:18.554
10, 44159.63, 36803.87, -187500.02, -187500.02, -187500.02, -187500.02, -187500.02, -187500.02, 0.000, 0.000, 0.000, 14:31:18.555
11, 44158.48, 36750.13, -187500.02, -187500.02, -187500.02, -187500.02, -187500.02, -187500.02, 0.000, 0.000, 0.000, 14:31:18.556
12, 44090.38, 36715.00, -187500.02, -187500.02, -187500.02, -187500.02, -187500.02, -187500.02, 0.000, 0.000, 0.000, 14:31:18.557
13, 44058.33, 36757.13, -187500.02, -187500.02, -187500.02, -187500.02, -187500.02, -187500.02, -0.190, -0.046, 1.014, 14:31:18.558
14, 44091.34, 36803.24, -187500.02, -187500.02, -187500.02, -187500.02, -187500.02, -187500.02, 0.000, 0.000, 0.000, 14:31:18.559
15, 44161.41, 36796.00, -187500.02, -187500.02, -187500.02, -187500.02, -187500.02, -187500.02, 0.000, 0.000, 0.000, 14:31:18.560
16, 44169.66, 36761.71, -187500.02, -187500.02, -187500.02, -187500.02, -187500.02, -187500.02, 0.000, 0.000, 0.000, 14:31:18.561
17, 44094.27, 36717.72, -187500.02, -187500.02, -187500.02, -187500.02, -187500.02, -187500.02, 0.000, 0.000, 0.000, 14:31:18.562
18, 44059.40, 36737.73, -187500.02, -187500.02, -187500.02, -187500.02, -187500.02, -187500.02, 0.000, 0.000, 0.000, 14:31:18.562
19, 44089.13, 36781.63, -187500.02, -187500.02, -187500.02, -187500.02, -187500.02, -187500.02, 0.000, 0.000, 0.000, 14:31:18.563
20, 44148.56, 36771.14, -187500.02, -187500.02, -187500.02, -187500.02, -187500.02, -187500.02, 0.000, 0.000, 0.000, 14:31:18.564
21, 44155.16, 36730.24, -187500.02, -187500.02, -187500.02, -187500.02, -187500.02, -187500.02, 0.000, 0.000, 0.000, 14:31:18.564
22, 44081.10, 36694.79, -187500.02, -187500.02, -187500.02, -187500.02, -187500.02, -187500.02, 0.000, 0.000, 0.000, 14:31:18.565
23, 44036.04, 36723.04, -187500.02, -187500.02, -187500.02, -187500.02, -187500.02, -187500.02, -0.186, -0.050, 1.008, 14:31:18.566
24, 44075.47, 36773.11, -187500.02, -187500.02, -187500.02, -187500.02, -187500.02, -187500.02, 0.000, 0.000, 0.000, 14:31:18.567
25, 44147.64, 36769.80, -187500.02, -187500.02, -187500.02, -187500.02, -187500.02, -187500.02, 0.000, 0.000, 0.000, 14:31:18.569
26, 44146.23, 36715.93, -187500.02, -187500.02, -187500.02, -187500.02, -187500.02, -187500.02, 0.000, 0.000, 0.000, 14:31:18.571
27, 44070.57, 36682.18, -187500.02, -187500.02, -187500.02, -187500.02, -187500.02, -187500.02, 0.000, 0.000, 0.000, 14:31:18.572
28, 44022.72, 36707.87, -187500.02, -187500.02, -187500.02, -187500.02, -187500.02, -187500.02, 0.000, 0.000, 0.000, 14:31:18.572
29, 44057.66, 36755.45, -187500.02, -187500.02, -187500.02, -187500.02, -187500.02, -187500.02, 0.000, 0.000, 0.000, 14:31:18.574
30, 44127.93, 36757.55, -187500.02, -187500.02, -187500.02, -187500.02, -187500.02, -187500.02, 0.000, 0.000, 0.000, 14:31:18.575
31, 44125.76, 36704.00, -187500.02, -187500.02, -187500.02, -187500.02, -187500.02, -187500.02, 0.000, 0.000, 0.000, 14:31:18.576
32, 44056.43, 36669.55, -187500.02, -187500.02, -187500.02, -187500.02, -187500.02, -187500.02, 0.000, 0.000, 0.000, 14:31:18.577
33, 44018.50, 36701.59, -187500.02, -187500.02, -187500.02, -187500.02, -187500.02, -187500.02, -0.184, -0.046, 1.004, 14:31:18.578
34, 44059.33, 36751.88, -187500.02, -187500.02, -187500.02, -187500.02, -187500.02, -187500.02, 0.000, 0.000, 0.000, 14:31:18.579
35, 44131.71, 36748.73, -187500.02, -187500.02, -187500.02, -187500.02, -187500.02, -187500.02, 0.000, 0.000, 0.000, 14:31:18.579
36, 44131.33, 36694.93, -187500.02, -187500.02, -187500.02, -187500.02, -187500.02, -187500.02, 0.000, 0.000, 0.000, 14:31:18.580
37, 44051.53, 36655.77, -187500.02, -187500.02, -187500.02, -187500.02, -187500.02, -187500.02, 0.000, 0.000, 0.000, 14:31:18.581
38, 44004.68, 36679.03, -187500.02, -187500.02, -187500.02, -187500.02, -187500.02, -187500.02, 0.000, 0.000, 0.000, 14:31:18.582
39, 44039.44, 36724.63, -187500.02, -187500.02, -187500.02, -187500.02, -187500.02, -187500.02, 0.000, 0.000, 0.000, 14:31:18.582
40, 44110.85, 36726.55, -187500.02, -187500.02, -187500.02, -187500.02, -187500.02, -187500.02, 0.000, 0.000, 0.000, 14:31:18.583
41, 44116.39, 36676.60, -187500.02, -187500.02, -187500.02, -187500.02, -187500.02, -187500.02, 0.000, 0.000, 0.000, 14:31:18.584
42, 44043.30, 36641.95, -187500.02, -187500.02, -187500.02, -187500.02, -187500.02, -187500.02, 0.000, 0.000, 0.000, 14:31:18.585
43, 44000.61, 36677.71, -187500.02, -187500.02, -187500.02, -187500.02, -187500.02, -187500.02, -0.184, -0.056, 1.000, 14:31:18.585
44, 44036.18, 36721.75, -187500.02, -187500.02, -187500.02, -187500.02, -187500.02, -187500.02, 0.000, 0.000, 0.000, 14:31:18.586
45, 44095.81, 36701.36, -187500.02, -187500.02, -187500.02, -187500.02, -187500.02, -187500.02, 0.000, 0.000, 0.000, 14:31:18.587
46, 44097.38, 36646.80, -187500.02, -187500.02, -187500.02, -187500.02, -187500.02, -187500.02, 0.000, 0.000, 0.000, 14:31:18.588
47, 44023.46, 36610.19, -187500.02, -187500.02, -187500.02, -187500.02, -187500.02, -187500.02, 0.000, 0.000, 0.000, 14:31:18.589
48, 43989.44, 36656.23, -187500.02, -187500.02, -187500.02, -187500.02, -187500.02, -187500.02, 0.000, 0.000, 0.000, 14:31:18.589
49, 44034.45, 36717.30, -187500.02, -187500.02, -187500.02, -187500.02, -187500.02, -187500.02, 0.000, 0.000, 0.000, 14:31:18.590
50, 44096.61, 36689.52, -187500.02, -187500.02, -187500.02, -187500.02, -187500.02, -187500.02, 0.000, 0.000, 0.000, 14:31:18.591
51, 44093.33, 36629.25, -187500.02, -187500.02, -187500.02, -187500.02, -187500.02, -187500.02, 0.000, 0.000, 0.000, 14:31:18.592
52, 44018.38, 36588.89, -187500.02, -187500.02, -187500.02, -187500.02, -187500.02, -187500.02, 0.000, 0.000, 0.000, 14:31:18.592
53, 43970.71, 36610.73, -187500.02, -187500.02, -187500.02, -187500.02, -187500.02, -187500.02, -0.188, -0.054, 1.006, 14:31:18.593
54, 44008.04, 36665.15, -187500.02, -187500.02, -187500.02, -187500.02, -187500.02, -187500.02, 0.000, 0.000, 0.000, 14:31:18.594
55, 44085.66, 36670.92, -187500.02, -187500.02, -187500.02, -187500.02, -187500.02, -187500.02, 0.000, 0.000, 0.000, 14:31:18.595
56, 44078.82, 36611.06, -187500.02, -187500.02, -187500.02, -187500.02, -187500.02, -187500.02, 0.000, 0.000, 0.000, 14:31:18.596
57, 44005.40, 36570.09, -187500.02, -187500.02, -187500.02, -187500.02, -187500.02, -187500.02, 0.000, 0.000, 0.000, 14:31:18.597
58, 43963.89, 36598.93, -187500.02, -187500.02, -187500.02, -187500.02, -187500.02, -187500.02, 0.000, 0.000, 0.000, 14:31:18.598
59, 44007.01, 36656.05, -187500.02, -187500.02, -187500.02, -187500.02, -187500.02, -187500.02, 0.000, 0.000, 0.000, 14:31:18.599
60, 44076.36, 36656.95, -187500.02, -187500.02, -187500.02, -187500.02, -187500.02, -187500.02, 0.000, 0.000, 0.000, 14:31:18.599
61, 44075.05, 36603.80, -187500.02, -187500.02, -187500.02, -187500.02, -187500.02, -187500.02, 0.000, 0.000, 0.000, 14:31:18.600
62, 43998.22, 36563.50, -187500.02, -187500.02, -187500.02, -187500.02, -187500.02, -187500.02, -0.188, -0.056, 1.006, 14:31:18.601
63, 43948.33, 36581.78, -187500.02, -187500.02, -187500.02, -187500.02, -187500.02, -187500.02, 0.000, 0.000, 0.000, 14:31:18.602
64, 43994.64, 36639.85, -187500.02, -187500.02, -187500.02, -187500.02, -187500.02, -187500.02, 0.000, 0.000, 0.000, 14:31:18.603
65, 44059.62, 36630.21, -187500.02, -187500.02, -187500.02, -187500.02, -187500.02, -187500.02, 0.000, 0.000, 0.000, 14:31:18.604
66, 44047.22, 36561.44, -187500.02, -187500.02, -187500.02, -187500.02, -187500.02, -187500.02, 0.000, 0.000, 0.000, 14:31:18.605
67, 43973.28, 36521.34, -187500.02, -187500.02, -187500.02, -187500.02, -187500.02, -187500.02, 0.000, 0.000, 0.000, 14:31:18.605
68, 43927.23, 36551.00, -187500.02, -187500.02, -187500.02, -187500.02, -187500.02, -187500.02, 0.000, 0.000, 0.000, 14:31:18.607
69, 43953.21, 36590.32, -187500.02, -187500.02, -187500.02, -187500.02, -187500.02, -187500.02, 0.000, 0.000, 0.000, 14:31:18.608
70, 44019.55, 36585.80, -187500.02, -187500.02, -187500.02, -187500.02, -187500.02, -187500.02, 0.000, 0.000, 0.000, 14:31:18.612
71, 44033.14, 36540.09, -187500.02, -187500.02, -187500.02, -187500.02, -187500.02, -187500.02, 0.000, 0.000, 0.000, 14:31:18.613
72, 43962.84, 36507.30, -187500.02, -187500.02, -187500.02, -187500.02, -187500.02, -187500.02, -0.194, -0.048, 1.010, 14:31:18.614
73, 43909.80, 36519.60, -187500.02, -187500.02, -187500.02, -187500.02, -187500.02, -187500.02, 0.000, 0.000, 0.000, 14:31:18.986
74, 43946.23, 36565.42, -187500.02, -187500.02, -187500.02, -187500.02, -187500.02, -187500.02, 0.000, 0.000, 0.000, 14:31:18.987
75, 44022.39, 36577.80, -187500.02, -187500.02, -187500.02, -187500.02, -187500.02, -187500.02, 0.000, 0.000, 0.000, 14:31:18.988
76, 44032.36, 36530.04, -187500.02, -187500.02, -187500.02, -187500.02, -187500.02, -187500.02, 0.000, 0.000, 0.000, 14:31:18.988
77, 43956.25, 36478.89, -187500.02, -187500.02, -187500.02, -187500.02, -187500.02, -187500.02, 0.000, 0.000, 0.000, 14:31:18.989
78, 43908.73, 36504.87, -187500.02, -187500.02, -187500.02, -187500.02, -187500.02, -187500.02, 0.000, 0.000, 0.000, 14:31:18.989
79, 43944.31, 36551.88, -187500.02, -187500.02, -187500.02, -187500.02, -187500.02, -187500.02, 0.000, 0.000, 0.000, 14:31:18.990
80, 44009.71, 36547.63, -187500.02, -187500.02, -187500.02, -187500.02, -187500.02, -187500.02, 0.000, 0.000, 0.000, 14:31:18.990
81, 44014.63, 36492.17, -187500.02, -187500.02, -187500.02, -187500.02, -187500.02, -187500.02, 0.000, 0.000, 0.000, 14:31:18.991
82, 43946.90, 36457.17, -187500.02, -187500.02, -187500.02, -187500.02, -187500.02, -187500.02, -0.190, -0.046, 1.006, 14:31:18.991
83, 43902.47, 36477.69, -187500.02, -187500.02, -187500.02, -187500.02, -187500.02, -187500.02, 0.000, 0.000, 0.000, 14:31:18.992
84, 43934.72, 36517.52, -187500.02, -187500.02, -187500.02, -187500.02, -187500.02, -187500.02, 0.000, 0.000, 0.000, 14:31:18.993
85, 44008.64, 36527.15, -187500.02, -187500.02, -187500.02, -187500.02, -187500.02, -187500.02, 0.000, 0.000, 0.000, 14:31:18.994
86, 44017.98, 36479.79, -187500.02, -187500.02, -187500.02, -187500.02, -187500.02, -187500.02, 0.000, 0.000, 0.000, 14:31:18.994
87, 43950.97, 36436.54, -187500.02, -187500.02, -187500.02, -187500.02, -187500.02, -187500.02, 0.000, 0.000, 0.000, 14:31:18.995
88, 43900.03, 36452.03, -187500.02, -187500.02, -187500.02, -187500.02, -187500.02, -187500.02, 0.000, 0.000, 0.000, 14:31:18.996
89, 43930.30, 36498.41, -187500.02, -187500.02, -187500.02, -187500.02, -187500.02, -187500.02, 0.000, 0.000, 0.000, 14:31:18.996
90, 44002.80, 36500.09, -187500.02, -187500.02, -187500.02, -187500.02, -187500.02, -187500.02, 0.000, 0.000, 0.000, 14:31:18.997
91, 44003.63, 36443.71, -187500.02, -187500.02, -187500.02, -187500.02, -187500.02, -187500.02, 0.000, 0.000, 0.000, 14:31:18.997
92, 43934.86, 36409.56, -187500.02, -187500.02, -187500.02, -187500.02, -187500.02, -187500.02, -0.182, -0.046, 1.006, 14:31:18.998
93, 43889.13, 36437.34, -187500.02, -187500.02, -187500.02, -187500.02, -187500.02, -187500.02, 0.000, 0.000, 0.000, 14:31:18.998
94, 43918.49, 36476.50, -187500.02, -187500.02, -187500.02, -187500.02, -187500.02, -187500.02, 0.000, 0.000, 0.000, 14:31:18.999
95, 43998.09, 36493.67, -187500.02, -187500.02, -187500.02, -187500.02, -187500.02, -187500.02, 0.000, 0.000, 0.000, 14:31:19.000
96, 43997.39, 36441.05, -187500.02, -187500.02, -187500.02, -187500.02, -187500.02, -187500.02, 0.000, 0.000, 0.000, 14:31:19.000
97, 43933.34, 36396.98, -187500.02, -187500.02, -187500.02, -187500.02, -187500.02, -187500.02, 0.000, 0.000, 0.000, 14:31:19.001
98, 43883.78, 36410.19, -187500.02, -187500.02, -187500.02, -187500.02, -187500.02, -187500.02, 0.000, 0.000, 0.000, 14:31:19.002
99, 43909.98, 36449.61, -187500.02, -187500.02, -187500.02, -187500.02, -187500.02, -187500.02, 0.000, 0.000, 0.000, 14:31:19.002
100, 43971.38, 36446.11, -187500.02, -187500.02, -187500.02, -187500.02, -187500.02, -187500.02, 0.000, 0.000, 0.000, 14:31:19.003
101, 43976.59, 36392.91, -187500.02, -187500.02, -187500.02, -187500.02, -187500.02, -187500.02, 0.000, 0.000, 0.000, 14:31:19.004
102, 43914.52, 36356.79, -187500.02, -187500.02, -187500.02, -187500.02, -187500.02, -187500.02, -0.184, -0.050, 1.010, 14:31:19.004
103, 43864.20, 36375.94, -187500.02, -187500.02, -187500.02, -187500.02, -187500.02, -187500.02, 0.000, 0.000, 0.000, 14:31:19.005
104, 43900.19, 36427.33, -187500.02, -187500.02, -187500.02, -187500.02, -187500.02, -187500.02, 0.000, 0.000, 0.000, 14:31:19.005
105, 43971.42, 36432.14, -187500.02, -187500.02, -187500.02, -187500.02, -187500.02, -187500.02, 0.000, 0.000, 0.000, 14:31:19.006
106, 43972.68, 36380.17, -187500.02, -187500.02, -187500.02, -187500.02, -187500.02, -187500.02, 0.000, 0.000, 0.000, 14:31:19.006
107, 43904.88, 36343.91, -187500.02, -187500.02, -187500.02, -187500.02, -187500.02, -187500.02, 0.000, 0.000, 0.000, 14:31:19.007
108, 43865.59, 36372.28, -187500.02, -187500.02, -187500.02, -187500.02, -187500.02, -187500.02, 0.000, 0.000, 0.000, 14:31:19.008
109, 43892.54, 36411.17, -187500.02, -187500.02, -187500.02, -187500.02, -187500.02, -187500.02, 0.000, 0.000, 0.000, 14:31:19.008
110, 43959.91, 36406.79, -187500.02, -187500.02, -187500.02, -187500.02, -187500.02, -187500.02, 0.000, 0.000, 0.000, 14:31:19.009
111, 43953.43, 36344.16, -187500.02, -187500.02, -187500.02, -187500.02, -187500.02, -187500.02, 0.000, 0.000, 0.000, 14:31:19.010
112, 43884.83, 36302.94, -187500.02, -187500.02, -187500.02, -187500.02, -187500.02, -187500.02, -0.186, -0.056, 1.008, 14:31:19.010
113, 43842.03, 36327.08, -187500.02, -187500.02, -187500.02, -187500.02, -187500.02, -187500.02, 0.000, 0.000, 0.000, 14:31:19.011
114, 43879.40, 36373.35, -187500.02, -187500.02, -187500.02, -187500.02, -187500.02, -187500.02, 0.000, 0.000, 0.000, 14:31:19.011
115, 43941.72, 36372.77, -187500.02, -187500.02, -187500.02, -187500.02, -187500.02, -187500.02, 0.000, 0.000, 0.000, 14:31:19.012
116, 43944.27, 36315.95, -187500.02, -187500.02, -187500.02, -187500.02, -187500.02, -187500.02, 0.000, 0.000, 0.000, 14:31:19.013
117, 43883.29, 36281.24, -187500.02, -187500.02, -187500.02, -187500.02, -187500.02, -187500.02, 0.000, 0.000, 0.000, 14:31:19.013
118, 43843.82, 36318.57, -187500.02, -187500.02, -187500.02, -187500.02, -187500.02, -187500.02, 0.000, 0.000, 0.000, 14:31:19.014
119, 43879.42, 36362.00, -187500.02, -187500.02, -187500.02, -187500.02, -187500.02, -187500.02, 0.000, 0.000, 0.000, 14:31:19.014
120, 43943.48, 36355.47, -187500.02, -187500.02, -187500.02, -187500.02, -187500.02, -187500.02, 0.000, 0.000, 0.000, 14:31:19.015
121, 43958.35, 36310.41, -187500.02, -187500.02, -187500.02, -187500.02, -187500.02, -187500.02, 0.000, 0.000, 0.000, 14:31:19.015
122, 43890.35, 36277.13, -187500.02, -187500.02, -187500.02, -187500.02, -187500.02, -187500.02, -0.186, -0.054, 1.004, 14:31:19.016
123, 43839.86, 36301.58, -187500.02, -187500.02, -187500.02, -187500.02, -187500.02, -187500.02, 0.000, 0.000, 0.000, 14:31:19.016
124, 43870.95, 36332.40, -187500.02, -187500.02, -187500.02, -187500.02, -187500.02, -187500.02, 0.000, 0.000, 0.000, 14:31:19.017
125, 43939.13, 36327.35, -187500.02, -187500.02, -187500.02, -187500.02, -187500.02, -187500.02, 0.000, 0.000, 0.000, 14:31:19.017
126, 43954.32, 36292.28, -187500.02, -187500.02, -187500.02, -187500.02, -187500.02, -187500.02, 0.000, 0.000, 0.000, 14:31:19.018
127, 43883.65, 36253.34, -187500.02, -187500.02, -187500.02, -187500.02, -187500.02, -187500.02, 0.000, 0.000, 0.000, 14:31:19.019
128, 43844.24, 36278.51, -187500.02, -187500.02, -187500.02, -187500.02, -187500.02, -187500.02, 0.000, 0.000, 0.000, 14:31:19.019
129, 43879.94, 36328.98, -187500.02, -187500.02, -187500.02, -187500.02, -187500.02, -187500.02, 0.000, 0.000, 0.000, 14:31:19.020
130, 43936.22, 36323.95, -187500.02, -187500.02, -187500.02, -187500.02, -187500.02, -187500.02, 0.000, 0.000, 0.000, 14:31:19.020
131, 43929.56, 36254.11, -187500.02, -187500.02, -187500.02, -187500.02, -187500.02, -187500.02, 0.000, 0.000, 0.000, 14:31:19.021
132, 43866.14, 36215.75, -187500.02, -187500.02, -187500.02, -187500.02, -187500.02, -187500.02, -0.186, -0.050, 1.008, 14:31:19.021
133, 43824.75, 36245.50, -187500.02, -187500.02, -187500.02, -187500.02, -187500.02, -187500.02, 0.000, 0.000, 0.000, 14:31:19.022
134, 43859.80, 36296.95, -187500.02, -187500.02, -187500.02, -187500.02, -187500.02, -187500.02, 0.000, 0.000, 0.000, 14:31:19.022
135, 43921.40, 36291.30, -187500.02, -187500.02, -187500.02, -187500.02, -187500.02, -187500.02, 0.000, 0.000, 0.000, 14:31:19.023
136, 43926.96, 36239.35, -187500.02, -187500.02, -187500.02, -187500.02, -187500.02, -187500.02, 0.000, 0.000, 0.000, 14:31:19.023
137, 43867.89, 36205.27, -187500.02, -187500.02, -187500.02, -187500.02, -187500.02, -187500.02, 0.000, 0.000, 0.000, 14:31:19.024
138, 43821.24, 36225.56, -187500.02, -187500.02, -187500.02, -187500.02, -187500.02, -187500.02, 0.000, 0.000, 0.000, 14:31:19.024
139, 43857.12, 36276.28, -187500.02, -187500.02, -187500.02, -187500.02, -187500.02, -187500.02, 0.000, 0.000, 0.000, 14:31:19.025
140, 43923.16, 36279.56, -187500.02, -187500.02, -187500.02, -187500.02, -187500.02, -187500.02, 0.000, 0.000, 0.000, 14:31:19.025
