%OpenBCI Raw EEG Data
%
%Sample Rate = 250.0 Hz
%First Column = SampleIndex
%Last Column = Timestamp 
%Other Columns = EEG data in microvolts followed by Accel Data (in G) interleaved with Aux Data
0, 70156.18, 25076.06, -187500.02, -187500.02, -187500.02, -179490.33, -187500.02, -187500.02, 0.006, -0.008, 1.022, 14:01:51.290
1, 68800.39, 23801.99, -187500.02, -187500.02, -187500.02, -179516.44, -187500.02, -187500.02, 0.000, 0.000, 0.000, 14:01:51.290
2, 65927.98, 20949.57, -187500.02, -187500.02, -187500.02, -179369.25, -187500.02, -187500.02, 0.000, 0.000, 0.000, 14:01:51.290
3, 66856.79, 21629.54, -187500.02, -187500.02, -187500.02, -179268.30, -187500.02, -187500.02, 0.000, 0.000, 0.000, 14:01:51.291
4, 70004.52, 24820.99, -187500.02, -187500.02, -187500.02, -179281.81, -187500.02, -187500.02, 0.000, 0.000, 0.000, 14:01:51.291
5, 70157.16, 25089.56, -187500.02, -187500.02, -187500.02, -179515.34, -187500.02, -187500.02, 0.000, 0.000, 0.000, 14:01:51.291
6, 68838.85, 23856.96, -187500.02, -187500.02, -187500.02, -179623.63, -187500.02, -187500.02, 0.000, 0.000, 0.000, 14:01:51.291
7, 65954.05, 20985.25, -187500.02, -187500.02, -187500.02, -179543.28, -187500.02, -187500.02, 0.004, -0.008, 1.024, 14:01:51.291
8, 66829.12, 21611.45, -187500.02, -187500.02, -187500.02, -179363.83, -187500.02, -187500.02, 0.000, 0.000, 0.000, 14:01:51.291
9, 69987.71, 24818.24, -187500.02, -187500.02, -187500.02, -179340.72, -187500.02, -187500.02, 0.000, 0.000, 0.000, 14:01:51.292
10, 70141.63, 25095.67, -187500.02, -187500.02, -187500.02, -179566.00, -187500.02, -187500.02, 0.000, 0.000, 0.000, 14:01:51.292
11, 68809.13, 23834.22, -187500.02, -187500.02, -187500.02, -179597.13, -187500.02, -187500.02, 0.000, 0.000, 0.000, 14:01:51.292
12, 65935.05, 20984.85, -187500.02, -187500.02, -187500.02, -179471.14, -187500.02, -187500.02, 0.000, 0.000, 0.000, 14:01:51.292
13, 66808.24, 21609.11, -187500.02, -187500.02, -187500.02, -179357.03, -187500.02, -187500.02, 0.000, 0.000, 0.000, 14:01:51.292
14, 69970.55, 24801.49, -187500.02, -187500.02, -187500.02, -179357.13, -187500.02, -187500.02, 0.000, 0.000, 0.000, 14:01:51.292
15, 70127.97, 25090.14, -187500.02, -187500.02, -187500.02, -179521.09, -187500.02, -187500.02, 0.000, 0.000, 0.000, 14:01:51.292
16, 68819.59, 23851.50, -187500.02, -187500.02, -187500.02, -179556.50, -187500.02, -187500.02, 0.000, 0.000, 0.000, 14:01:51.292
17, 65945.42, 20999.04, -187500.02, -187500.02, -187500.02, -179451.69, -187500.02, -187500.02, 0.006, -0.014, 1.024, 14:01:51.293
18, 66784.13, 21596.79, -187500.02, -187500.02, -187500.02, -179337.92, -187500.02, -187500.02, 0.000, 0.000, 0.000, 14:01:51.293
19, 69949.76, 24801.74, -187500.02, -187500.02, -187500.02, -179333.00, -187500.02, -187500.02, 0.000, 0.000, 0.000, 14:01:51.293
20, 70130.90, 25098.53, -187500.02, -187500.02, -187500.02, -179523.89, -187500.02, -187500.02, 0.000, 0.000, 0.000, 14:01:51.293
21, 68830.01, 23874.21, -187500.02, -187500.02, -187500.02, -179608.73, -187500.02, -187500.02, 0.000, 0.000, 0.000, 14:01:51.293
22, 65950.81, 21018.60, -187500.02, -187500.02, -187500.02, -179513.64, -187500.02, -187500.02, 0.000, 0.000, 0.000, 14:01:51.293
23, 66759.18, 21580.12, -187500.02, -187500.02, -187500.02, -179375.42, -187500.02, -187500.02, 0.000, 0.000, 0.000, 14:01:51.293
24, 69941.98, 24809.85, -187500.02, -187500.02, -187500.02, -179374.55, -187500.02, -187500.02, 0.000, 0.000, 0.000, 14:01:51.293
25, 70134.66, 25117.19, -187500.02, -187500.02, -187500.02, -179602.34, -187500.02, -187500.02, 0.000, 0.000, 0.000, 14:01:51.293
26, 68824.84, 23881.25, -187500.02, -187500.02, -187500.02, -179629.03, -187500.02, -187500.02, 0.006, -0.012, 1.028, 14:01:51.294
27, 65944.33, 21025.82, -187500.02, -187500.02, -187500.02, -179475.69, -187500.02, -187500.02, 0.000, 0.000, 0.000, 14:01:51.294
28, 66732.98, 21568.52, -187500.02, -187500.02, -187500.02, -179360.72, -187500.02, -187500.02, 0.000, 0.000, 0.000, 14:01:51.294
29, 69925.55, 24793.98, -187500.02, -187500.02, -187500.02, -179379.98, -187500.02, -187500.02, 0.000, 0.000, 0.000, 14:01:51.294
30, 70137.16, 25120.86, -187500.02, -187500.02, -187500.02, -179624.80, -187500.02, -187500.02, 0.000, 0.000, 0.000, 14:01:51.294
31, 68854.63, 23910.64, -187500.02, -187500.02, -187500.02, -179694.63, -187500.02, -187500.02, 0.000, 0.000, 0.000, 14:01:51.294
32, 65965.90, 21061.11, -187500.02, -187500.02, -187500.02, -179573.17, -187500.02, -187500.02, 0.000, 0.000, 0.000, 14:01:51.294
33, 66713.54, 21566.04, -187500.02, -187500.02, -187500.02, -179462.19, -187500.02, -187500.02, 0.000, 0.000, 0.000, 14:01:51.294
34, 69905.37, 24787.93, -187500.02, -187500.02, -187500.02, -179442.28, -187500.02, -187500.02, 0.000, 0.000, 0.000, 14:01:51.295
35, 70125.58, 25126.80, -187500.02, -187500.02, -187500.02, -179654.52, -187500.02, -187500.02, 0.000, 0.000, 0.000, 14:01:51.295
36, 68839.44, 23906.91, -187500.02, -187500.02, -187500.02, -179680.77, -187500.02, -187500.02, 0.004, -0.010, 1.026, 14:01:51.295
37, 65956.76, 21051.90, -187500.02, -187500.02, -187500.02, -179550.70, -187500.02, -187500.02, 0.000, 0.000, 0.000, 14:01:51.295
38, 66669.80, 21530.79, -187500.02, -187500.02, -187500.02, -179424.17, -187500.02, -187500.02, 0.000, 0.000, 0.000, 14:01:51.295
39, 69887.95, 24766.45, -187500.02, -187500.02, -187500.02, -179442.61, -187500.02, -187500.02, 0.000, 0.000, 0.000, 14:01:51.295
40, 70125.09, 25124.50, -187500.02, -187500.02, -187500.02, -179653.80, -187500.02, -187500.02, 0.000, 0.000, 0.000, 14:01:51.295
41, 68853.41, 23928.28, -187500.02, -187500.02, -187500.02, -179716.47, -187500.02, -187500.02, 0.000, 0.000, 0.000, 14:01:51.295
42, 65962.97, 21062.56, -187500.02, -187500.02, -187500.02, -179585.17, -187500.02, -187500.02, 0.000, 0.000, 0.000, 14:01:51.295
43, 66661.53, 21521.85, -187500.02, -187500.02, -187500.02, -179448.56, -187500.02, -187500.02, 0.000, 0.000, 0.000, 14:01:51.296
44, 69895.98, 24775.86, -187500.02, -187500.02, -187500.02, -179498.14, -187500.02, -187500.02, 0.000, 0.000, 0.000, 14:01:51.296
45, 70136.87, 25140.44, -187500.02, -187500.02, -187500.02, -179743.88, -187500.02, -187500.02, 0.000, 0.000, 0.000, 14:01:51.296
46, 68856.29, 23930.09, -187500.02, -187500.02, -187500.02, -179768.19, -187500.02, -187500.02, 0.014, 0.006, 1.042, 14:01:51.296
47, 65968.58, 21081.67, -187500.02, -187500.02, -187500.02, -179645.48, -187500.02, -187500.02, 0.000, 0.000, 0.000, 14:01:51.296
48, 66632.25, 21501.71, -187500.02, -187500.02, -187500.02, -179496.23, -187500.02, -187500.02, 0.000, 0.000, 0.000, 14:01:51.296
49, 69872.20, 24762.40, -187500.02, -187500.02, -187500.02, -179516.27, -187500.02, -187500.02, 0.000, 0.000, 0.000, 14:01:51.296
50, 70130.52, 25137.80, -187500.02, -187500.02, -187500.02, -179728.98, -187500.02, -187500.02, 0.000, 0.000, 0.000, 14:01:51.296
51, 68873.19, 23952.69, -187500.02, -187500.02, -187500.02, -179782.50, -187500.02, -187500.02, 0.000, 0.000, 0.000, 14:01:51.297
52, 65985.79, 21115.47, -187500.02, -187500.02, -187500.02, -179683.81, -187500.02, -187500.02, 0.000, 0.000, 0.000, 14:01:51.297
53, 66615.55, 21493.50, -187500.02, -187500.02, -187500.02, -179563.98, -187500.02, -187500.02, 0.000, 0.000, 0.000, 14:01:51.297
54, 69854.59, 24747.40, -187500.02, -187500.02, -187500.02, -179552.36, -187500.02, -187500.02, 0.000, 0.000, 0.000, 14:01:51.297
55, 70129.87, 25142.05, -187500.02, -187500.02, -187500.02, -179771.09, -187500.02, -187500.02, 0.000, 0.000, 0.000, 14:01:51.297
56, 68874.57, 23975.26, -187500.02, -187500.02, -187500.02, -179820.00, -187500.02, -187500.02, 0.012, -0.006, 1.040, 14:01:51.297
57, 65979.11, 21118.53, -187500.02, -187500.02, -187500.02, -179707.73, -187500.02, -187500.02, 0.000, 0.000, 0.000, 14:01:51.297
58, 66576.88, 21467.51, -187500.02, -187500.02, -187500.02, -179579.03, -187500.02, -187500.02, 0.000, 0.000, 0.000, 14:01:51.297
59, 69840.98, 24745.59, -187500.02, -187500.02, -187500.02, -179580.53, -187500.02, -187500.02, 0.000, 0.000, 0.000, 14:01:51.297
60, 70140.51, 25160.55, -187500.02, -187500.02, -187500.02, -179819.00, -187500.02, -187500.02, 0.000, 0.000, 0.000, 14:01:51.298
61, 68894.16, 23999.92, -187500.02, -187500.02, -187500.02, -179940.34, -187500.02, -187500.02, 0.000, 0.000, 0.000, 14:01:51.298
62, 65977.38, 21122.69, -187500.02, -187500.02, -187500.02, -179797.47, -187500.02, -187500.02, 0.000, 0.000, 0.000, 14:01:51.298
63, 66555.38, 21454.57, -187500.02, -187500.02, -187500.02, -179651.36, -187500.02, -187500.02, 0.000, 0.000, 0.000, 14:01:51.299
64, 69831.12, 24743.69, -187500.02, -187500.02, -187500.02, -179648.45, -187500.02, -187500.02, 0.000, 0.000, 0.000, 14:01:51.299
65, 70141.56, 25173.94, -187500.02, -187500.02, -187500.02, -179882.23, -187500.02, -187500.02, 0.000, 0.000, 0.000, 14:01:51.299
66, 68884.12, 23999.98, -187500.02, -187500.02, -187500.02, -179936.61, -187500.02, -187500.02, 0.010, -0.008, 1.032, 14:01:51.299
67, 65964.89, 21126.26, -187500.02, -187500.02, -187500.02, -179788.91, -187500.02, -187500.02, 0.000, 0.000, 0.000, 14:01:51.299
68, 66511.55, 21421.11, -187500.02, -187500.02, -187500.02, -179636.84, -187500.02, -187500.02, 0.000, 0.000, 0.000, 14:01:51.299
69, 69806.02, 24720.09, -187500.02, -187500.02, -187500.02, -179640.72, -187500.02, -187500.02, 0.000, 0.000, 0.000, 14:01:51.299
70, 70129.80, 25162.03, -187500.02, -187500.02, -187500.02, -179858.63, -187500.02, -187500.02, 0.000, 0.000, 0.000, 14:01:51.300
71, 68894.98, 24017.15, -187500.02, -187500.02, -187500.02, -179931.69, -187500.02, -187500.02, 0.000, 0.000, 0.000, 14:01:51.300
72, 65976.13, 21138.92, -187500.02, -187500.02, -187500.02, -179789.98, -187500.02, -187500.02, 0.000, 0.000, 0.000, 14:01:51.300
73, 66482.20, 21398.87, -187500.02, -187500.02, -187500.02, -179638.77, -187500.02, -187500.02, 0.000, 0.000, 0.000, 14:01:51.300
74, 69787.04, 24714.97, -187500.02, -187500.02, -187500.02, -179629.47, -187500.02, -187500.02, 0.000, 0.000, 0.000, 14:01:51.300
75, 70134.97, 25188.61, -187500.02, -187500.02, -187500.02, -179869.33, -187500.02, -187500.02, 0.000, 0.000, 0.000, 14:01:51.300
76, 68904.21, 24031.88, -187500.02, -187500.02, -187500.02, -179935.81, -187500.02, -187500.02, 0.014, -0.016, 1.026, 14:01:51.300
77, 65980.41, 21149.98, -187500.02, -187500.02, -187500.02, -179810.22, -187500.02, -187500.02, 0.000, 0.000, 0.000, 14:01:51.300
78, 66459.87, 21381.14, -187500.02, -187500.02, -187500.02, -179648.56, -187500.02, -187500.02, 0.000, 0.000, 0.000, 14:01:51.301
79, 69789.92, 24719.87, -187500.02, -187500.02, -187500.02, -179667.36, -187500.02, -187500.02, 0.000, 0.000, 0.000, 14:01:51.301
80, 70150.08, 25208.70, -187500.02, -187500.02, -187500.02, -179903.80, -187500.02, -187500.02, 0.000, 0.000, 0.000, 14:01:51.301
81, 68935.51, 24060.22, -187500.02, -187500.02, -187500.02, -180005.63, -187500.02, -187500.02, 0.000, 0.000, 0.000, 14:01:51.301
82, 65992.49, 21166.65, -187500.02, -187500.02, -187500.02, -179892.20, -187500.02, -187500.02, 0.000, 0.000, 0.000, 14:01:51.301
83, 66426.84, 21353.45, -187500.02, -187500.02, -187500.02, -179706.08, -187500.02, -187500.02, 0.000, 0.000, 0.000, 14:01:51.301
84, 69760.26, 24701.49, -187500.02, -187500.02, -187500.02, -179673.02, -187500.02, -187500.02, 0.000, 0.000, 0.000, 14:01:51.301
85, 70143.88, 25210.22, -187500.02, -187500.02, -187500.02, -179910.48, -187500.02, -187500.02, 0.000, 0.000, 0.000, 14:01:51.301
86, 68925.98, 24067.69, -187500.02, -187500.02, -187500.02, -179972.13, -187500.02, -187500.02, 0.014, -0.016, 1.026, 14:01:51.301
87, 65985.59, 21175.91, -187500.02, -187500.02, -187500.02, -179855.47, -187500.02, -187500.02, 0.000, 0.000, 0.000, 14:01:51.302
88, 66398.83, 21338.61, -187500.02, -187500.02, -187500.02, -179705.42, -187500.02, -187500.02, 0.000, 0.000, 0.000, 14:01:51.302
89, 69753.82, 24693.36, -187500.02, -187500.02, -187500.02, -179687.98, -187500.02, -187500.02, 0.000, 0.000, 0.000, 14:01:51.302
90, 70150.01, 25215.22, -187500.02, -187500.02, -187500.02, -179924.70, -187500.02, -187500.02, 0.000, 0.000, 0.000, 14:01:51.302
91, 68939.88, 24078.42, -187500.02, -187500.02, -187500.02, -180019.31, -187500.02, -187500.02, 0.000, 0.000, 0.000, 14:01:51.302
92, 65987.91, 21185.23, -187500.02, -187500.02, -187500.02, -179899.03, -187500.02, -187500.02, 0.000, 0.000, 0.000, 14:01:51.302
93, 66386.22, 21319.16, -187500.02, -187500.02, -187500.02, -179758.22, -187500.02, -187500.02, 0.000, 0.000, 0.000, 14:01:51.302
94, 69746.25, 24681.78, -187500.02, -187500.02, -187500.02, -179710.08, -187500.02, -187500.02, 0.000, 0.000, 0.000, 14:01:51.302
95, 70157.27, 25228.17, -187500.02, -187500.02, -187500.02, -179925.44, -187500.02, -187500.02, 0.000, 0.000, 0.000, 14:01:51.303
96, 68958.23, 24094.71, -187500.02, -187500.02, -187500.02, -180017.36, -187500.02, -187500.02, 0.012, -0.014, 1.026, 14:01:51.303
97, 66008.88, 21204.36, -187500.02, -187500.02, -187500.02, -179922.66, -187500.02, -187500.02, 0.000, 0.000, 0.000, 14:01:51.303
98, 66374.33, 21309.64, -187500.02, -187500.02, -187500.02, -179783.48, -187500.02, -187500.02, 0.000, 0.000, 0.000, 14:01:51.303
99, 69751.77, 24680.59, -187500.02, -187500.02, -187500.02, -179739.25, -187500.02, -187500.02, 0.000, 0.000, 0.000, 14:01:51.303
100, 70172.95, 25228.50, -187500.02, -187500.02, -187500.02, -179935.69, -187500.02, -187500.02, 0.000, 0.000, 0.000, 14:01:51.303
101, 68983.83, 24109.80, -187500.02, -187500.02, -187500.02, -180036.23, -187500.02, -187500.02, 0.000, 0.000, 0.000, 14:01:51.303
102, 66024.50, 21217.53, -187500.02, -187500.02, -187500.02, -179941.91, -187500.02, -187500.02, 0.000, 0.000, 0.000, 14:01:51.303
103, 66351.13, 21288.20, -187500.02, -187500.02, -187500.02, -179776.91, -187500.02, -187500.02, 0.000, 0.000, 0.000, 14:01:51.304
104, 69753.71, 24685.47, -187500.02, -187500.02, -187500.02, -179793.20, -187500.02, -187500.02, 0.000, 0.000, 0.000, 14:01:51.304
105, 70200.88, 25270.77, -187500.02, -187500.02, -187500.02, -180049.47, -187500.02, -187500.02, 0.000, 0.000, 0.000, 14:01:51.304
106, 69014.14, 24151.57, -187500.02, -187500.02, -187500.02, -180182.55, -187500.02, -187500.02, 0.006, -0.012, 1.026, 14:01:51.304
107, 66044.91, 21236.08, -187500.02, -187500.02, -187500.02, -180049.47, -187500.02, -187500.02, 0.000, 0.000, 0.000, 14:01:51.304
108, 66339.57, 21273.58, -187500.02, -187500.02, -187500.02, -179864.38, -187500.02, -187500.02, 0.000, 0.000, 0.000, 14:01:51.304
109, 69741.06, 24660.10, -187500.02, -187500.02, -187500.02, -179834.98, -187500.02, -187500.02, 0.000, 0.000, 0.000, 14:01:51.304
110, 70196.14, 25241.24, -187500.02, -187500.02, -187500.02, -180025.64, -187500.02, -187500.02, 0.000, 0.000, 0.000, 14:01:51.304
111, 69006.49, 24134.16, -187500.02, -187500.02, -187500.02, -180083.95, -187500.02, -187500.02, 0.000, 0.000, 0.000, 14:01:51.304
112, 66049.16, 21243.63, -187500.02, -187500.02, -187500.02, -180006.11, -187500.02, -187500.02, 0.000, 0.000, 0.000, 14:01:51.305
113, 66328.80, 21260.93, -187500.02, -187500.02, -187500.02, -179889.58, -187500.02, -187500.02, 0.000, 0.000, 0.000, 14:01:51.305
114, 69730.82, 24654.00, -187500.02, -187500.02, -187500.02, -179836.83, -187500.02, -187500.02, 0.000, 0.000, 0.000, 14:01:51.305
115, 70206.63, 25260.35, -187500.02, -187500.02, -187500.02, -180059.91, -187500.02, -187500.02, 0.000, 0.000, 0.000, 14:01:51.305
116, 69019.68, 24136.44, -187500.02, -187500.02, -187500.02, -180123.73, -187500.02, -187500.02, 0.006, -0.012, 1.028, 14:01:51.305
117, 66046.85, 21239.21, -187500.02, -187500.02, -187500.02, -179973.00, -187500.02, -187500.02, 0.000, 0.000, 0.000, 14:01:51.305
118, 66294.87, 21237.11, -187500.02, -187500.02, -187500.02, -179847.09, -187500.02, -187500.02, 0.000, 0.000, 0.000, 14:01:51.305
119, 69727.09, 24647.89, -187500.02, -187500.02, -187500.02, -179842.06, -187500.02, -187500.02, 0.000, 0.000, 0.000, 14:01:51.305
120, 70206.89, 25267.19, -187500.02, -187500.02, -187500.02, -180031.41, -187500.02, -187500.02, 0.000, 0.000, 0.000, 14:01:51.769
121, 69031.93, 24171.04, -187500.02, -187500.02, -187500.02, -180135.39, -187500.02, -187500.02, 0.000, 0.000, 0.000, 14:01:51.769
122, 66067.87, 21267.82, -187500.02, -187500.02, -187500.02, -180047.30, -187500.02, -187500.02, 0.000, 0.000, 0.000, 14:01:51.770
123, 66283.31, 21230.22, -187500.02, -187500.02, -187500.02, -179903.23, -187500.02, -187500.02, 0.000, 0.000, 0.000, 14:01:51.770
124, 69721.21, 24648.79, -187500.02, -187500.02, -187500.02, -179827.73, -187500.02, -187500.02, 0.000, 0.000, 0.000, 14:01:51.770
125, 70220.71, 25284.92, -187500.02, -187500.02, -187500.02, -180018.50, -187500.02, -187500.02, 0.000, 0.000, 0.000, 14:01:51.770
126, 69049.52, 24182.20, -187500.02, -187500.02, -187500.02, -180113.41, -187500.02, -187500.02, 0.010, -0.014, 1.030, 14:01:51.770
127, 66073.61, 21271.06, -187500.02, -187500.02, -187500.02, -179980.53, -187500.02, -187500.02, 0.000, 0.000, 0.000, 14:01:51.770
128, 66274.73, 21222.67, -187500.02, -187500.02, -187500.02, -179882.78, -187500.02, -187500.02, 0.000, 0.000, 0.000, 14:01:51.770
129, 69733.06, 24665.53, -187500.02, -187500.02, -187500.02, -179901.94, -187500.02, -187500.02, 0.000, 0.000, 0.000, 14:01:51.770
130, 70246.75, 25317.31, -187500.02, -187500.02, -187500.02, -180120.70, -187500.02, -187500.02, 0.000, 0.000, 0.000, 14:01:51.771
131, 69072.54, 24215.21, -187500.02, -187500.02, -187500.02, -180190.92, -187500.02, -187500.02, 0.000, 0.000, 0.000, 14:01:51.771
132, 66086.41, 21301.17, -187500.02, -187500.02, -187500.02, -180088.47, -187500.02, -187500.02, 0.000, 0.000, 0.000, 14:01:51.771
133, 66240.66, 21201.30, -187500.02, -187500.02, -187500.02, -179937.03, -187500.02, -187500.02, 0.000, 0.000, 0.000, 14:01:51.771
134, 69716.07, 24646.11, -187500.02, -187500.02, -187500.02, -179928.55, -187500.02, -187500.02, 0.000, 0.000, 0.000, 14:01:51.771
135, 70243.48, 25322.40, -187500.02, -187500.02, -187500.02, -180116.72, -187500.02, -187500.02, 0.000, 0.000, 0.000, 14:01:51.771
136, 69086.27, 24237.87, -187500.02, -187500.02, -187500.02, -180216.31, -187500.02, -187500.02, 0.012, -0.012, 1.026, 14:01:51.771
137, 66105.48, 21324.44, -187500.02, -187500.02, -187500.02, -180104.19, -187500.02, -187500.02, 0.000, 0.000, 0.000, 14:01:51.771
138, 66226.61, 21188.65, -187500.02, -187500.02, -187500.02, -179946.77, -187500.02, -187500.02, 0.000, 0.000, 0.000, 14:01:51.772
139, 69706.28, 24644.83, -187500.02, -187500.02, -187500.02, -179924.86, -187500.02, -187500.02, 0.000, 0.000, 0.000, 14:01:51.772
140, 70258.64, 25335.79, -187500.02, -187500.02, -187500.02, -180127.45, -187500.02, -187500.02, 0.000, 0.000, 0.000, 14:01:51.772
141, 69108.51, 24249.34, -187500.02, -187500.02, -187500.02, -180234.25, -187500.02, -187500.02, 0.000, 0.000, 0.000, 14:01:51.772
142, 66114.20, 21331.07, -187500.02, -187500.02, -187500.02, -180086.95, -187500.02, -187500.02, 0.000, 0.000, 0.000, 14:01:51.772
143, 66215.95, 21175.51, -187500.02, -187500.02, -187500.02, -179969.02, -187500.02, -187500.02, 0.000, 0.000, 0.000, 14:01:51.772
144, 69697.92, 24628.92, -187500.02, -187500.02, -187500.02, -179927.53, -187500.02, -187500.02, 0.000, 0.000, 0.000, 14:01:51.772
145, 70272.25, 25335.66, -187500.02, -187500.02, -187500.02, -180125.91, -187500.02, -187500.02, 0.004, -0.016, 1.032, 14:01:51.772
146, 69128.73, 24272.00, -187500.02, -187500.02, -187500.02, -180242.89, -187500.02, -187500.02, 0.000, 0.000, 0.000, 14:01:51.772
147, 66139.26, 21353.69, -187500.02, -187500.02, -187500.02, -180130.67, -187500.02, -187500.02, 0.000, 0.000, 0.000, 14:01:51.773
148, 66202.55, 21156.15, -187500.02, -187500.02, -187500.02, -179985.27, -187500.02, -187500.02, 0.000, 0.000, 0.000, 14:01:51.773
149, 69704.67, 24629.79, -187500.02, -187500.02, -187500.02, -179948.50, -187500.02, -187500.02, 0.000, 0.000, 0.000, 14:01:51.773
150, 70301.69, 25365.09, -187500.02, -187500.02, -187500.02, -180167.19, -187500.02, -187500.02, 0.000, 0.000, 0.000, 14:01:51.773
151, 69151.96, 24281.84, -187500.02, -187500.02, -187500.02, -180250.30, -187500.02, -187500.02, 0.000, 0.000, 0.000, 14:01:51.773
152, 66165.95, 21371.24, -187500.02, -187500.02, -187500.02, -180132.20, -187500.02, -187500.02, 0.000, 0.000, 0.000, 14:01:51.773
153, 66188.48, 21139.01, -187500.02, -187500.02, -187500.02, -179981.53, -187500.02, -187500.02, 0.000, 0.000, 0.000, 14:01:51.774
154, 69700.42, 24615.37, -187500.02, -187500.02, -187500.02, -179977.83, -187500.02, -187500.02, 0.000, 0.000, 0.000, 14:01:51.774
155, 70299.45, 25357.34, -187500.02, -187500.02, -187500.02, -180187.64, -187500.02, -187500.02, 0.004, -0.014, 1.030, 14:01:51.774
156, 69162.58, 24293.22, -187500.02, -187500.02, -187500.02, -180281.14, -187500.02, -187500.02, 0.000, 0.000, 0.000, 14:01:51.774
157, 66181.14, 21392.47, -187500.02, -187500.02, -187500.02, -180172.88, -187500.02, -187500.02, 0.000, 0.000, 0.000, 14:01:51.774
158, 66183.96, 21134.49, -187500.02, -187500.02, -187500.02, -180023.78, -187500.02, -187500.02, 0.000, 0.000, 0.000, 14:01:51.774
159, 69691.48, 24618.19, -187500.02, -187500.02, -187500.02, -179968.02, -187500.02, -187500.02, 0.000, 0.000, 0.000, 14:01:51.774
160, 70316.59, 25389.84, -187500.02, -187500.02, -187500.02, -180156.95, -187500.02, -187500.02, 0.000, 0.000, 0.000, 14:01:51.775
161, 69190.45, 24330.16, -187500.02, -187500.02, -187500.02, -180278.38, -187500.02, -187500.02, 0.000, 0.000, 0.000, 14:01:51.775
162, 66209.51, 21423.21, -187500.02, -187500.02, -187500.02, -180205.56, -187500.02, -187500.02, 0.000, 0.000, 0.000, 14:01:51.775
163, 66178.66, 21134.80, -187500.02, -187500.02, -187500.02, -180076.95, -187500.02, -187500.02, 0.000, 0.000, 0.000, 14:01:51.775
164, 69683.26, 24604.40, -187500.02, -187500.02, -187500.02, -180023.05, -187500.02, -187500.02, 0.000, 0.000, 0.000, 14:01:51.775
165, 70307.39, 25370.01, -187500.02, -187500.02, -187500.02, -180167.77, -187500.02, -187500.02, 0.008, -0.016, 1.028, 14:01:51.775
166, 69192.37, 24321.74, -187500.02, -187500.02, -187500.02, -180239.92, -187500.02, -187500.02, 0.000, 0.000, 0.000, 14:01:51.775
167, 66226.72, 21419.65, -187500.02, -187500.02, -187500.02, -180163.44, -187500.02, -187500.02, 0.000, 0.000, 0.000, 14:01:51.775
168, 66173.61, 21125.44, -187500.02, -187500.02, -187500.02, -180036.28, -187500.02, -187500.02, 0.000, 0.000, 0.000, 14:01:51.776
169, 69680.17, 24603.88, -187500.02, -187500.02, -187500.02, -179978.67, -187500.02, -187500.02, 0.000, 0.000, 0.000, 14:01:51.776
170, 70334.03, 25389.10, -187500.02, -187500.02, -187500.02, -180174.64, -187500.02, -187500.02, 0.000, 0.000, 0.000, 14:01:51.776
171, 69221.18, 24345.07, -187500.02, -187500.02, -187500.02, -180293.91, -187500.02, -187500.02, 0.000, 0.000, 0.000, 14:01:51.776
172, 66249.54, 21449.72, -187500.02, -187500.02, -187500.02, -180204.98, -187500.02, -187500.02, 0.000, 0.000, 0.000, 14:01:51.776
173, 66157.16, 21112.34, -187500.02, -187500.02, -187500.02, -180084.63, -187500.02, -187500.02, 0.000, 0.000, 0.000, 14:01:51.776
174, 69671.01, 24590.16, -187500.02, -187500.02, -187500.02, -180045.70, -187500.02, -187500.02, 0.000, 0.000, 0.000, 14:01:51.776
175, 70329.34, 25385.54, -187500.02, -187500.02, -187500.02, -180194.77, -187500.02, -187500.02, 0.004, -0.012, 1.022, 14:01:51.776
176, 69224.76, 24351.46, -187500.02, -187500.02, -187500.02, -180282.59, -187500.02, -187500.02, 0.000, 0.000, 0.000, 14:01:51.777
177, 66265.43, 21469.32, -187500.02, -187500.02, -187500.02, -180188.89, -187500.02, -187500.02, 0.000, 0.000, 0.000, 14:01:51.777
178, 66141.34, 21100.96, -187500.02, -187500.02, -187500.02, -180052.92, -187500.02, -187500.02, 0.000, 0.000, 0.000, 14:01:51.777
179, 69662.31, 24589.76, -187500.02, -187500.02, -187500.02, -180030.44, -187500.02, -187500.02, 0.000, 0.000, 0.000, 14:01:51.777
180, 70354.04, 25414.98, -187500.02, -187500.02, -187500.02, -180271.86, -187500.02, -187500.02, 0.000, 0.000, 0.000, 14:01:51.777
181, 69246.69, 24368.97, -187500.02, -187500.02, -187500.02, -180361.05, -187500.02, -187500.02, 0.000, 0.000, 0.000, 14:01:51.777
182, 66284.09, 21475.38, -187500.02, -187500.02, -187500.02, -180215.27, -187500.02, -187500.02, 0.000, 0.000, 0.000, 14:01:51.777
183, 66123.81, 21078.79, -187500.02, -187500.02, -187500.02, -180064.28, -187500.02, -187500.02, 0.000, 0.000, 0.000, 14:01:51.777
184, 69645.84, 24569.39, -187500.02, -187500.02, -187500.02, -180026.73, -187500.02, -187500.02, 0.000, 0.000, 0.000, 14:01:51.777
185, 70350.80, 25419.50, -187500.02, -187500.02, -187500.02, -180242.05, -187500.02, -187500.02, 0.004, -0.012, 1.028, 14:01:51.778
186, 69254.73, 24390.29, -187500.02, -187500.02, -187500.02, -180350.08, -187500.02, -187500.02, 0.000, 0.000, 0.000, 14:01:51.778
187, 66300.62, 21509.33, -187500.02, -187500.02, -187500.02, -180242.77, -187500.02, -187500.02, 0.000, 0.000, 0.000, 14:01:51.778
188, 66116.03, 21088.11, -187500.02, -187500.02, -187500.02, -180115.52, -187500.02, -187500.02, 0.000, 0.000, 0.000, 14:01:51.778
189, 69628.01, 24569.44, -187500.02, -187500.02, -187500.02, -180077.09, -187500.02, -187500.02, 0.000, 0.000, 0.000, 14:01:51.778
190, 70342.75, 25421.09, -187500.02, -187500.02, -187500.02, -180265.67, -187500.02, -187500.02, 0.000, 0.000, 0.000, 14:01:51.778
191, 69263.38, 24394.76, -187500.02, -187500.02, -187500.02, -180381.33, -187500.02, -187500.02, 0.000, 0.000, 0.000, 14:01:51.778
192, 66311.59, 21502.18, -187500.02, -187500.02, -187500.02, -180268.13, -187500.02, -187500.02, 0.000, 0.000, 0.000, 14:01:51.778
193, 66085.99, 21062.07, -187500.02, -187500.02, -187500.02, -180098.23, -187500.02, -187500.02, 0.000, 0.000, 0.000, 14:01:51.779
194, 69600.29, 24551.56, -187500.02, -187500.02, -187500.02, -180060.22, -187500.02, -187500.02, 0.000, 0.000, 0.000, 14:01:51.779
195, 70343.46, 25419.32, -187500.02, -187500.02, -187500.02, -180305.13, -187500.02, -187500.02, 0.002, -0.014, 1.030, 14:01:51.779
196, 69265.57, 24399.03, -187500.02, -187500.02, -187500.02, -180441.58, -187500.02, -187500.02, 0.000, 0.000, 0.000, 14:01:51.779
197, 66330.34, 21524.39, -187500.02, -187500.02, -187500.02, -180322.30, -187500.02, -187500.02, 0.000, 0.000, 0.000, 14:01:51.779
198, 66078.17, 21063.99, -187500.02, -187500.02, -187500.02, -180166.63, -187500.02, -187500.02, 0.000, 0.000, 0.000, 14:01:51.779
199, 69575.08, 24543.09, -187500.02, -187500.02, -187500.02, -180104.61, -187500.02, -187500.02, 0.000, 0.000, 0.000, 14:01:51.779
200, 70318.27, 25409.42, -187500.02, -187500.02, -187500.02, -180309.44, -187500.02, -187500.02, 0.000, 0.000, 0.000, 14:01:51.779
201, 69248.09, 24380.48, -187500.02, -187500.02, -187500.02, -180407.22, -187500.02, -187500.02, 0.000, 0.000, 0.000, 14:01:51.779
202, 66331.82, 21528.19, -187500.02, -187500.02, -187500.02, -180279.03, -187500.02, -187500.02, 0.000, 0.000, 0.000, 14:01:51.780
203, 66046.34, 21035.47, -187500.02, -187500.02, -187500.02, -180130.38, -187500.02, -187500.02, 0.000, 0.000, 0.000, 14:01:51.780
204, 69525.88, 24493.89, -187500.02, -187500.02, -187500.02, -180093.50, -187500.02, -187500.02, 0.000, 0.000, 0.000, 14:01:51.780
205, 70278.15, 25365.54, -187500.02, -187500.02, -187500.02, -180304.28, -187500.02, -187500.02, 0.004, -0.014, 1.038, 14:01:51.780
206, 69221.18, 24348.00, -187500.02, -187500.02, -187500.02, -180442.86, -187500.02, -187500.02, 0.000, 0.000, 0.000, 14:01:51.780
207, 66311.56, 21491.18, -187500.02, -187500.02, -187500.02, -180331.91, -187500.02, -187500.02, 0.000, 0.000, 0.000, 14:01:51.780
208, 66000.74, 20974.27, -187500.02, -187500.02, -187500.02, -180179.66, -187500.02, -187500.02, 0.000, 0.000, 0.000, 14:01:51.780
209, 69477.40, 24440.92, -187500.02, -187500.02, -187500.02, -180107.47, -187500.02, -187500.02, 0.000, 0.000, 0.000, 14:01:51.780
210, 70241.90, 25334.25, -187500.02, -187500.02, -187500.02, -180308.81, -187500.02, -187500.02, 0.000, 0.000, 0.000, 14:01:51.781
211, 69181.59, 24316.75, -187500.02, -187500.02, -187500.02, -180456.06, -187500.02, -187500.02, 0.000, 0.000, 0.000, 14:01:51.781
212, 66246.03, 21431.70, -187500.02, -187500.02, -187500.02, -180366.23, -187500.02, -187500.02, 0.000, 0.000, 0.000, 14:01:51.781
213, 65868.58, 20846.22, -187500.02, -187500.02, -187500.02, -180245.84, -187500.02, -187500.02, 0.000, 0.000, 0.000, 14:01:51.781
214, 69313.79, 24269.77, -187500.02, -187500.02, -187500.02, -180167.73, -187500.02, -187500.02, 0.000, 0.000, 0.000, 14:01:51.781
215, 70070.28, 25145.51, -187500.02, -187500.02, -187500.02, -180371.11, -187500.02, -187500.02, 0.008, -0.018, 1.024, 14:01:51.781
216, 68991.20, 24120.53, -187500.02, -187500.02, -187500.02, -180512.17, -187500.02, -187500.02, 0.000, 0.000, 0.000, 14:01:51.781
217, 66042.79, 21234.67, -187500.02, -187500.02, -187500.02, -180392.16, -187500.02, -187500.02, 0.000, 0.000, 0.000, 14:01:51.781
218, 65626.53, 20600.37, -187500.02, -187500.02, -187500.02, -180221.08, -187500.02, -187500.02, 0.000, 0.000, 0.000, 14:01:51.782
219, 69103.91, 24051.15, -187500.02, -187500.02, -187500.02, -180197.67, -187500.02, -187500.02, 0.000, 0.000, 0.000, 14:01:51.782
220, 69895.04, 24963.95, -187500.02, -187500.02, -187500.02, -180405.08, -187500.02, -187500.02, 0.000, 0.000, 0.000, 14:01:51.782
221, 68836.84, 23948.66, -187500.02, -187500.02, -187500.02, -180529.27, -187500.02, -187500.02, 0.000, 0.000, 0.000, 14:01:51.782
222, 65912.74, 21075.15, -187500.02, -187500.02, -187500.02, -180419.45, -187500.02, -187500.02, 0.000, 0.000, 0.000, 14:01:51.782
223, 65501.74, 20452.81, -187500.02, -187500.02, -187500.02, -180243.95, -187500.02, -187500.02, 0.000, 0.000, 0.000, 14:01:51.782
224, 69028.48, 23941.47, -187500.02, -187500.02, -187500.02, -180186.09, -187500.02, -187500.02, 0.000, 0.000, 0.000, 14:01:51.782
225, 69892.49, 24923.38, -187500.02, -187500.02, -187500.02, -180381.91, -187500.02, -187500.02, 0.010, -0.018, 1.032, 14:01:51.782
226, 68889.44, 23963.15, -187500.02, -187500.02, -187500.02, -180509.31, -187500.02, -187500.02, 0.000, 0.000, 0.000, 14:01:51.782
227, 65999.65, 21129.60, -187500.02, -187500.02, -187500.02, -180373.23, -187500.02, -187500.02, 0.000, 0.000, 0.000, 14:01:51.783
228, 65594.32, 20518.16, -187500.02, -187500.02, -187500.02, -180219.25, -187500.02, -187500.02, 0.000, 0.000, 0.000, 14:01:51.783
229, 69150.57, 24045.20, -187500.02, -187500.02, -187500.02, -180170.45, -187500.02, -187500.02, 0.000, 0.000, 0.000, 14:01:51.783
230, 70043.39, 25065.89, -187500.02, -187500.02, -187500.02, -180405.08, -187500.02, -187500.02, 0.000, 0.000, 0.000, 14:01:51.783
231, 69035.84, 24094.31, -187500.02, -187500.02, -187500.02, -180539.91, -187500.02, -187500.02, 0.000, 0.000, 0.000, 14:01:51.783
232, 66153.52, 21272.13, -187500.02, -187500.02, -187500.02, -180425.38, -187500.02, -187500.02, 0.000, 0.000, 0.000, 14:01:51.783
233, 65687.55, 20595.90, -187500.02, -187500.02, -187500.02, -180258.14, -187500.02, -187500.02, 0.000, 0.000, 0.000, 14:01:51.783
234, 69238.08, 24111.05, -187500.02, -187500.02, -187500.02, -180160.06, -187500.02, -187500.02, 0.000, 0.000, 0.000, 14:01:51.783
235, 70146.41, 25148.24, -187500.02, -187500.02, -187500.02, -180352.83, -187500.02, -187500.02, 0.008, -0.014, 1.034, 14:01:51.784
236, 69143.02, 24188.23, -187500.02, -187500.02, -187500.02, -180498.09, -187500.02, -187500.02, 0.000, 0.000, 0.000, 14:01:51.784
237, 66257.45, 21366.68, -187500.02, -187500.02, -187500.02, -180416.91, -187500.02, -187500.02, 0.000, 0.000, 0.000, 14:01:51.784
238, 65742.16, 20660.14, -187500.02, -187500.02, -187500.02, -180255.69, -187500.02, -187500.02, 0.000, 0.000, 0.000, 14:01:51.784
239, 69299.63, 24190.80, -187500.02, -187500.02, -187500.02, -180179.66, -187500.02, -187500.02, 0.000, 0.000, 0.000, 14:01:51.784
240, 70229.27, 25245.94, -187500.02, -187500.02, -187500.02, -180395.98, -187500.02, -187500.02, 0.000, 0.000, 0.000, 14:01:52.251
241, 69224.05, 24289.28, -187500.02, -187500.02, -187500.02, -180533.00, -187500.02, -187500.02, 0.000, 0.000, 0.000, 14:01:52.252
242, 66310.29, 21455.19, -187500.02, -187500.02, -187500.02, -180406.98, -187500.02, -187500.02, 0.000, 0.000, 0.000, 14:01:52.252
243, 65780.78, 20708.87, -187500.02, -187500.02, -187500.02, -180238.92, -187500.02, -187500.02, 0.000, 0.000, 0.000, 14:01:52.252
244, 69364.91, 24247.35, -187500.02, -187500.02, -187500.02, -180182.75, -187500.02, -187500.02, 0.000, 0.000, 0.000, 14:01:52.252
245, 70304.02, 25330.02, -187500.02, -187500.02, -187500.02, -180366.34, -187500.02, -187500.02, 0.004, -0.012, 1.036, 14:01:52.252
246, 69289.13, 24370.42, -187500.02, -187500.02, -187500.02, -180476.19, -187500.02, -187500.02, 0.000, 0.000, 0.000, 14:01:52.252
247, 66378.91, 21535.93, -187500.02, -187500.02, -187500.02, -180408.50, -187500.02, -187500.02, 0.000, 0.000, 0.000, 14:01:52.253
248, 65812.09, 20754.51, -187500.02, -187500.02, -187500.02, -180292.09, -187500.02, -187500.02, 0.000, 0.000, 0.000, 14:01:52.253
249, 69383.92, 24279.22, -187500.02, -187500.02, -187500.02, -180171.64, -187500.02, -187500.02, 0.000, 0.000, 0.000, 14:01:52.253
250, 70342.81, 25381.99, -187500.02, -187500.02, -187500.02, -180361.94, -187500.02, -187500.02, 0.000, 0.000, 0.000, 14:01:52.253
251, 69335.80, 24425.67, -187500.02, -187500.02, -187500.02, -180483.89, -187500.02, -187500.02, 0.000, 0.000, 0.000, 14:01:52.253
252, 66425.31, 21582.89, -187500.02, -187500.02, -187500.02, -180371.69, -187500.02, -187500.02, 0.000, 0.000, 0.000, 14:01:52.254
253, 65833.46, 20774.13, -187500.02, -187500.02, -187500.02, -180247.28, -187500.02, -187500.02, 0.000, 0.000, 0.000, 14:01:52.254
254, 69414.70, 24309.67, -187500.02, -187500.02, -187500.02, -180128.91, -187500.02, -187500.02, 0.000, 0.000, 0.000, 14:01:52.254
255, 70397.51, 25442.39, -187500.02, -187500.02, -187500.02, -180330.36, -187500.02, -187500.02, 0.004, -0.012, 1.024, 14:01:52.254
0, 69399.84, 24493.64, -187500.02, -187500.02, -187500.02, -180477.75, -187500.02, -187500.02, 0.000, 0.000, 0.000, 14:01:52.254
1, 66485.84, 21650.86, -187500.02, -187500.02, -187500.02, -180415.83, -187500.02, -187500.02, 0.000, 0.000, 0.000, 14:01:52.254
2, 65846.94, 20788.22, -187500.02, -187500.02, -187500.02, -180276.72, -187500.02, -187500.02, 0.000, 0.000, 0.000, 14:01:52.255
3, 69433.19, 24322.90, -187500.02, -187500.02, -187500.02, -180198.06, -187500.02, -187500.02, 0.000, 0.000, 0.000, 14:01:52.255
4, 70418.59, 25451.19, -187500.02, -187500.02, -187500.02, -180356.31, -187500.02, -187500.02, 0.000, 0.000, 0.000, 14:01:52.255
5, 69420.52, 24503.46, -187500.02, -187500.02, -187500.02, -180487.47, -187500.02, -187500.02, 0.000, 0.000, 0.000, 14:01:52.255
6, 66507.26, 21670.26, -187500.02, -187500.02, -187500.02, -180410.44, -187500.02, -187500.02, 0.000, 0.000, 0.000, 14:01:52.255
7, 65842.18, 20793.40, -187500.02, -187500.02, -187500.02, -180296.23, -187500.02, -187500.02, 0.000, 0.000, 0.000, 14:01:52.255
8, 69442.87, 24337.88, -187500.02, -187500.02, -187500.02, -180228.61, -187500.02, -187500.02, 0.002, -0.018, 1.028, 14:01:52.256
9, 70452.45, 25481.21, -187500.02, -187500.02, -187500.02, -180396.81, -187500.02, -187500.02, 0.000, 0.000, 0.000, 14:01:52.256
10, 69457.17, 24540.96, -187500.02, -187500.02, -187500.02, -180518.19, -187500.02, -187500.02, 0.000, 0.000, 0.000, 14:01:52.256
11, 66546.93, 21710.54, -187500.02, -187500.02, -187500.02, -180440.28, -187500.02, -187500.02, 0.000, 0.000, 0.000, 14:01:52.256
12, 65839.61, 20789.38, -187500.02, -187500.02, -187500.02, -180303.36, -187500.02, -187500.02, 0.000, 0.000, 0.000, 14:01:52.256
13, 69443.25, 24353.41, -187500.02, -187500.02, -187500.02, -180219.50, -187500.02, -187500.02, 0.000, 0.000, 0.000, 14:01:52.256
14, 70478.73, 25523.52, -187500.02, -187500.02, -187500.02, -180392.92, -187500.02, -187500.02, 0.000, 0.000, 0.000, 14:01:52.257
15, 69487.88, 24575.36, -187500.02, -187500.02, -187500.02, -180521.83, -187500.02, -187500.02, 0.000, 0.000, 0.000, 14:01:52.257
16, 66567.72, 21732.22, -187500.02, -187500.02, -187500.02, -180413.59, -187500.02, -187500.02, 0.000, 0.000, 0.000, 14:01:52.257
17, 65833.57, 20789.85, -187500.02, -187500.02, -187500.02, -180264.78, -187500.02, -187500.02, 0.000, 0.000, 0.000, 14:01:52.257
18, 69444.27, 24345.59, -187500.02, -187500.02, -187500.02, -180222.59, -187500.02, -187500.02, 0.008, -0.010, 1.026, 14:01:52.257
19, 70494.63, 25531.19, -187500.02, -187500.02, -187500.02, -180394.75, -187500.02, -187500.02, 0.000, 0.000, 0.000, 14:01:52.258
20, 69502.99, 24586.58, -187500.02, -187500.02, -187500.02, -180501.44, -187500.02, -187500.02, 0.000, 0.000, 0.000, 14:01:52.258
21, 66604.13, 21776.48, -187500.02, -187500.02, -187500.02, -180424.06, -187500.02, -187500.02, 0.000, 0.000, 0.000, 14:01:52.258
22, 65846.65, 20806.68, -187500.02, -187500.02, -187500.02, -180342.30, -187500.02, -187500.02, 0.000, 0.000, 0.000, 14:01:52.258
23, 69444.25, 24351.33, -187500.02, -187500.02, -187500.02, -180229.89, -187500.02, -187500.02, 0.000, 0.000, 0.000, 14:01:52.258
24, 70528.20, 25579.29, -187500.02, -187500.02, -187500.02, -180432.38, -187500.02, -187500.02, 0.000, 0.000, 0.000, 14:01:52.259
25, 69548.34, 24648.38, -187500.02, -187500.02, -187500.02, -180609.69, -187500.02, -187500.02, 0.000, 0.000, 0.000, 14:01:52.259
26, 66633.52, 21811.46, -187500.02, -187500.02, -187500.02, -180535.72, -187500.02, -187500.02, 0.000, 0.000, 0.000, 14:01:52.259
27, 65828.10, 20792.22, -187500.02, -187500.02, -187500.02, -180382.03, -187500.02, -187500.02, 0.000, 0.000, 0.000, 14:01:52.259
28, 69424.63, 24327.37, -187500.02, -187500.02, -187500.02, -180235.16, -187500.02, -187500.02, 0.010, -0.016, 1.028, 14:01:52.259
29, 70532.67, 25570.82, -187500.02, -187500.02, -187500.02, -180433.25, -187500.02, -187500.02, 0.000, 0.000, 0.000, 14:01:52.259
30, 69564.13, 24648.88, -187500.02, -187500.02, -187500.02, -180617.44, -187500.02, -187500.02, 0.000, 0.000, 0.000, 14:01:52.260
31, 66660.84, 21833.34, -187500.02, -187500.02, -187500.02, -180550.86, -187500.02, -187500.02, 0.000, 0.000, 0.000, 14:01:52.260
32, 65826.63, 20798.79, -187500.02, -187500.02, -187500.02, -180405.30, -187500.02, -187500.02, 0.000, 0.000, 0.000, 14:01:52.260
33, 69423.82, 24330.90, -187500.02, -187500.02, -187500.02, -180304.61, -187500.02, -187500.02, 0.000, 0.000, 0.000, 14:01:52.260
34, 70528.05, 25572.50, -187500.02, -187500.02, -187500.02, -180490.02, -187500.02, -187500.02, 0.000, 0.000, 0.000, 14:01:52.260
35, 69551.09, 24647.33, -187500.02, -187500.02, -187500.02, -180593.08, -187500.02, -187500.02, 0.000, 0.000, 0.000, 14:01:52.261
36, 66669.69, 21849.12, -187500.02, -187500.02, -187500.02, -180509.55, -187500.02, -187500.02, 0.000, 0.000, 0.000, 14:01:52.261
37, 65814.62, 20791.66, -187500.02, -187500.02, -187500.02, -180395.05, -187500.02, -187500.02, 0.000, 0.000, 0.000, 14:01:52.261
38, 69405.83, 24321.80, -187500.02, -187500.02, -187500.02, -180335.64, -187500.02, -187500.02, 0.012, -0.014, 1.030, 14:01:52.261
39, 70526.32, 25590.69, -187500.02, -187500.02, -187500.02, -180523.95, -187500.02, -187500.02, 0.000, 0.000, 0.000, 14:01:52.261
40, 69562.09, 24681.87, -187500.02, -187500.02, -187500.02, -180655.94, -187500.02, -187500.02, 0.000, 0.000, 0.000, 14:01:52.261
41, 66676.81, 21877.80, -187500.02, -187500.02, -187500.02, -180548.47, -187500.02, -187500.02, 0.000, 0.000, 0.000, 14:01:52.261
42, 65791.33, 20782.79, -187500.02, -187500.02, -187500.02, -180394.23, -187500.02, -187500.02, 0.000, 0.000, 0.000, 14:01:52.261
43, 69387.52, 24304.79, -187500.02, -187500.02, -187500.02, -180313.22, -187500.02, -187500.02, 0.000, 0.000, 0.000, 14:01:52.262
44, 70527.09, 25591.76, -187500.02, -187500.02, -187500.02, -180457.83, -187500.02, -187500.02, 0.000, 0.000, 0.000, 14:01:52.262
45, 69569.94, 24686.07, -187500.02, -187500.02, -187500.02, -180583.56, -187500.02, -187500.02, 0.000, 0.000, 0.000, 14:01:52.262
46, 66705.00, 21899.28, -187500.02, -187500.02, -187500.02, -180525.33, -187500.02, -187500.02, 0.000, 0.000, 0.000, 14:01:52.262
47, 65796.13, 20780.28, -187500.02, -187500.02, -187500.02, -180404.13, -187500.02, -187500.02, 0.000, 0.000, 0.000, 14:01:52.262
48, 69387.37, 24302.02, -187500.02, -187500.02, -187500.02, -180308.08, -187500.02, -187500.02, 0.006, -0.006, 1.032, 14:01:52.262
49, 70572.48, 25628.53, -187500.02, -187500.02, -187500.02, -180516.84, -187500.02, -187500.02, 0.000, 0.000, 0.000, 14:01:52.262
50, 69631.34, 24731.51, -187500.02, -187500.02, -187500.02, -180718.03, -187500.02, -187500.02, 0.000, 0.000, 0.000, 14:01:52.262
51, 66749.77, 21941.99, -187500.02, -187500.02, -187500.02, -180631.81, -187500.02, -187500.02, 0.000, 0.000, 0.000, 14:01:52.262
52, 65806.64, 20795.30, -187500.02, -187500.02, -187500.02, -180493.75, -187500.02, -187500.02, 0.000, 0.000, 0.000, 14:01:52.263
53, 69395.84, 24310.61, -187500.02, -187500.02, -187500.02, -180423.36, -187500.02, -187500.02, 0.000, 0.000, 0.000, 14:01:52.263
54, 70573.46, 25627.26, -187500.02, -187500.02, -187500.02, -180571.89, -187500.02, -187500.02, 0.000, 0.000, 0.000, 14:01:52.263
55, 69629.46, 24729.57, -187500.02, -187500.02, -187500.02, -180690.25, -187500.02, -187500.02, 0.000, 0.000, 0.000, 14:01:52.263
56, 66773.80, 21957.88, -187500.02, -187500.02, -187500.02, -180601.94, -187500.02, -187500.02, 0.000, 0.000, 0.000, 14:01:52.263
57, 65806.06, 20790.68, -187500.02, -187500.02, -187500.02, -180461.31, -187500.02, -187500.02, 0.000, 0.000, 0.000, 14:01:52.263
58, 69386.14, 24288.10, -187500.02, -187500.02, -187500.02, -180341.59, -187500.02, -187500.02, 0.004, -0.014, 1.024, 14:01:52.263
59, 70593.13, 25643.20, -187500.02, -187500.02, -187500.02, -180542.72, -187500.02, -187500.02, 0.000, 0.000, 0.000, 14:01:52.263
60, 69653.60, 24762.56, -187500.02, -187500.02, -187500.02, -180714.14, -187500.02, -187500.02, 0.000, 0.000, 0.000, 14:01:52.264
61, 66793.27, 21993.00, -187500.02, -187500.02, -187500.02, -180613.36, -187500.02, -187500.02, 0.000, 0.000, 0.000, 14:01:52.264
62, 65798.10, 20782.38, -187500.02, -187500.02, -187500.02, -180476.05, -187500.02, -187500.02, 0.000, 0.000, 0.000, 14:01:52.264
63, 69373.40, 24279.54, -187500.02, -187500.02, -187500.02, -180366.41, -187500.02, -187500.02, 0.000, 0.000, 0.000, 14:01:52.264
64, 70600.28, 25651.17, -187500.02, -187500.02, -187500.02, -180533.95, -187500.02, -187500.02, 0.000, 0.000, 0.000, 14:01:52.264
65, 69676.45, 24775.86, -187500.02, -187500.02, -187500.02, -180712.34, -187500.02, -187500.02, 0.000, 0.000, 0.000, 14:01:52.264
66, 66822.23, 22009.05, -187500.02, -187500.02, -187500.02, -180604.22, -187500.02, -187500.02, 0.000, 0.000, 0.000, 14:01:52.264
67, 65795.64, 20775.52, -187500.02, -187500.02, -187500.02, -180439.50, -187500.02, -187500.02, 0.000, 0.000, 0.000, 14:01:52.264
68, 69377.04, 24273.41, -187500.02, -187500.02, -187500.02, -180331.59, -187500.02, -187500.02, 0.006, -0.014, 1.018, 14:01:52.265
69, 70627.89, 25673.10, -187500.02, -187500.02, -187500.02, -180547.55, -187500.02, -187500.02, 0.000, 0.000, 0.000, 14:01:52.265
70, 69695.71, 24796.26, -187500.02, -187500.02, -187500.02, -180715.95, -187500.02, -187500.02, 0.000, 0.000, 0.000, 14:01:52.265
71, 66851.18, 22045.59, -187500.02, -187500.02, -187500.02, -180646.64, -187500.02, -187500.02, 0.000, 0.000, 0.000, 14:01:52.265
72, 65796.38, 20786.70, -187500.02, -187500.02, -187500.02, -180508.56, -187500.02, -187500.02, 0.000, 0.000, 0.000, 14:01:52.265
73, 69362.96, 24257.07, -187500.02, -187500.02, -187500.02, -180413.48, -187500.02, -187500.02, 0.000, 0.000, 0.000, 14:01:52.265
74, 70622.52, 25661.95, -187500.02, -187500.02, -187500.02, -180593.47, -187500.02, -187500.02, 0.000, 0.000, 0.000, 14:01:52.265
75, 69708.36, 24797.87, -187500.02, -187500.02, -187500.02, -180755.88, -187500.02, -187500.02, 0.000, 0.000, 0.000, 14:01:52.265
76, 66871.55, 22048.56, -187500.02, -187500.02, -187500.02, -180653.19, -187500.02, -187500.02, 0.000, 0.000, 0.000, 14:01:52.266
77, 65787.82, 20765.28, -187500.02, -187500.02, -187500.02, -180507.67, -187500.02, -187500.02, 0.000, 0.000, 0.000, 14:01:52.266
78, 69354.87, 24244.76, -187500.02, -187500.02, -187500.02, -180365.88, -187500.02, -187500.02, 0.008, -0.016, 1.024, 14:01:52.266
79, 70648.12, 25687.63, -187500.02, -187500.02, -187500.02, -180540.78, -187500.02, -187500.02, 0.000, 0.000, 0.000, 14:01:52.266
80, 69727.05, 24819.80, -187500.02, -187500.02, -187500.02, -180694.88, -187500.02, -187500.02, 0.000, 0.000, 0.000, 14:01:52.267
81, 66901.38, 22084.17, -187500.02, -187500.02, -187500.02, -180614.94, -187500.02, -187500.02, 0.000, 0.000, 0.000, 14:01:52.267
82, 65793.20, 20764.57, -187500.02, -187500.02, -187500.02, -180536.63, -187500.02, -187500.02, 0.000, 0.000, 0.000, 14:01:52.267
83, 69349.64, 24230.34, -187500.02, -187500.02, -187500.02, -180413.17, -187500.02, -187500.02, 0.000, 0.000, 0.000, 14:01:52.268
84, 70655.80, 25686.04, -187500.02, -187500.02, -187500.02, -180606.06, -187500.02, -187500.02, 0.000, 0.000, 0.000, 14:01:52.268
85, 69742.05, 24829.12, -187500.02, -187500.02, -187500.02, -180774.89, -187500.02, -187500.02, 0.000, 0.000, 0.000, 14:01:52.268
86, 66916.41, 22095.37, -187500.02, -187500.02, -187500.02, -180703.98, -187500.02, -187500.02, 0.000, 0.000, 0.000, 14:01:52.268
87, 65771.23, 20753.66, -187500.02, -187500.02, -187500.02, -180543.02, -187500.02, -187500.02, 0.000, 0.000, 0.000, 14:01:52.268
88, 69333.57, 24216.97, -187500.02, -187500.02, -187500.02, -180404.91, -187500.02, -187500.02, 0.004, -0.018, 1.024, 14:01:52.268
89, 70664.28, 25688.88, -187500.02, -187500.02, -187500.02, -180588.81, -187500.02, -187500.02, 0.000, 0.000, 0.000, 14:01:52.268
90, 69768.48, 24844.61, -187500.02, -187500.02, -187500.02, -180775.89, -187500.02, -187500.02, 0.000, 0.000, 0.000, 14:01:52.268
91, 66945.33, 22118.28, -187500.02, -187500.02, -187500.02, -180692.56, -187500.02, -187500.02, 0.000, 0.000, 0.000, 14:01:52.269
92, 65781.27, 20748.14, -187500.02, -187500.02, -187500.02, -180556.84, -187500.02, -187500.02, 0.000, 0.000, 0.000, 14:01:52.269
93, 69337.12, 24217.33, -187500.02, -187500.02, -187500.02, -180429.42, -187500.02, -187500.02, 0.000, 0.000, 0.000, 14:01:52.269
94, 70686.14, 25717.36, -187500.02, -187500.02, -187500.02, -180574.28, -187500.02, -187500.02, 0.000, 0.000, 0.000, 14:01:52.269
95, 69793.27, 24875.75, -187500.02, -187500.02, -187500.02, -180756.58, -187500.02, -187500.02, 0.000, 0.000, 0.000, 14:01:52.269
96, 66984.27, 22153.64, -187500.02, -187500.02, -187500.02, -180721.06, -187500.02, -187500.02, 0.000, 0.000, 0.000, 14:01:52.269
97, 65787.09, 20749.46, -187500.02, -187500.02, -187500.02, -180637.00, -187500.02, -187500.02, 0.000, 0.000, 0.000, 14:01:52.269
98, 69319.58, 24180.88, -187500.02, -187500.02, -187500.02, -180498.56, -187500.02, -187500.02, 0.002, -0.014, 1.028, 14:01:52.269
99, 70672.95, 25681.44, -187500.02, -187500.02, -187500.02, -180653.98, -187500.02, -187500.02, 0.000, 0.000, 0.000, 14:01:52.270
100, 69781.49, 24840.57, -187500.02, -187500.02, -187500.02, -180841.97, -187500.02, -187500.02, 0.000, 0.000, 0.000, 14:01:52.270
101, 66967.10, 22119.29, -187500.02, -187500.02, -187500.02, -180758.16, -187500.02, -187500.02, 0.000, 0.000, 0.000, 14:01:52.270
102, 65736.34, 20685.13, -187500.02, -187500.02, -187500.02, -180588.77, -187500.02, -187500.02, 0.000, 0.000, 0.000, 14:01:52.270
103, 69285.47, 24135.93, -187500.02, -187500.02, -187500.02, -180467.44, -187500.02, -187500.02, 0.000, 0.000, 0.000, 14:01:52.270
104, 70663.92, 25661.75, -187500.02, -187500.02, -187500.02, -180662.19, -187500.02, -187500.02, 0.000, 0.000, 0.000, 14:01:52.732
105, 69772.31, 24831.31, -187500.02, -187500.02, -187500.02, -180863.09, -187500.02, -187500.02, 0.000, 0.000, 0.000, 14:01:52.733
106, 66982.70, 22128.16, -187500.02, -187500.02, -187500.02, -180797.52, -187500.02, -187500.02, 0.000, 0.000, 0.000, 14:01:52.733
107, 65728.99, 20669.13, -187500.02, -187500.02, -187500.02, -180655.64, -187500.02, -187500.02, 0.000, 0.000, 0.000, 14:01:52.733
108, 69274.06, 24116.19, -187500.02, -187500.02, -187500.02, -180547.03, -187500.02, -187500.02, 0.006, -0.012, 1.022, 14:01:52.733
109, 70668.88, 25664.81, -187500.02, -187500.02, -187500.02, -180716.27, -187500.02, -187500.02, 0.000, 0.000, 0.000, 14:01:52.733
110, 69790.16, 24840.14, -187500.02, -187500.02, -187500.02, -180883.83, -187500.02, -187500.02, 0.000, 0.000, 0.000, 14:01:52.733
111, 67004.23, 22147.74, -187500.02, -187500.02, -187500.02, -180785.17, -187500.02, -187500.02, 0.000, 0.000, 0.000, 14:01:52.733
112, 65733.41, 20674.67, -187500.02, -187500.02, -187500.02, -180650.02, -187500.02, -187500.02, 0.000, 0.000, 0.000, 14:01:52.733
113, 69259.16, 24094.42, -187500.02, -187500.02, -187500.02, -180539.84, -187500.02, -187500.02, 0.000, 0.000, 0.000, 14:01:52.734
114, 70674.07, 25663.13, -187500.02, -187500.02, -187500.02, -180706.06, -187500.02, -187500.02, 0.000, 0.000, 0.000, 14:01:52.734
115, 69795.13, 24836.54, -187500.02, -187500.02, -187500.02, -180859.45, -187500.02, -187500.02, 0.000, 0.000, 0.000, 14:01:52.734
116, 67030.24, 22171.19, -187500.02, -187500.02, -187500.02, -180783.61, -187500.02, -187500.02, 0.000, 0.000, 0.000, 14:01:52.734
117, 65736.37, 20679.41, -187500.02, -187500.02, -187500.02, -180674.73, -187500.02, -187500.02, 0.000, 0.000, 0.000, 14:01:52.734
118, 69258.40, 24095.83, -187500.02, -187500.02, -187500.02, -180573.28, -187500.02, -187500.02, 0.006, -0.012, 1.024, 14:01:52.734
119, 70683.32, 25668.38, -187500.02, -187500.02, -187500.02, -180717.31, -187500.02, -187500.02, 0.000, 0.000, 0.000, 14:01:52.734
120, 69816.03, 24846.85, -187500.02, -187500.02, -187500.02, -180868.48, -187500.02, -187500.02, 0.000, 0.000, 0.000, 14:01:52.734
121, 67059.84, 22195.24, -187500.02, -187500.02, -187500.02, -180814.63, -187500.02, -187500.02, 0.000, 0.000, 0.000, 14:01:52.735
122, 65728.23, 20682.13, -187500.02, -187500.02, -187500.02, -180684.83, -187500.02, -187500.02, 0.000, 0.000, 0.000, 14:01:52.735
123, 69242.15, 24092.12, -187500.02, -187500.02, -187500.02, -180550.92, -187500.02, -187500.02, 0.000, 0.000, 0.000, 14:01:52.735
124, 70702.12, 25700.37, -187500.02, -187500.02, -187500.02, -180734.33, -187500.02, -187500.02, 0.000, 0.000, 0.000, 14:01:52.735
125, 69848.80, 24897.36, -187500.02, -187500.02, -187500.02, -180913.83, -187500.02, -187500.02, 0.000, 0.000, 0.000, 14:01:52.735
126, 67095.38, 22236.05, -187500.02, -187500.02, -187500.02, -180842.22, -187500.02, -187500.02, 0.000, 0.000, 0.000, 14:01:52.735
127, 65738.22, 20682.07, -187500.02, -187500.02, -187500.02, -180727.69, -187500.02, -187500.02, 0.006, -0.014, 1.032, 14:01:52.735
128, 69242.53, 24077.95, -187500.02, -187500.02, -187500.02, -180603.08, -187500.02, -187500.02, 0.000, 0.000, 0.000, 14:01:52.735
129, 70717.43, 25702.34, -187500.02, -187500.02, -187500.02, -180761.20, -187500.02, -187500.02, 0.000, 0.000, 0.000, 14:01:52.736
130, 69869.31, 24910.13, -187500.02, -187500.02, -187500.02, -180942.48, -187500.02, -187500.02, 0.000, 0.000, 0.000, 14:01:52.736
131, 67128.45, 22264.73, -187500.02, -187500.02, -187500.02, -180861.64, -187500.02, -187500.02, 0.000, 0.000, 0.000, 14:01:52.736
132, 65739.95, 20691.81, -187500.02, -187500.02, -187500.02, -180719.56, -187500.02, -187500.02, 0.000, 0.000, 0.000, 14:01:52.736
133, 69238.04, 24082.17, -187500.02, -187500.02, -187500.02, -180634.92, -187500.02, -187500.02, 0.000, 0.000, 0.000, 14:01:52.736
134, 70722.95, 25714.92, -187500.02, -187500.02, -187500.02, -180780.92, -187500.02, -187500.02, 0.000, 0.000, 0.000, 14:01:52.736
135, 69862.99, 24898.26, -187500.02, -187500.02, -187500.02, -180890.81, -187500.02, -187500.02, 0.000, 0.000, 0.000, 14:01:52.736
136, 67139.41, 22266.96, -187500.02, -187500.02, -187500.02, -180818.09, -187500.02, -187500.02, 0.000, 0.000, 0.000, 14:01:52.736
137, 65731.43, 20671.65, -187500.02, -187500.02, -187500.02, -180684.17, -187500.02, -187500.02, 0.008, -0.008, 1.032, 14:01:52.736
138, 69219.35, 24056.47, -187500.02, -187500.02, -187500.02, -180563.02, -187500.02, -187500.02, 0.000, 0.000, 0.000, 14:01:52.737
139, 70725.37, 25715.64, -187500.02, -187500.02, -187500.02, -180715.50, -187500.02, -187500.02, 0.000, 0.000, 0.000, 14:01:52.737
140, 69885.99, 24929.10, -187500.02, -187500.02, -187500.02, -180902.25, -187500.02, -187500.02, 0.000, 0.000, 0.000, 14:01:52.737
141, 67162.09, 22299.40, -187500.02, -187500.02, -187500.02, -180843.17, -187500.02, -187500.02, 0.000, 0.000, 0.000, 14:01:52.737
142, 65715.31, 20664.05, -187500.02, -187500.02, -187500.02, -180724.52, -187500.02, -187500.02, 0.000, 0.000, 0.000, 14:01:52.737
143, 69190.74, 24033.31, -187500.02, -187500.02, -187500.02, -180602.95, -187500.02, -187500.02, 0.000, 0.000, 0.000, 14:01:52.737
144, 70712.24, 25696.32, -187500.02, -187500.02, -187500.02, -180741.11, -187500.02, -187500.02, 0.000, 0.000, 0.000, 14:01:52.737
145, 69880.73, 24915.51, -187500.02, -187500.02, -187500.02, -180897.27, -187500.02, -187500.02, 0.000, 0.000, 0.000, 14:01:52.737
146, 67176.20, 22307.35, -187500.02, -187500.02, -187500.02, -180825.97, -187500.02, -187500.02, 0.000, 0.000, 0.000, 14:01:52.738
147, 65707.53, 20646.04, -187500.02, -187500.02, -187500.02, -180669.72, -187500.02, -187500.02, 0.006, -0.010, 1.032, 14:01:52.738
148, 69175.48, 24000.90, -187500.02, -187500.02, -187500.02, -180551.11, -187500.02, -187500.02, 0.000, 0.000, 0.000, 14:01:52.738
149, 70741.44, 25728.36, -187500.02, -187500.02, -187500.02, -180756.70, -187500.02, -187500.02, 0.000, 0.000, 0.000, 14:01:52.738
150, 69921.35, 24963.93, -187500.02, -187500.02, -187500.02, -180965.39, -187500.02, -187500.02, 0.000, 0.000, 0.000, 14:01:52.738
151, 67220.63, 22356.33, -187500.02, -187500.02, -187500.02, -180900.47, -187500.02, -187500.02, 0.000, 0.000, 0.000, 14:01:52.738
152, 65728.95, 20680.35, -187500.02, -187500.02, -187500.02, -180789.84, -187500.02, -187500.02, 0.000, 0.000, 0.000, 14:01:52.738
153, 69179.95, 24021.84, -187500.02, -187500.02, -187500.02, -180671.89, -187500.02, -187500.02, 0.000, 0.000, 0.000, 14:01:52.738
154, 70742.93, 25727.28, -187500.02, -187500.02, -187500.02, -180806.97, -187500.02, -187500.02, 0.000, 0.000, 0.000, 14:01:52.738
155, 69917.33, 24958.83, -187500.02, -187500.02, -187500.02, -180989.05, -187500.02, -187500.02, 0.000, 0.000, 0.000, 14:01:52.739
156, 67220.81, 22365.40, -187500.02, -187500.02, -187500.02, -180909.41, -187500.02, -187500.02, 0.000, 0.000, 0.000, 14:01:52.739
157, 65700.00, 20659.58, -187500.02, -187500.02, -187500.02, -180772.56, -187500.02, -187500.02, 0.004, -0.016, 1.028, 14:01:52.739
158, 69157.26, 24001.15, -187500.02, -187500.02, -187500.02, -180660.81, -187500.02, -187500.02, 0.000, 0.000, 0.000, 14:01:52.739
159, 70742.02, 25730.95, -187500.02, -187500.02, -187500.02, -180801.11, -187500.02, -187500.02, 0.000, 0.000, 0.000, 14:01:52.739
160, 69932.77, 24971.30, -187500.02, -187500.02, -187500.02, -180995.19, -187500.02, -187500.02, 0.000, 0.000, 0.000, 14:01:52.739
161, 67256.35, 22389.96, -187500.02, -187500.02, -187500.02, -180935.67, -187500.02, -187500.02, 0.000, 0.000, 0.000, 14:01:52.739
162, 65708.41, 20669.02, -187500.02, -187500.02, -187500.02, -180778.72, -187500.02, -187500.02, 0.000, 0.000, 0.000, 14:01:52.739
163, 69148.05, 23990.78, -187500.02, -187500.02, -187500.02, -180642.34, -187500.02, -187500.02, 0.000, 0.000, 0.000, 14:01:52.740
164, 70754.53, 25751.42, -187500.02, -187500.02, -187500.02, -180803.23, -187500.02, -187500.02, 0.000, 0.000, 0.000, 14:01:52.740
165, 69946.85, 24989.94, -187500.02, -187500.02, -187500.02, -180976.06, -187500.02, -187500.02, 0.000, 0.000, 0.000, 14:01:52.740
166, 67275.42, 22424.79, -187500.02, -187500.02, -187500.02, -180886.67, -187500.02, -187500.02, 0.000, 0.000, 0.000, 14:01:52.740
167, 65708.27, 20678.71, -187500.02, -187500.02, -187500.02, -180768.36, -187500.02, -187500.02, 0.008, -0.016, 1.022, 14:01:52.740
168, 69138.88, 23981.95, -187500.02, -187500.02, -187500.02, -180671.63, -187500.02, -187500.02, 0.000, 0.000, 0.000, 14:01:52.740
169, 70757.59, 25754.04, -187500.02, -187500.02, -187500.02, -180807.33, -187500.02, -187500.02, 0.000, 0.000, 0.000, 14:01:52.740
170, 69958.34, 25010.51, -187500.02, -187500.02, -187500.02, -181004.02, -187500.02, -187500.02, 0.000, 0.000, 0.000, 14:01:52.740
171, 67301.46, 22444.23, -187500.02, -187500.02, -187500.02, -180957.69, -187500.02, -187500.02, 0.000, 0.000, 0.000, 14:01:52.740
172, 65702.86, 20668.14, -187500.02, -187500.02, -187500.02, -180819.30, -187500.02, -187500.02, 0.000, 0.000, 0.000, 14:01:52.741
173, 69113.40, 23954.68, -187500.02, -187500.02, -187500.02, -180682.72, -187500.02, -187500.02, 0.000, 0.000, 0.000, 14:01:52.741
174, 70765.66, 25748.94, -187500.02, -187500.02, -187500.02, -180838.38, -187500.02, -187500.02, 0.000, 0.000, 0.000, 14:01:52.741
175, 69975.17, 25015.24, -187500.02, -187500.02, -187500.02, -181036.42, -187500.02, -187500.02, 0.000, 0.000, 0.000, 14:01:52.741
176, 67327.43, 22461.92, -187500.02, -187500.02, -187500.02, -180968.23, -187500.02, -187500.02, 0.000, 0.000, 0.000, 14:01:52.741
177, 65701.84, 20648.96, -187500.02, -187500.02, -187500.02, -180816.78, -187500.02, -187500.02, 0.012, -0.016, 1.024, 14:01:52.741
178, 69104.20, 23937.35, -187500.02, -187500.02, -187500.02, -180684.28, -187500.02, -187500.02, 0.000, 0.000, 0.000, 14:01:52.741
179, 70769.69, 25755.74, -187500.02, -187500.02, -187500.02, -180846.53, -187500.02, -187500.02, 0.000, 0.000, 0.000, 14:01:52.742
180, 69982.80, 25022.67, -187500.02, -187500.02, -187500.02, -181023.39, -187500.02, -187500.02, 0.000, 0.000, 0.000, 14:01:52.742
181, 67351.26, 22486.03, -187500.02, -187500.02, -187500.02, -180949.81, -187500.02, -187500.02, 0.000, 0.000, 0.000, 14:01:52.742
182, 65710.59, 20661.39, -187500.02, -187500.02, -187500.02, -180829.05, -187500.02, -187500.02, 0.000, 0.000, 0.000, 14:01:52.742
183, 69105.38, 23925.91, -187500.02, -187500.02, -187500.02, -180742.66, -187500.02, -187500.02, 0.000, 0.000, 0.000, 14:01:52.742
184, 70773.76, 25743.64, -187500.02, -187500.02, -187500.02, -180865.44, -187500.02, -187500.02, 0.000, 0.000, 0.000, 14:01:52.742
185, 69994.35, 25023.85, -187500.02, -187500.02, -187500.02, -181018.03, -187500.02, -187500.02, 0.000, 0.000, 0.000, 14:01:52.742
186, 67372.31, 22502.75, -187500.02, -187500.02, -187500.02, -180941.81, -187500.02, -187500.02, 0.000, 0.000, 0.000, 14:01:52.743
187, 65703.33, 20655.11, -187500.02, -187500.02, -187500.02, -180799.86, -187500.02, -187500.02, 0.010, -0.020, 1.024, 14:01:52.743
188, 69079.36, 23903.13, -187500.02, -187500.02, -187500.02, -180667.67, -187500.02, -187500.02, 0.000, 0.000, 0.000, 14:01:52.743
189, 70781.47, 25761.48, -187500.02, -187500.02, -187500.02, -180825.88, -187500.02, -187500.02, 0.000, 0.000, 0.000, 14:01:52.743
190, 70012.73, 25047.45, -187500.02, -187500.02, -187500.02, -181045.23, -187500.02, -187500.02, 0.000, 0.000, 0.000, 14:01:52.743
191, 67402.31, 22527.09, -187500.02, -187500.02, -187500.02, -180989.02, -187500.02, -187500.02, 0.000, 0.000, 0.000, 14:01:52.743
192, 65703.71, 20660.14, -187500.02, -187500.02, -187500.02, -180848.38, -187500.02, -187500.02, 0.000, 0.000, 0.000, 14:01:52.743
193, 69071.13, 23893.37, -187500.02, -187500.02, -187500.02, -180696.88, -187500.02, -187500.02, 0.000, 0.000, 0.000, 14:01:52.743
194, 70789.07, 25757.43, -187500.02, -187500.02, -187500.02, -180810.88, -187500.02, -187500.02, 0.000, 0.000, 0.000, 14:01:52.744
195, 70034.74, 25057.15, -187500.02, -187500.02, -187500.02, -181007.69, -187500.02, -187500.02, 0.000, 0.000, 0.000, 14:01:52.744
196, 67442.05, 22565.16, -187500.02, -187500.02, -187500.02, -180966.20, -187500.02, -187500.02, 0.000, 0.000, 0.000, 14:01:52.744
197, 65713.55, 20667.23, -187500.02, -187500.02, -187500.02, -180827.11, -187500.02, -187500.02, 0.012, -0.020, 1.028, 14:01:52.744
198, 69059.27, 23875.73, -187500.02, -187500.02, -187500.02, -180660.88, -187500.02, -187500.02, 0.000, 0.000, 0.000, 14:01:52.744
199, 70818.05, 25779.83, -187500.02, -187500.02, -187500.02, -180835.63, -187500.02, -187500.02, 0.000, 0.000, 0.000, 14:01:52.744
200, 70058.59, 25077.52, -187500.02, -187500.02, -187500.02, -181080.55, -187500.02, -187500.02, 0.000, 0.000, 0.000, 14:01:52.744
201, 67457.65, 22577.65, -187500.02, -187500.02, -187500.02, -181014.72, -187500.02, -187500.02, 0.000, 0.000, 0.000, 14:01:52.744
202, 65708.12, 20658.89, -187500.02, -187500.02, -187500.02, -180872.50, -187500.02, -187500.02, 0.000, 0.000, 0.000, 14:01:52.745
203, 69039.69, 23856.11, -187500.02, -187500.02, -187500.02, -180715.59, -187500.02, -187500.02, 0.000, 0.000, 0.000, 14:01:52.745
204, 70793.25, 25759.80, -187500.02, -187500.02, -187500.02, -180839.69, -187500.02, -187500.02, 0.000, 0.000, 0.000, 14:01:52.745
205, 70044.51, 25066.54, -187500.02, -187500.02, -187500.02, -181045.56, -187500.02, -187500.02, 0.000, 0.000, 0.000, 14:01:52.745
206, 67471.48, 22592.32, -187500.02, -187500.02, -187500.02, -180987.91, -187500.02, -187500.02, 0.000, 0.000, 0.000, 14:01:52.745
207, 65702.64, 20657.06, -187500.02, -187500.02, -187500.02, -180860.52, -187500.02, -187500.02, 0.012, -0.016, 1.024, 14:01:52.745
208, 69017.31, 23833.93, -187500.02, -187500.02, -187500.02, -180717.30, -187500.02, -187500.02, 0.000, 0.000, 0.000, 14:01:52.745
209, 70806.66, 25768.56, -187500.02, -187500.02, -187500.02, -180885.22, -187500.02, -187500.02, 0.000, 0.000, 0.000, 14:01:52.745
210, 70060.67, 25085.41, -187500.02, -187500.02, -187500.02, -181092.59, -187500.02, -187500.02, 0.000, 0.000, 0.000, 14:01:52.746
211, 67491.47, 22615.34, -187500.02, -187500.02, -187500.02, -181006.77, -187500.02, -187500.02, 0.000, 0.000, 0.000, 14:01:52.746
212, 65701.25, 20655.36, -187500.02, -187500.02, -187500.02, -180866.44, -187500.02, -187500.02, 0.000, 0.000, 0.000, 14:01:52.746
213, 69027.05, 23847.54, -187500.02, -187500.02, -187500.02, -180766.55, -187500.02, -187500.02, 0.000, 0.000, 0.000, 14:01:52.746
214, 70823.09, 25791.23, -187500.02, -187500.02, -187500.02, -180899.39, -187500.02, -187500.02, 0.000, 0.000, 0.000, 14:01:52.746
215, 70084.54, 25116.74, -187500.02, -187500.02, -187500.02, -181087.75, -187500.02, -187500.02, 0.000, 0.000, 0.000, 14:01:52.746
216, 67525.22, 22653.63, -187500.02, -187500.02, -187500.02, -181000.48, -187500.02, -187500.02, 0.000, 0.000, 0.000, 14:01:52.746
217, 65700.45, 20662.09, -187500.02, -187500.02, -187500.02, -180866.42, -187500.02, -187500.02, 0.008, -0.016, 1.026, 14:01:52.746
218, 69005.55, 23831.85, -187500.02, -187500.02, -187500.02, -180731.78, -187500.02, -187500.02, 0.000, 0.000, 0.000, 14:01:52.747
219, 70834.82, 25809.65, -187500.02, -187500.02, -187500.02, -180885.00, -187500.02, -187500.02, 0.000, 0.000, 0.000, 14:01:52.747
220, 70109.95, 25139.77, -187500.02, -187500.02, -187500.02, -181125.88, -187500.02, -187500.02, 0.000, 0.000, 0.000, 14:01:52.747
221, 67568.16, 22684.70, -187500.02, -187500.02, -187500.02, -181096.75, -187500.02, -187500.02, 0.000, 0.000, 0.000, 14:01:52.747
222, 65701.90, 20658.76, -187500.02, -187500.02, -187500.02, -180943.28, -187500.02, -187500.02, 0.000, 0.000, 0.000, 14:01:52.747
223, 68999.48, 23818.09, -187500.02, -187500.02, -187500.02, -180807.61, -187500.02, -187500.02, 0.000, 0.000, 0.000, 14:01:52.747
224, 70842.91, 25818.46, -187500.02, -187500.02, -187500.02, -180937.16, -187500.02, -187500.02, 0.000, 0.000, 0.000, 14:01:52.747
225, 70114.98, 25152.60, -187500.02, -187500.02, -187500.02, -181124.84, -187500.02, -187500.02, 0.000, 0.000, 0.000, 14:01:53.213
226, 67575.67, 22708.77, -187500.02, -187500.02, -187500.02, -181068.77, -187500.02, -187500.02, 0.000, 0.000, 0.000, 14:01:53.213
227, 65696.87, 20664.48, -187500.02, -187500.02, -187500.02, -180911.80, -187500.02, -187500.02, 0.004, -0.016, 1.032, 14:01:53.213
228, 68986.16, 23805.79, -187500.02, -187500.02, -187500.02, -180805.88, -187500.02, -187500.02, 0.000, 0.000, 0.000, 14:01:53.213
229, 70854.89, 25819.79, -187500.02, -187500.02, -187500.02, -180933.70, -187500.02, -187500.02, 0.000, 0.000, 0.000, 14:01:53.213
230, 70127.41, 25148.44, -187500.02, -187500.02, -187500.02, -181117.66, -187500.02, -187500.02, 0.000, 0.000, 0.000, 14:01:53.213
231, 67594.20, 22716.37, -187500.02, -187500.02, -187500.02, -181046.69, -187500.02, -187500.02, 0.000, 0.000, 0.000, 14:01:53.214
232, 65689.38, 20661.71, -187500.02, -187500.02, -187500.02, -180926.69, -187500.02, -187500.02, 0.000, 0.000, 0.000, 14:01:53.214
233, 68957.56, 23784.02, -187500.02, -187500.02, -187500.02, -180812.22, -187500.02, -187500.02, 0.000, 0.000, 0.000, 14:01:53.214
234, 70851.12, 25845.59, -187500.02, -187500.02, -187500.02, -180972.55, -187500.02, -187500.02, 0.000, 0.000, 0.000, 14:01:53.214
235, 70128.02, 25180.45, -187500.02, -187500.02, -187500.02, -181190.31, -187500.02, -187500.02, 0.000, 0.000, 0.000, 14:01:53.214
236, 67600.57, 22747.62, -187500.02, -187500.02, -187500.02, -181104.09, -187500.02, -187500.02, 0.000, 0.000, 0.000, 14:01:53.214
237, 65675.75, 20661.57, -187500.02, -187500.02, -187500.02, -180980.95, -187500.02, -187500.02, 0.006, -0.014, 1.030, 14:01:53.215
238, 68927.86, 23751.14, -187500.02, -187500.02, -187500.02, -180862.91, -187500.02, -187500.02, 0.000, 0.000, 0.000, 14:01:53.215
239, 70841.37, 25815.28, -187500.02, -187500.02, -187500.02, -181001.89, -187500.02, -187500.02, 0.000, 0.000, 0.000, 14:01:53.215
240, 70137.60, 25187.11, -187500.02, -187500.02, -187500.02, -181186.34, -187500.02, -187500.02, 0.000, 0.000, 0.000, 14:01:53.215
241, 67633.49, 22783.87, -187500.02, -187500.02, -187500.02, -181138.53, -187500.02, -187500.02, 0.000, 0.000, 0.000, 14:01:53.215
242, 65679.91, 20674.69, -187500.02, -187500.02, -187500.02, -181004.78, -187500.02, -187500.02, 0.000, 0.000, 0.000, 14:01:53.216
243, 68926.95, 23768.02, -187500.02, -187500.02, -187500.02, -180888.77, -187500.02, -187500.02, 0.000, 0.000, 0.000, 14:01:53.216
244, 70851.97, 25839.35, -187500.02, -187500.02, -187500.02, -181026.13, -187500.02, -187500.02, 0.000, 0.000, 0.000, 14:01:53.216
245, 70139.80, 25193.99, -187500.02, -187500.02, -187500.02, -181198.19, -187500.02, -187500.02, 0.000, 0.000, 0.000, 14:01:53.216
246, 67646.10, 22803.38, -187500.02, -187500.02, -187500.02, -181125.83, -187500.02, -187500.02, 0.014, -0.018, 1.038, 14:01:53.216
247, 65675.81, 20675.09, -187500.02, -187500.02, -187500.02, -181001.98, -187500.02, -187500.02, 0.000, 0.000, 0.000, 14:01:53.216
248, 68899.90, 23748.21, -187500.02, -187500.02, -187500.02, -180855.06, -187500.02, -187500.02, 0.000, 0.000, 0.000, 14:01:53.217
249, 70856.03, 25856.14, -187500.02, -187500.02, -187500.02, -180994.67, -187500.02, -187500.02, 0.000, 0.000, 0.000, 14:01:53.217
250, 70172.14, 25226.74, -187500.02, -187500.02, -187500.02, -181206.69, -187500.02, -187500.02, 0.000, 0.000, 0.000, 14:01:53.217
251, 67690.18, 22841.43, -187500.02, -187500.02, -187500.02, -181161.64, -187500.02, -187500.02, 0.000, 0.000, 0.000, 14:01:53.217
252, 65677.72, 20677.13, -187500.02, -187500.02, -187500.02, -181020.42, -187500.02, -187500.02, 0.000, 0.000, 0.000, 14:01:53.217
253, 68889.57, 23744.68, -187500.02, -187500.02, -187500.02, -180907.53, -187500.02, -187500.02, 0.000, 0.000, 0.000, 14:01:53.218
254, 70858.47, 25863.49, -187500.02, -187500.02, -187500.02, -181053.91, -187500.02, -187500.02, 0.000, 0.000, 0.000, 14:01:53.218
255, 70161.30, 25227.32, -187500.02, -187500.02, -187500.02, -181245.03, -187500.02, -187500.02, 0.000, 0.000, 0.000, 14:01:53.218
0, 67693.62, 22856.67, -187500.02, -187500.02, -187500.02, -181187.61, -187500.02, -187500.02, 0.012, -0.016, 1.032, 14:01:53.218
1, 65669.27, 20682.43, -187500.02, -187500.02, -187500.02, -181078.72, -187500.02, -187500.02, 0.000, 0.000, 0.000, 14:01:53.218
2, 68853.61, 23714.55, -187500.02, -187500.02, -187500.02, -180942.78, -187500.02, -187500.02, 0.000, 0.000, 0.000, 14:01:53.218
3, 70849.20, 25856.79, -187500.02, -187500.02, -187500.02, -181058.64, -187500.02, -187500.02, 0.000, 0.000, 0.000, 14:01:53.219
4, 70169.39, 25235.37, -187500.02, -187500.02, -187500.02, -181276.91, -187500.02, -187500.02, 0.000, 0.000, 0.000, 14:01:53.219
5, 67712.46, 22876.56, -187500.02, -187500.02, -187500.02, -181215.47, -187500.02, -187500.02, 0.000, 0.000, 0.000, 14:01:53.219
6, 65663.45, 20689.91, -187500.02, -187500.02, -187500.02, -181097.41, -187500.02, -187500.02, 0.000, 0.000, 0.000, 14:01:53.219
7, 68834.52, 23701.10, -187500.02, -187500.02, -187500.02, -180947.22, -187500.02, -187500.02, 0.000, 0.000, 0.000, 14:01:53.219
8, 70847.07, 25855.58, -187500.02, -187500.02, -187500.02, -181048.13, -187500.02, -187500.02, 0.000, 0.000, 0.000, 14:01:53.220
9, 70187.11, 25253.58, -187500.02, -187500.02, -187500.02, -181282.63, -187500.02, -187500.02, 0.000, 0.000, 0.000, 14:01:53.220
10, 67735.57, 22906.38, -187500.02, -187500.02, -187500.02, -181216.63, -187500.02, -187500.02, 0.008, -0.020, 1.034, 14:01:53.220
11, 65660.88, 20685.51, -187500.02, -187500.02, -187500.02, -181085.25, -187500.02, -187500.02, 0.000, 0.000, 0.000, 14:01:53.220
12, 68819.72, 23680.20, -187500.02, -187500.02, -187500.02, -180940.86, -187500.02, -187500.02, 0.000, 0.000, 0.000, 14:01:53.220
13, 70851.92, 25858.80, -187500.02, -187500.02, -187500.02, -181060.56, -187500.02, -187500.02, 0.000, 0.000, 0.000, 14:01:53.220
14, 70185.23, 25254.43, -187500.02, -187500.02, -187500.02, -181241.70, -187500.02, -187500.02, 0.000, 0.000, 0.000, 14:01:53.221
15, 67750.73, 22921.45, -187500.02, -187500.02, -187500.02, -181193.03, -187500.02, -187500.02, 0.000, 0.000, 0.000, 14:01:53.221
16, 65653.09, 20679.72, -187500.02, -187500.02, -187500.02, -181074.52, -187500.02, -187500.02, 0.000, 0.000, 0.000, 14:01:53.221
17, 68792.16, 23664.55, -187500.02, -187500.02, -187500.02, -180920.28, -187500.02, -187500.02, 0.000, 0.000, 0.000, 14:01:53.221
18, 70853.59, 25867.18, -187500.02, -187500.02, -187500.02, -181037.77, -187500.02, -187500.02, 0.000, 0.000, 0.000, 14:01:53.221
19, 70202.65, 25276.45, -187500.02, -187500.02, -187500.02, -181256.03, -187500.02, -187500.02, 0.000, 0.000, 0.000, 14:01:53.222
20, 67790.98, 22965.37, -187500.02, -187500.02, -187500.02, -181240.33, -187500.02, -187500.02, 0.004, -0.012, 1.026, 14:01:53.222
21, 65672.55, 20694.70, -187500.02, -187500.02, -187500.02, -181166.83, -187500.02, -187500.02, 0.000, 0.000, 0.000, 14:01:53.222
22, 68785.99, 23644.14, -187500.02, -187500.02, -187500.02, -181034.11, -187500.02, -187500.02, 0.000, 0.000, 0.000, 14:01:53.222
23, 70854.71, 25856.03, -187500.02, -187500.02, -187500.02, -181134.50, -187500.02, -187500.02, 0.000, 0.000, 0.000, 14:01:53.222
24, 70205.24, 25275.08, -187500.02, -187500.02, -187500.02, -181341.34, -187500.02, -187500.02, 0.000, 0.000, 0.000, 14:01:53.222
25, 67787.79, 22957.50, -187500.02, -187500.02, -187500.02, -181276.70, -187500.02, -187500.02, 0.000, 0.000, 0.000, 14:01:53.223
26, 65643.63, 20679.81, -187500.02, -187500.02, -187500.02, -181105.06, -187500.02, -187500.02, 0.000, 0.000, 0.000, 14:01:53.223
27, 68760.36, 23626.38, -187500.02, -187500.02, -187500.02, -180972.50, -187500.02, -187500.02, 0.000, 0.000, 0.000, 14:01:53.223
28, 70860.37, 25867.09, -187500.02, -187500.02, -187500.02, -181107.84, -187500.02, -187500.02, 0.000, 0.000, 0.000, 14:01:53.223
29, 70222.80, 25284.83, -187500.02, -187500.02, -187500.02, -181340.92, -187500.02, -187500.02, 0.000, 0.000, 0.000, 14:01:53.223
30, 67818.12, 22979.27, -187500.02, -187500.02, -187500.02, -181301.05, -187500.02, -187500.02, 0.004, -0.010, 1.026, 14:01:53.224
31, 65650.91, 20670.51, -187500.02, -187500.02, -187500.02, -181179.86, -187500.02, -187500.02, 0.000, 0.000, 0.000, 14:01:53.224
32, 68739.97, 23588.98, -187500.02, -187500.02, -187500.02, -181032.84, -187500.02, -187500.02, 0.000, 0.000, 0.000, 14:01:53.224
33, 70849.69, 25847.71, -187500.02, -187500.02, -187500.02, -181115.47, -187500.02, -187500.02, 0.000, 0.000, 0.000, 14:01:53.224
34, 70214.27, 25279.53, -187500.02, -187500.02, -187500.02, -181301.05, -187500.02, -187500.02, 0.000, 0.000, 0.000, 14:01:53.224
35, 67840.98, 23013.33, -187500.02, -187500.02, -187500.02, -181294.23, -187500.02, -187500.02, 0.000, 0.000, 0.000, 14:01:53.224
36, 65649.71, 20676.46, -187500.02, -187500.02, -187500.02, -181141.28, -187500.02, -187500.02, 0.000, 0.000, 0.000, 14:01:53.224
37, 68722.85, 23574.25, -187500.02, -187500.02, -187500.02, -181016.05, -187500.02, -187500.02, 0.000, 0.000, 0.000, 14:01:53.225
38, 70856.16, 25851.31, -187500.02, -187500.02, -187500.02, -181132.08, -187500.02, -187500.02, 0.000, 0.000, 0.000, 14:01:53.225
39, 70214.83, 25268.94, -187500.02, -187500.02, -187500.02, -181312.58, -187500.02, -187500.02, 0.000, 0.000, 0.000, 14:01:53.225
40, 67841.66, 23007.63, -187500.02, -187500.02, -187500.02, -181239.88, -187500.02, -187500.02, 0.004, -0.010, 1.026, 14:01:53.225
41, 65641.51, 20667.07, -187500.02, -187500.02, -187500.02, -181107.81, -187500.02, -187500.02, 0.000, 0.000, 0.000, 14:01:53.225
42, 68687.11, 23542.11, -187500.02, -187500.02, -187500.02, -180960.95, -187500.02, -187500.02, 0.000, 0.000, 0.000, 14:01:53.226
43, 70850.18, 25859.00, -187500.02, -187500.02, -187500.02, -181079.86, -187500.02, -187500.02, 0.000, 0.000, 0.000, 14:01:53.226
44, 70229.09, 25299.40, -187500.02, -187500.02, -187500.02, -181294.75, -187500.02, -187500.02, 0.000, 0.000, 0.000, 14:01:53.226
45, 67866.22, 23037.18, -187500.02, -187500.02, -187500.02, -181258.02, -187500.02, -187500.02, 0.000, 0.000, 0.000, 14:01:53.226
46, 65633.75, 20663.49, -187500.02, -187500.02, -187500.02, -181121.25, -187500.02, -187500.02, 0.000, 0.000, 0.000, 14:01:53.226
47, 68674.50, 23525.12, -187500.02, -187500.02, -187500.02, -180991.81, -187500.02, -187500.02, 0.000, 0.000, 0.000, 14:01:53.227
48, 70853.33, 25837.30, -187500.02, -187500.02, -187500.02, -181128.30, -187500.02, -187500.02, 0.000, 0.000, 0.000, 14:01:53.227
49, 70232.17, 25271.02, -187500.02, -187500.02, -187500.02, -181329.02, -187500.02, -187500.02, 0.000, 0.000, 0.000, 14:01:53.227
50, 67884.62, 23037.32, -187500.02, -187500.02, -187500.02, -181272.38, -187500.02, -187500.02, 0.008, -0.014, 1.032, 14:01:53.227
51, 65636.25, 20668.86, -187500.02, -187500.02, -187500.02, -181179.64, -187500.02, -187500.02, 0.000, 0.000, 0.000, 14:01:53.227
52, 68648.11, 23506.12, -187500.02, -187500.02, -187500.02, -181047.98, -187500.02, -187500.02, 0.000, 0.000, 0.000, 14:01:53.227
53, 70843.98, 25846.57, -187500.02, -187500.02, -187500.02, -181140.23, -187500.02, -187500.02, 0.000, 0.000, 0.000, 14:01:53.228
54, 70235.44, 25295.67, -187500.02, -187500.02, -187500.02, -181343.45, -187500.02, -187500.02, 0.000, 0.000, 0.000, 14:01:53.228
55, 67893.80, 23059.53, -187500.02, -187500.02, -187500.02, -181270.98, -187500.02, -187500.02, 0.000, 0.000, 0.000, 14:01:53.228
56, 65629.34, 20657.62, -187500.02, -187500.02, -187500.02, -181137.03, -187500.02, -187500.02, 0.000, 0.000, 0.000, 14:01:53.228
57, 68637.06, 23489.96, -187500.02, -187500.02, -187500.02, -181022.80, -187500.02, -187500.02, 0.000, 0.000, 0.000, 14:01:53.228
58, 70853.77, 25844.16, -187500.02, -187500.02, -187500.02, -181139.56, -187500.02, -187500.02, 0.000, 0.000, 0.000, 14:01:53.228
59, 70241.65, 25296.16, -187500.02, -187500.02, -187500.02, -181320.36, -187500.02, -187500.02, 0.000, 0.000, 0.000, 14:01:53.229
60, 67924.96, 23081.19, -187500.02, -187500.02, -187500.02, -181271.56, -187500.02, -187500.02, 0.008, -0.012, 1.028, 14:01:53.229
61, 65646.02, 20670.85, -187500.02, -187500.02, -187500.02, -181191.42, -187500.02, -187500.02, 0.000, 0.000, 0.000, 14:01:53.229
62, 68618.89, 23465.24, -187500.02, -187500.02, -187500.02, -181054.64, -187500.02, -187500.02, 0.000, 0.000, 0.000, 14:01:53.229
63, 70846.98, 25835.80, -187500.02, -187500.02, -187500.02, -181137.45, -187500.02, -187500.02, 0.000, 0.000, 0.000, 14:01:53.229
64, 70252.55, 25306.82, -187500.02, -187500.02, -187500.02, -181340.97, -187500.02, -187500.02, 0.000, 0.000, 0.000, 14:01:53.229
65, 67939.00, 23093.91, -187500.02, -187500.02, -187500.02, -181286.88, -187500.02, -187500.02, 0.000, 0.000, 0.000, 14:01:53.230
66, 65636.81, 20661.13, -187500.02, -187500.02, -187500.02, -181165.95, -187500.02, -187500.02, 0.000, 0.000, 0.000, 14:01:53.230
67, 68596.07, 23447.58, -187500.02, -187500.02, -187500.02, -181013.45, -187500.02, -187500.02, 0.000, 0.000, 0.000, 14:01:53.230
68, 70859.07, 25842.73, -187500.02, -187500.02, -187500.02, -181128.09, -187500.02, -187500.02, 0.000, 0.000, 0.000, 14:01:53.230
69, 70277.52, 25328.91, -187500.02, -187500.02, -187500.02, -181347.98, -187500.02, -187500.02, 0.000, 0.000, 0.000, 14:01:53.230
70, 67971.41, 23125.76, -187500.02, -187500.02, -187500.02, -181321.64, -187500.02, -187500.02, 0.000, -0.012, 1.030, 14:01:53.230
71, 65637.46, 20655.60, -187500.02, -187500.02, -187500.02, -181204.63, -187500.02, -187500.02, 0.000, 0.000, 0.000, 14:01:53.230
72, 68578.37, 23419.91, -187500.02, -187500.02, -187500.02, -181073.52, -187500.02, -187500.02, 0.000, 0.000, 0.000, 14:01:53.230
73, 70849.64, 25829.96, -187500.02, -187500.02, -187500.02, -181163.03, -187500.02, -187500.02, 0.000, 0.000, 0.000, 14:01:53.231
74, 70278.30, 25323.38, -187500.02, -187500.02, -187500.02, -181380.73, -187500.02, -187500.02, 0.000, 0.000, 0.000, 14:01:53.231
75, 67999.44, 23143.00, -187500.02, -187500.02, -187500.02, -181364.94, -187500.02, -187500.02, 0.000, 0.000, 0.000, 14:01:53.231
76, 65656.33, 20674.20, -187500.02, -187500.02, -187500.02, -181267.66, -187500.02, -187500.02, 0.000, 0.000, 0.000, 14:01:53.231
77, 68577.07, 23414.44, -187500.02, -187500.02, -187500.02, -181133.97, -187500.02, -187500.02, 0.000, 0.000, 0.000, 14:01:53.231
78, 70866.90, 25840.52, -187500.02, -187500.02, -187500.02, -181210.92, -187500.02, -187500.02, 0.000, 0.000, 0.000, 14:01:53.231
79, 70285.37, 25320.23, -187500.02, -187500.02, -187500.02, -181385.63, -187500.02, -187500.02, 0.000, 0.000, 0.000, 14:01:53.231
80, 68015.53, 23154.93, -187500.02, -187500.02, -187500.02, -181371.59, -187500.02, -187500.02, 0.004, -0.014, 1.030, 14:01:53.231
81, 65648.99, 20671.92, -187500.02, -187500.02, -187500.02, -181271.17, -187500.02, -187500.02, 0.000, 0.000, 0.000, 14:01:53.231
82, 68542.18, 23381.22, -187500.02, -187500.02, -187500.02, -181113.55, -187500.02, -187500.02, 0.000, 0.000, 0.000, 14:01:53.232
83, 70849.02, 25822.32, -187500.02, -187500.02, -187500.02, -181177.22, -187500.02, -187500.02, 0.000, 0.000, 0.000, 14:01:53.232
84, 70280.66, 25324.73, -187500.02, -187500.02, -187500.02, -181389.63, -187500.02, -187500.02, 0.000, 0.000, 0.000, 14:01:53.232
85, 68013.07, 23157.97, -187500.02, -187500.02, -187500.02, -181347.08, -187500.02, -187500.02, 0.000, 0.000, 0.000, 14:01:53.232
86, 65627.58, 20656.72, -187500.02, -187500.02, -187500.02, -181199.11, -187500.02, -187500.02, 0.000, 0.000, 0.000, 14:01:53.232
87, 68517.21, 23359.67, -187500.02, -187500.02, -187500.02, -181049.84, -187500.02, -187500.02, 0.000, 0.000, 0.000, 14:01:53.232
88, 70843.65, 25821.05, -187500.02, -187500.02, -187500.02, -181158.69, -187500.02, -187500.02, 0.000, 0.000, 0.000, 14:01:53.232
89, 70286.02, 25331.03, -187500.02, -187500.02, -187500.02, -181374.45, -187500.02, -187500.02, 0.000, 0.000, 0.000, 14:01:53.691
90, 68035.65, 23186.94, -187500.02, -187500.02, -187500.02, -181362.98, -187500.02, -187500.02, 0.008, -0.010, 1.028, 14:01:53.692
91, 65634.66, 20673.31, -187500.02, -187500.02, -187500.02, -181244.02, -187500.02, -187500.02, 0.000, 0.000, 0.000, 14:01:53.692
92, 68499.34, 23343.33, -187500.02, -187500.02, -187500.02, -181081.73, -187500.02, -187500.02, 0.000, 0.000, 0.000, 14:01:53.692
93, 70849.40, 25826.17, -187500.02, -187500.02, -187500.02, -181158.78, -187500.02, -187500.02, 0.000, 0.000, 0.000, 14:01:53.692
94, 70304.46, 25357.79, -187500.02, -187500.02, -187500.02, -181373.81, -187500.02, -187500.02, 0.000, 0.000, 0.000, 14:01:53.692
95, 68070.29, 23218.12, -187500.02, -187500.02, -187500.02, -181375.61, -187500.02, -187500.02, 0.000, 0.000, 0.000, 14:01:53.692
96, 65647.43, 20679.70, -187500.02, -187500.02, -187500.02, -181245.97, -187500.02, -187500.02, 0.000, 0.000, 0.000, 14:01:53.693
97, 68487.84, 23325.63, -187500.02, -187500.02, -187500.02, -181085.69, -187500.02, -187500.02, 0.000, 0.000, 0.000, 14:01:53.693
98, 70855.88, 25832.80, -187500.02, -187500.02, -187500.02, -181190.59, -187500.02, -187500.02, 0.000, 0.000, 0.000, 14:01:53.693
99, 70321.89, 25374.35, -187500.02, -187500.02, -187500.02, -181458.47, -187500.02, -187500.02, 0.000, 0.000, 0.000, 14:01:53.693
100, 68092.20, 23241.61, -187500.02, -187500.02, -187500.02, -181450.77, -187500.02, -187500.02, 0.014, -0.018, 1.020, 14:01:53.693
101, 65639.16, 20668.81, -187500.02, -187500.02, -187500.02, -181280.38, -187500.02, -187500.02, 0.000, 0.000, 0.000, 14:01:53.693
102, 68466.16, 23312.80, -187500.02, -187500.02, -187500.02, -181118.55, -187500.02, -187500.02, 0.000, 0.000, 0.000, 14:01:53.694
103, 70857.82, 25836.56, -187500.02, -187500.02, -187500.02, -181205.42, -187500.02, -187500.02, 0.000, 0.000, 0.000, 14:01:53.694
104, 70325.52, 25373.43, -187500.02, -187500.02, -187500.02, -181424.14, -187500.02, -187500.02, 0.000, 0.000, 0.000, 14:01:53.694
105, 68109.83, 23260.05, -187500.02, -187500.02, -187500.02, -181385.31, -187500.02, -187500.02, 0.000, 0.000, 0.000, 14:01:53.694
106, 65659.12, 20695.21, -187500.02, -187500.02, -187500.02, -181287.44, -187500.02, -187500.02, 0.000, 0.000, 0.000, 14:01:53.694
107, 68456.91, 23296.91, -187500.02, -187500.02, -187500.02, -181137.22, -187500.02, -187500.02, 0.000, 0.000, 0.000, 14:01:53.695
108, 70860.15, 25827.46, -187500.02, -187500.02, -187500.02, -181208.47, -187500.02, -187500.02, 0.000, 0.000, 0.000, 14:01:53.695
109, 70332.65, 25369.99, -187500.02, -187500.02, -187500.02, -181408.89, -187500.02, -187500.02, 0.000, 0.000, 0.000, 14:01:53.695
110, 68135.27, 23277.40, -187500.02, -187500.02, -187500.02, -181398.53, -187500.02, -187500.02, 0.012, -0.014, 1.022, 14:01:53.695
111, 65657.42, 20687.99, -187500.02, -187500.02, -187500.02, -181261.27, -187500.02, -187500.02, 0.000, 0.000, 0.000, 14:01:53.695
112, 68450.54, 23293.38, -187500.02, -187500.02, -187500.02, -181123.36, -187500.02, -187500.02, 0.000, 0.000, 0.000, 14:01:53.695
113, 70866.31, 25838.41, -187500.02, -187500.02, -187500.02, -181204.52, -187500.02, -187500.02, 0.000, 0.000, 0.000, 14:01:53.696
114, 70340.27, 25379.13, -187500.02, -187500.02, -187500.02, -181388.83, -187500.02, -187500.02, 0.000, 0.000, 0.000, 14:01:53.696
115, 68157.77, 23289.24, -187500.02, -187500.02, -187500.02, -181396.16, -187500.02, -187500.02, 0.000, 0.000, 0.000, 14:01:53.696
116, 65658.36, 20671.68, -187500.02, -187500.02, -187500.02, -181256.97, -187500.02, -187500.02, 0.000, 0.000, 0.000, 14:01:53.696
117, 68424.30, 23259.25, -187500.02, -187500.02, -187500.02, -181095.86, -187500.02, -187500.02, 0.000, 0.000, 0.000, 14:01:53.696
118, 70873.89, 25854.17, -187500.02, -187500.02, -187500.02, -181196.41, -187500.02, -187500.02, 0.000, 0.000, 0.000, 14:01:53.697
119, 70370.53, 25416.79, -187500.02, -187500.02, -187500.02, -181454.72, -187500.02, -187500.02, 0.008, -0.018, 1.026, 14:01:53.697
120, 68191.05, 23330.06, -187500.02, -187500.02, -187500.02, -181452.84, -187500.02, -187500.02, 0.000, 0.000, 0.000, 14:01:53.697
121, 65665.66, 20687.95, -187500.02, -187500.02, -187500.02, -181299.48, -187500.02, -187500.02, 0.000, 0.000, 0.000, 14:01:53.697
122, 68405.70, 23238.44, -187500.02, -187500.02, -187500.02, -181137.72, -187500.02, -187500.02, 0.000, 0.000, 0.000, 14:01:53.697
123, 70866.56, 25833.05, -187500.02, -187500.02, -187500.02, -181208.42, -187500.02, -187500.02, 0.000, 0.000, 0.000, 14:01:53.697
124, 70365.14, 25393.06, -187500.02, -187500.02, -187500.02, -181446.98, -187500.02, -187500.02, 0.000, 0.000, 0.000, 14:01:53.698
125, 68195.37, 23323.53, -187500.02, -187500.02, -187500.02, -181423.45, -187500.02, -187500.02, 0.000, 0.000, 0.000, 14:01:53.698
126, 65657.55, 20688.15, -187500.02, -187500.02, -187500.02, -181280.42, -187500.02, -187500.02, 0.000, 0.000, 0.000, 14:01:53.698
127, 68379.91, 23218.79, -187500.02, -187500.02, -187500.02, -181156.08, -187500.02, -187500.02, 0.000, 0.000, 0.000, 14:01:53.698
128, 70854.34, 25828.91, -187500.02, -187500.02, -187500.02, -181237.17, -187500.02, -187500.02, 0.000, 0.000, 0.000, 14:01:53.698
129, 70356.49, 25401.44, -187500.02, -187500.02, -187500.02, -181443.31, -187500.02, -187500.02, 0.004, -0.014, 1.026, 14:01:53.698
130, 68198.81, 23333.81, -187500.02, -187500.02, -187500.02, -181393.83, -187500.02, -187500.02, 0.000, 0.000, 0.000, 14:01:53.699
131, 65663.41, 20691.86, -187500.02, -187500.02, -187500.02, -181286.25, -187500.02, -187500.02, 0.000, 0.000, 0.000, 14:01:53.700
132, 68351.99, 23196.39, -187500.02, -187500.02, -187500.02, -181121.75, -187500.02, -187500.02, 0.000, 0.000, 0.000, 14:01:53.700
133, 70845.88, 25821.36, -187500.02, -187500.02, -187500.02, -181181.92, -187500.02, -187500.02, 0.000, 0.000, 0.000, 14:01:53.700
134, 70367.16, 25407.07, -187500.02, -187500.02, -187500.02, -181431.30, -187500.02, -187500.02, 0.000, 0.000, 0.000, 14:01:53.700
135, 68233.41, 23371.30, -187500.02, -187500.02, -187500.02, -181460.66, -187500.02, -187500.02, 0.000, 0.000, 0.000, 14:01:53.700
136, 65665.27, 20710.70, -187500.02, -187500.02, -187500.02, -181355.72, -187500.02, -187500.02, 0.000, 0.000, 0.000, 14:01:53.700
137, 68329.86, 23167.16, -187500.02, -187500.02, -187500.02, -181154.13, -187500.02, -187500.02, 0.000, 0.000, 0.000, 14:01:53.700
138, 70856.21, 25819.68, -187500.02, -187500.02, -187500.02, -181231.22, -187500.02, -187500.02, 0.000, 0.000, 0.000, 14:01:53.701
139, 70383.95, 25414.69, -187500.02, -187500.02, -187500.02, -181471.39, -187500.02, -187500.02, 0.008, -0.006, 1.028, 14:01:53.701
140, 68251.50, 23387.17, -187500.02, -187500.02, -187500.02, -181475.02, -187500.02, -187500.02, 0.000, 0.000, 0.000, 14:01:53.701
141, 65661.63, 20697.00, -187500.02, -187500.02, -187500.02, -181357.33, -187500.02, -187500.02, 0.000, 0.000, 0.000, 14:01:53.701
142, 68303.11, 23144.92, -187500.02, -187500.02, -187500.02, -181178.42, -187500.02, -187500.02, 0.000, 0.000, 0.000, 14:01:53.701
143, 70843.13, 25807.28, -187500.02, -187500.02, -187500.02, -181272.27, -187500.02, -187500.02, 0.000, 0.000, 0.000, 14:01:53.701
144, 70367.94, 25393.46, -187500.02, -187500.02, -187500.02, -181464.94, -187500.02, -187500.02, 0.000, 0.000, 0.000, 14:01:53.701
145, 68251.34, 23383.86, -187500.02, -187500.02, -187500.02, -181428.33, -187500.02, -187500.02, 0.000, 0.000, 0.000, 14:01:53.701
146, 65654.54, 20680.91, -187500.02, -187500.02, -187500.02, -181320.63, -187500.02, -187500.02, 0.000, 0.000, 0.000, 14:01:53.702
147, 68280.15, 23092.32, -187500.02, -187500.02, -187500.02, -181162.36, -187500.02, -187500.02, 0.000, 0.000, 0.000, 14:01:53.702
148, 70837.05, 25801.91, -187500.02, -187500.02, -187500.02, -181260.81, -187500.02, -187500.02, 0.000, 0.000, 0.000, 14:01:53.702
149, 70366.30, 25406.02, -187500.02, -187500.02, -187500.02, -181521.44, -187500.02, -187500.02, 0.010, -0.012, 1.028, 14:01:53.702
150, 68247.83, 23365.80, -187500.02, -187500.02, -187500.02, -181476.02, -187500.02, -187500.02, 0.000, 0.000, 0.000, 14:01:53.702
151, 65631.02, 20653.50, -187500.02, -187500.02, -187500.02, -181367.80, -187500.02, -187500.02, 0.000, 0.000, 0.000, 14:01:53.702
152, 68221.32, 23053.01, -187500.02, -187500.02, -187500.02, -181237.69, -187500.02, -187500.02, 0.000, 0.000, 0.000, 14:01:53.702
153, 70802.37, 25770.06, -187500.02, -187500.02, -187500.02, -181351.31, -187500.02, -187500.02, 0.000, 0.000, 0.000, 14:01:53.702
154, 70358.80, 25398.26, -187500.02, -187500.02, -187500.02, -181613.66, -187500.02, -187500.02, 0.000, 0.000, 0.000, 14:01:53.702
155, 68252.97, 23388.44, -187500.02, -187500.02, -187500.02, -181577.14, -187500.02, -187500.02, 0.000, 0.000, 0.000, 14:01:53.703
156, 65610.23, 20649.61, -187500.02, -187500.02, -187500.02, -181388.63, -187500.02, -187500.02, 0.000, 0.000, 0.000, 14:01:53.703
157, 68203.95, 23040.80, -187500.02, -187500.02, -187500.02, -181238.91, -187500.02, -187500.02, 0.000, 0.000, 0.000, 14:01:53.703
158, 70797.49, 25767.98, -187500.02, -187500.02, -187500.02, -181335.72, -187500.02, -187500.02, 0.000, 0.000, 0.000, 14:01:53.703
159, 70354.05, 25396.36, -187500.02, -187500.02, -187500.02, -181540.77, -187500.02, -187500.02, 0.012, -0.014, 1.020, 14:01:53.703
160, 68279.91, 23418.84, -187500.02, -187500.02, -187500.02, -181532.61, -187500.02, -187500.02, 0.000, 0.000, 0.000, 14:01:53.703
161, 65627.34, 20686.14, -187500.02, -187500.02, -187500.02, -181412.89, -187500.02, -187500.02, 0.000, 0.000, 0.000, 14:01:53.703
162, 68188.95, 23047.08, -187500.02, -187500.02, -187500.02, -181217.81, -187500.02, -187500.02, 0.000, 0.000, 0.000, 14:01:53.703
163, 70811.58, 25797.44, -187500.02, -187500.02, -187500.02, -181299.75, -187500.02, -187500.02, 0.000, 0.000, 0.000, 14:01:53.704
164, 70384.16, 25439.44, -187500.02, -187500.02, -187500.02, -181566.97, -187500.02, -187500.02, 0.000, 0.000, 0.000, 14:01:53.704
165, 68318.51, 23464.26, -187500.02, -187500.02, -187500.02, -181535.30, -187500.02, -187500.02, 0.000, 0.000, 0.000, 14:01:53.704
166, 65655.43, 20703.48, -187500.02, -187500.02, -187500.02, -181403.59, -187500.02, -187500.02, 0.000, 0.000, 0.000, 14:01:53.704
167, 68194.14, 23032.38, -187500.02, -187500.02, -187500.02, -181234.69, -187500.02, -187500.02, 0.000, 0.000, 0.000, 14:01:53.704
168, 70833.99, 25801.33, -187500.02, -187500.02, -187500.02, -181329.66, -187500.02, -187500.02, 0.000, 0.000, 0.000, 14:01:53.704
169, 70394.45, 25442.48, -187500.02, -187500.02, -187500.02, -181535.63, -187500.02, -187500.02, 0.008, -0.016, 1.026, 14:01:53.704
170, 68347.34, 23490.03, -187500.02, -187500.02, -187500.02, -181531.16, -187500.02, -187500.02, 0.000, 0.000, 0.000, 14:01:53.704
171, 65674.30, 20727.87, -187500.02, -187500.02, -187500.02, -181421.50, -187500.02, -187500.02, 0.000, 0.000, 0.000, 14:01:53.705
172, 68187.19, 23035.17, -187500.02, -187500.02, -187500.02, -181291.23, -187500.02, -187500.02, 0.000, 0.000, 0.000, 14:01:53.705
173, 70832.97, 25810.70, -187500.02, -187500.02, -187500.02, -181377.67, -187500.02, -187500.02, 0.000, 0.000, 0.000, 14:01:53.705
174, 70416.77, 25459.66, -187500.02, -187500.02, -187500.02, -181607.45, -187500.02, -187500.02, 0.000, 0.000, 0.000, 14:01:53.705
175, 68373.73, 23516.29, -187500.02, -187500.02, -187500.02, -181604.50, -187500.02, -187500.02, 0.000, 0.000, 0.000, 14:01:53.705
176, 65670.79, 20730.79, -187500.02, -187500.02, -187500.02, -181442.94, -187500.02, -187500.02, 0.000, 0.000, 0.000, 14:01:53.705
177, 68154.45, 23008.86, -187500.02, -187500.02, -187500.02, -181269.67, -187500.02, -187500.02, 0.000, 0.000, 0.000, 14:01:53.705
178, 70821.12, 25803.93, -187500.02, -187500.02, -187500.02, -181329.44, -187500.02, -187500.02, 0.000, 0.000, 0.000, 14:01:53.705
179, 70413.49, 25477.88, -187500.02, -187500.02, -187500.02, -181534.38, -187500.02, -187500.02, 0.012, -0.018, 1.026, 14:01:53.706
180, 68385.74, 23540.59, -187500.02, -187500.02, -187500.02, -181535.66, -187500.02, -187500.02, 0.000, 0.000, 0.000, 14:01:53.706
181, 65678.72, 20745.17, -187500.02, -187500.02, -187500.02, -181416.72, -187500.02, -187500.02, 0.000, 0.000, 0.000, 14:01:53.706
182, 68148.63, 23002.54, -187500.02, -187500.02, -187500.02, -181259.36, -187500.02, -187500.02, 0.000, 0.000, 0.000, 14:01:53.706
183, 70829.95, 25808.20, -187500.02, -187500.02, -187500.02, -181317.66, -187500.02, -187500.02, 0.000, 0.000, 0.000, 14:01:53.706
184, 70429.59, 25484.83, -187500.02, -187500.02, -187500.02, -181543.48, -187500.02, -187500.02, 0.000, 0.000, 0.000, 14:01:53.706
185, 68410.69, 23558.65, -187500.02, -187500.02, -187500.02, -181539.39, -187500.02, -187500.02, 0.000, 0.000, 0.000, 14:01:53.706
186, 65682.86, 20746.38, -187500.02, -187500.02, -187500.02, -181412.55, -187500.02, -187500.02, 0.000, 0.000, 0.000, 14:01:53.707
187, 68124.83, 22979.80, -187500.02, -187500.02, -187500.02, -181276.52, -187500.02, -187500.02, 0.000, 0.000, 0.000, 14:01:53.707
188, 70831.06, 25814.88, -187500.02, -187500.02, -187500.02, -181352.92, -187500.02, -187500.02, 0.000, 0.000, 0.000, 14:01:53.707
189, 70439.27, 25494.91, -187500.02, -187500.02, -187500.02, -181576.45, -187500.02, -187500.02, 0.010, -0.012, 1.028, 14:01:53.707
190, 68440.99, 23589.45, -187500.02, -187500.02, -187500.02, -181606.38, -187500.02, -187500.02, 0.000, 0.000, 0.000, 14:01:53.707
191, 65694.44, 20765.42, -187500.02, -187500.02, -187500.02, -181496.78, -187500.02, -187500.02, 0.000, 0.000, 0.000, 14:01:53.707
192, 68107.57, 22962.57, -187500.02, -187500.02, -187500.02, -181327.92, -187500.02, -187500.02, 0.000, 0.000, 0.000, 14:01:53.707
193, 70834.04, 25804.37, -187500.02, -187500.02, -187500.02, -181396.78, -187500.02, -187500.02, 0.000, 0.000, 0.000, 14:01:53.707
194, 70450.91, 25501.69, -187500.02, -187500.02, -187500.02, -181606.06, -187500.02, -187500.02, 0.000, 0.000, 0.000, 14:01:53.708
195, 68456.55, 23603.35, -187500.02, -187500.02, -187500.02, -181599.38, -187500.02, -187500.02, 0.000, 0.000, 0.000, 14:01:53.708
196, 65702.81, 20773.55, -187500.02, -187500.02, -187500.02, -181486.13, -187500.02, -187500.02, 0.000, 0.000, 0.000, 14:01:53.708
197, 68089.83, 22945.21, -187500.02, -187500.02, -187500.02, -181314.13, -187500.02, -187500.02, 0.000, 0.000, 0.000, 14:01:53.708
198, 70835.83, 25809.47, -187500.02, -187500.02, -187500.02, -181396.73, -187500.02, -187500.02, 0.000, 0.000, 0.000, 14:01:53.708
199, 70466.46, 25516.59, -187500.02, -187500.02, -187500.02, -181632.75, -187500.02, -187500.02, 0.010, -0.014, 1.026, 14:01:53.708
200, 68474.48, 23620.27, -187500.02, -187500.02, -187500.02, -181596.11, -187500.02, -187500.02, 0.000, 0.000, 0.000, 14:01:53.708
201, 65706.64, 20785.27, -187500.02, -187500.02, -187500.02, -181453.89, -187500.02, -187500.02, 0.000, 0.000, 0.000, 14:01:53.708
202, 68074.38, 22940.58, -187500.02, -187500.02, -187500.02, -181309.39, -187500.02, -187500.02, 0.000, 0.000, 0.000, 14:01:53.709
203, 70846.60, 25818.30, -187500.02, -187500.02, -187500.02, -181406.73, -187500.02, -187500.02, 0.000, 0.000, 0.000, 14:01:53.709
204, 70476.30, 25526.92, -187500.02, -187500.02, -187500.02, -181630.41, -187500.02, -187500.02, 0.000, 0.000, 0.000, 14:01:53.709
205, 68497.63, 23646.20, -187500.02, -187500.02, -187500.02, -181593.08, -187500.02, -187500.02, 0.000, 0.000, 0.000, 14:01:53.709
206, 65724.43, 20796.42, -187500.02, -187500.02, -187500.02, -181501.34, -187500.02, -187500.02, 0.000, 0.000, 0.000, 14:01:53.709
207, 68059.79, 22914.94, -187500.02, -187500.02, -187500.02, -181354.78, -187500.02, -187500.02, 0.000, 0.000, 0.000, 14:01:53.709
208, 70832.63, 25803.08, -187500.02, -187500.02, -187500.02, -181397.03, -187500.02, -187500.02, 0.000, 0.000, 0.000, 14:01:53.709
209, 70480.59, 25527.68, -187500.02, -187500.02, -187500.02, -181615.78, -187500.02, -187500.02, 0.006, -0.014, 1.030, 14:01:54.172
210, 68528.19, 23661.38, -187500.02, -187500.02, -187500.02, -181621.47, -187500.02, -187500.02, 0.000, 0.000, 0.000, 14:01:54.173
211, 65727.29, 20801.85, -187500.02, -187500.02, -187500.02, -181506.58, -187500.02, -187500.02, 0.000, 0.000, 0.000, 14:01:54.173
212, 68037.81, 22899.88, -187500.02, -187500.02, -187500.02, -181349.52, -187500.02, -187500.02, 0.000, 0.000, 0.000, 14:01:54.173
213, 70828.88, 25799.14, -187500.02, -187500.02, -187500.02, -181416.91, -187500.02, -187500.02, 0.000, 0.000, 0.000, 14:01:54.173
214, 70479.95, 25528.35, -187500.02, -187500.02, -187500.02, -181640.81, -187500.02, -187500.02, 0.000, 0.000, 0.000, 14:01:54.173
215, 68529.58, 23667.48, -187500.02, -187500.02, -187500.02, -181652.86, -187500.02, -187500.02, 0.000, 0.000, 0.000, 14:01:54.173
216, 65715.98, 20791.66, -187500.02, -187500.02, -187500.02, -181495.98, -187500.02, -187500.02, 0.000, 0.000, 0.000, 14:01:54.173
217, 68013.07, 22867.82, -187500.02, -187500.02, -187500.02, -181346.83, -187500.02, -187500.02, 0.000, 0.000, 0.000, 14:01:54.173
218, 70822.04, 25793.09, -187500.02, -187500.02, -187500.02, -181408.66, -187500.02, -187500.02, 0.000, 0.000, 0.000, 14:01:54.174
219, 70481.51, 25540.44, -187500.02, -187500.02, -187500.02, -181616.14, -187500.02, -187500.02, 0.010, -0.018, 1.032, 14:01:54.174
220, 68546.20, 23695.89, -187500.02, -187500.02, -187500.02, -181591.64, -187500.02, -187500.02, 0.000, 0.000, 0.000, 14:01:54.174
221, 65737.69, 20811.55, -187500.02, -187500.02, -187500.02, -181513.81, -187500.02, -187500.02, 0.000, 0.000, 0.000, 14:01:54.174
222, 67995.13, 22853.16, -187500.02, -187500.02, -187500.02, -181395.36, -187500.02, -187500.02, 0.000, 0.000, 0.000, 14:01:54.174
223, 70802.26, 25783.32, -187500.02, -187500.02, -187500.02, -181427.36, -187500.02, -187500.02, 0.000, 0.000, 0.000, 14:01:54.174
224, 70474.45, 25538.05, -187500.02, -187500.02, -187500.02, -181645.73, -187500.02, -187500.02, 0.000, 0.000, 0.000, 14:01:54.174
225, 68551.73, 23704.38, -187500.02, -187500.02, -187500.02, -181644.34, -187500.02, -187500.02, 0.000, 0.000, 0.000, 14:01:54.174
226, 65712.95, 20794.70, -187500.02, -187500.02, -187500.02, -181488.14, -187500.02, -187500.02, 0.000, 0.000, 0.000, 14:01:54.175
227, 67953.19, 22811.94, -187500.02, -187500.02, -187500.02, -181296.95, -187500.02, -187500.02, 0.000, 0.000, 0.000, 14:01:54.175
228, 70811.55, 25780.75, -187500.02, -187500.02, -187500.02, -181377.97, -187500.02, -187500.02, 0.000, 0.000, 0.000, 14:01:54.175
229, 70496.66, 25547.22, -187500.02, -187500.02, -187500.02, -181617.89, -187500.02, -187500.02, 0.002, -0.016, 1.032, 14:01:54.175
230, 68586.82, 23724.39, -187500.02, -187500.02, -187500.02, -181643.14, -187500.02, -187500.02, 0.000, 0.000, 0.000, 14:01:54.175
231, 65737.23, 20815.06, -187500.02, -187500.02, -187500.02, -181536.33, -187500.02, -187500.02, 0.000, 0.000, 0.000, 14:01:54.175
232, 67943.09, 22803.99, -187500.02, -187500.02, -187500.02, -181392.02, -187500.02, -187500.02, 0.000, 0.000, 0.000, 14:01:54.175
233, 70803.30, 25781.64, -187500.02, -187500.02, -187500.02, -181436.50, -187500.02, -187500.02, 0.000, 0.000, 0.000, 14:01:54.175
234, 70500.95, 25561.19, -187500.02, -187500.02, -187500.02, -181676.14, -187500.02, -187500.02, 0.000, 0.000, 0.000, 14:01:54.176
235, 68594.95, 23745.53, -187500.02, -187500.02, -187500.02, -181666.48, -187500.02, -187500.02, 0.000, 0.000, 0.000, 14:01:54.176
236, 65735.65, 20823.85, -187500.02, -187500.02, -187500.02, -181514.47, -187500.02, -187500.02, 0.000, 0.000, 0.000, 14:01:54.176
237, 67927.02, 22789.19, -187500.02, -187500.02, -187500.02, -181380.42, -187500.02, -187500.02, 0.000, 0.000, 0.000, 14:01:54.176
238, 70807.04, 25779.67, -187500.02, -187500.02, -187500.02, -181446.77, -187500.02, -187500.02, 0.004, -0.018, 1.030, 14:01:54.176
239, 70504.30, 25572.63, -187500.02, -187500.02, -187500.02, -181674.80, -187500.02, -187500.02, 0.000, 0.000, 0.000, 14:01:54.176
240, 68612.30, 23765.92, -187500.02, -187500.02, -187500.02, -181663.28, -187500.02, -187500.02, 0.000, 0.000, 0.000, 14:01:54.176
241, 65745.71, 20837.50, -187500.02, -187500.02, -187500.02, -181556.73, -187500.02, -187500.02, 0.000, 0.000, 0.000, 14:01:54.176
242, 67900.26, 22767.93, -187500.02, -187500.02, -187500.02, -181395.86, -187500.02, -187500.02, 0.000, 0.000, 0.000, 14:01:54.177
243, 70796.66, 25770.85, -187500.02, -187500.02, -187500.02, -181455.36, -187500.02, -187500.02, 0.000, 0.000, 0.000, 14:01:54.177
244, 70502.67, 25562.84, -187500.02, -187500.02, -187500.02, -181670.19, -187500.02, -187500.02, 0.000, 0.000, 0.000, 14:01:54.177
245, 68630.54, 23782.37, -187500.02, -187500.02, -187500.02, -181681.20, -187500.02, -187500.02, 0.000, 0.000, 0.000, 14:01:54.177
246, 65749.94, 20836.68, -187500.02, -187500.02, -187500.02, -181569.25, -187500.02, -187500.02, 0.000, 0.000, 0.000, 14:01:54.177
247, 67876.63, 22740.51, -187500.02, -187500.02, -187500.02, -181397.05, -187500.02, -187500.02, 0.000, 0.000, 0.000, 14:01:54.177
248, 70779.91, 25763.45, -187500.02, -187500.02, -187500.02, -181421.38, -187500.02, -187500.02, 0.006, -0.016, 1.026, 14:01:54.177
249, 70503.75, 25570.62, -187500.02, -187500.02, -187500.02, -181653.77, -187500.02, -187500.02, 0.000, 0.000, 0.000, 14:01:54.177
250, 68632.99, 23792.52, -187500.02, -187500.02, -187500.02, -181650.25, -187500.02, -187500.02, 0.000, 0.000, 0.000, 14:01:54.178
251, 65740.08, 20839.83, -187500.02, -187500.02, -187500.02, -181507.31, -187500.02, -187500.02, 0.000, 0.000, 0.000, 14:01:54.178
252, 67853.03, 22719.03, -187500.02, -187500.02, -187500.02, -181370.00, -187500.02, -187500.02, 0.000, 0.000, 0.000, 14:01:54.178
253, 70777.84, 25750.42, -187500.02, -187500.02, -187500.02, -181389.19, -187500.02, -187500.02, 0.000, 0.000, 0.000, 14:01:54.178
254, 70516.24, 25565.30, -187500.02, -187500.02, -187500.02, -181619.81, -187500.02, -187500.02, 0.000, 0.000, 0.000, 14:01:54.178
255, 68666.44, 23802.66, -187500.02, -187500.02, -187500.02, -181637.47, -187500.02, -187500.02, 0.000, 0.000, 0.000, 14:01:54.178
0, 65764.55, 20856.55, -187500.02, -187500.02, -187500.02, -181526.77, -187500.02, -187500.02, 0.000, 0.000, 0.000, 14:01:54.178
1, 67839.91, 22704.99, -187500.02, -187500.02, -187500.02, -181391.08, -187500.02, -187500.02, 0.000, 0.000, 0.000, 14:01:54.178
2, 70782.81, 25750.66, -187500.02, -187500.02, -187500.02, -181422.83, -187500.02, -187500.02, 0.004, -0.018, 1.028, 14:01:54.178
3, 70534.08, 25589.17, -187500.02, -187500.02, -187500.02, -181672.06, -187500.02, -187500.02, 0.000, 0.000, 0.000, 14:01:54.179
4, 68684.78, 23830.91, -187500.02, -187500.02, -187500.02, -181672.94, -187500.02, -187500.02, 0.000, 0.000, 0.000, 14:01:54.179
5, 65763.55, 20852.97, -187500.02, -187500.02, -187500.02, -181549.48, -187500.02, -187500.02, 0.000, 0.000, 0.000, 14:01:54.179
6, 67807.14, 22666.81, -187500.02, -187500.02, -187500.02, -181402.59, -187500.02, -187500.02, 0.000, 0.000, 0.000, 14:01:54.179
7, 70770.45, 25739.96, -187500.02, -187500.02, -187500.02, -181455.19, -187500.02, -187500.02, 0.000, 0.000, 0.000, 14:01:54.179
8, 70521.27, 25579.92, -187500.02, -187500.02, -187500.02, -181670.72, -187500.02, -187500.02, 0.000, 0.000, 0.000, 14:01:54.179
9, 68689.57, 23841.40, -187500.02, -187500.02, -187500.02, -181680.31, -187500.02, -187500.02, 0.000, 0.000, 0.000, 14:01:54.179
10, 65766.07, 20864.30, -187500.02, -187500.02, -187500.02, -181559.44, -187500.02, -187500.02, 0.000, 0.000, 0.000, 14:01:54.179
11, 67784.21, 22649.07, -187500.02, -187500.02, -187500.02, -181419.88, -187500.02, -187500.02, 0.000, 0.000, 0.000, 14:01:54.180
12, 70759.98, 25733.14, -187500.02, -187500.02, -187500.02, -181478.36, -187500.02, -187500.02, 0.004, -0.016, 1.030, 14:01:54.180
13, 70530.57, 25595.14, -187500.02, -187500.02, -187500.02, -181721.33, -187500.02, -187500.02, 0.000, 0.000, 0.000, 14:01:54.180
14, 68707.34, 23860.62, -187500.02, -187500.02, -187500.02, -181725.64, -187500.02, -187500.02, 0.000, 0.000, 0.000, 14:01:54.180
15, 65773.42, 20877.82, -187500.02, -187500.02, -187500.02, -181616.33, -187500.02, -187500.02, 0.000, 0.000, 0.000, 14:01:54.180
16, 67765.57, 22631.52, -187500.02, -187500.02, -187500.02, -181451.64, -187500.02, -187500.02, 0.000, 0.000, 0.000, 14:01:54.180
17, 70758.00, 25729.79, -187500.02, -187500.02, -187500.02, -181476.80, -187500.02, -187500.02, 0.000, 0.000, 0.000, 14:01:54.180
18, 70530.28, 25598.07, -187500.02, -187500.02, -187500.02, -181715.73, -187500.02, -187500.02, 0.000, 0.000, 0.000, 14:01:54.180
19, 68719.56, 23866.16, -187500.02, -187500.02, -187500.02, -181705.30, -187500.02, -187500.02, 0.000, 0.000, 0.000, 14:01:54.180
20, 65779.04, 20885.63, -187500.02, -187500.02, -187500.02, -181560.22, -187500.02, -187500.02, 0.000, 0.000, 0.000, 14:01:54.181
21, 67759.38, 22632.88, -187500.02, -187500.02, -187500.02, -181448.81, -187500.02, -187500.02, 0.000, 0.000, 0.000, 14:01:54.181
22, 70761.28, 25738.90, -187500.02, -187500.02, -187500.02, -181472.73, -187500.02, -187500.02, 0.006, -0.016, 1.032, 14:01:54.181
23, 70543.34, 25615.66, -187500.02, -187500.02, -187500.02, -181689.92, -187500.02, -187500.02, 0.000, 0.000, 0.000, 14:01:54.181
24, 68747.66, 23905.08, -187500.02, -187500.02, -187500.02, -181690.89, -187500.02, -187500.02, 0.000, 0.000, 0.000, 14:01:54.181
25, 65791.89, 20906.10, -187500.02, -187500.02, -187500.02, -181559.50, -187500.02, -187500.02, 0.000, 0.000, 0.000, 14:01:54.181
26, 67732.55, 22608.81, -187500.02, -187500.02, -187500.02, -181406.66, -187500.02, -187500.02, 0.000, 0.000, 0.000, 14:01:54.181
27, 70763.74, 25731.06, -187500.02, -187500.02, -187500.02, -181458.36, -187500.02, -187500.02, 0.000, 0.000, 0.000, 14:01:54.181
28, 70564.74, 25627.35, -187500.02, -187500.02, -187500.02, -181707.19, -187500.02, -187500.02, 0.000, 0.000, 0.000, 14:01:54.182
29, 68782.30, 23943.03, -187500.02, -187500.02, -187500.02, -181772.05, -187500.02, -187500.02, 0.000, 0.000, 0.000, 14:01:54.182
30, 65806.30, 20922.55, -187500.02, -187500.02, -187500.02, -181653.98, -187500.02, -187500.02, 0.000, 0.000, 0.000, 14:01:54.182
31, 67704.68, 22595.18, -187500.02, -187500.02, -187500.02, -181457.48, -187500.02, -187500.02, 0.000, 0.000, 0.000, 14:01:54.182
32, 70743.23, 25732.96, -187500.02, -187500.02, -187500.02, -181486.28, -187500.02, -187500.02, 0.008, -0.018, 1.030, 14:01:54.182
33, 70547.18, 25619.77, -187500.02, -187500.02, -187500.02, -181708.92, -187500.02, -187500.02, 0.000, 0.000, 0.000, 14:01:54.182
34, 68765.77, 23923.59, -187500.02, -187500.02, -187500.02, -181682.81, -187500.02, -187500.02, 0.000, 0.000, 0.000, 14:01:54.182
35, 65802.15, 20917.52, -187500.02, -187500.02, -187500.02, -181576.98, -187500.02, -187500.02, 0.000, 0.000, 0.000, 14:01:54.182
36, 67688.48, 22562.65, -187500.02, -187500.02, -187500.02, -181463.81, -187500.02, -187500.02, 0.000, 0.000, 0.000, 14:01:54.183
37, 70736.36, 25701.53, -187500.02, -187500.02, -187500.02, -181506.42, -187500.02, -187500.02, 0.000, 0.000, 0.000, 14:01:54.183
38, 70545.30, 25602.11, -187500.02, -187500.02, -187500.02, -181711.56, -187500.02, -187500.02, 0.000, 0.000, 0.000, 14:01:54.183
39, 68786.35, 23940.71, -187500.02, -187500.02, -187500.02, -181724.58, -187500.02, -187500.02, 0.000, 0.000, 0.000, 14:01:54.183
40, 65809.10, 20924.29, -187500.02, -187500.02, -187500.02, -181610.80, -187500.02, -187500.02, 0.000, 0.000, 0.000, 14:01:54.183
41, 67659.09, 22540.71, -187500.02, -187500.02, -187500.02, -181472.28, -187500.02, -187500.02, 0.000, 0.000, 0.000, 14:01:54.183
42, 70730.33, 25701.62, -187500.02, -187500.02, -187500.02, -181510.95, -187500.02, -187500.02, 0.004, -0.012, 1.026, 14:01:54.183
43, 70561.28, 25625.74, -187500.02, -187500.02, -187500.02, -181749.83, -187500.02, -187500.02, 0.000, 0.000, 0.000, 14:01:54.183
44, 68805.55, 23964.44, -187500.02, -187500.02, -187500.02, -181762.39, -187500.02, -187500.02, 0.000, 0.000, 0.000, 14:01:54.183
45, 65800.72, 20914.50, -187500.02, -187500.02, -187500.02, -181620.66, -187500.02, -187500.02, 0.000, 0.000, 0.000, 14:01:54.184
46, 67625.11, 22497.41, -187500.02, -187500.02, -187500.02, -181437.02, -187500.02, -187500.02, 0.000, 0.000, 0.000, 14:01:54.184
47, 70718.57, 25687.09, -187500.02, -187500.02, -187500.02, -181497.64, -187500.02, -187500.02, 0.000, 0.000, 0.000, 14:01:54.184
48, 70559.60, 25619.70, -187500.02, -187500.02, -187500.02, -181753.42, -187500.02, -187500.02, 0.000, 0.000, 0.000, 14:01:54.184
49, 68815.23, 23963.84, -187500.02, -187500.02, -187500.02, -181783.31, -187500.02, -187500.02, 0.000, 0.000, 0.000, 14:01:54.184
50, 65806.28, 20926.84, -187500.02, -187500.02, -187500.02, -181667.94, -187500.02, -187500.02, 0.000, 0.000, 0.000, 14:01:54.184
51, 67595.25, 22477.47, -187500.02, -187500.02, -187500.02, -181514.17, -187500.02, -187500.02, 0.000, 0.000, 0.000, 14:01:54.184
52, 70688.57, 25650.37, -187500.02, -187500.02, -187500.02, -181516.56, -187500.02, -187500.02, 0.004, -0.020, 1.032, 14:01:54.184
53, 70535.38, 25594.60, -187500.02, -187500.02, -187500.02, -181730.45, -187500.02, -187500.02, 0.000, 0.000, 0.000, 14:01:54.185
54, 68821.98, 23962.86, -187500.02, -187500.02, -187500.02, -181794.59, -187500.02, -187500.02, 0.000, 0.000, 0.000, 14:01:54.185
55, 65807.73, 20910.12, -187500.02, -187500.02, -187500.02, -181705.73, -187500.02, -187500.02, 0.000, 0.000, 0.000, 14:01:54.185
56, 67565.61, 22422.33, -187500.02, -187500.02, -187500.02, -181524.25, -187500.02, -187500.02, 0.000, 0.000, 0.000, 14:01:54.185
57, 70676.52, 25625.07, -187500.02, -187500.02, -187500.02, -181535.23, -187500.02, -187500.02, 0.000, 0.000, 0.000, 14:01:54.185
58, 70524.09, 25569.72, -187500.02, -187500.02, -187500.02, -181744.08, -187500.02, -187500.02, 0.000, 0.000, 0.000, 14:01:54.185
59, 68804.57, 23932.10, -187500.02, -187500.02, -187500.02, -181818.30, -187500.02, -187500.02, 0.000, 0.000, 0.000, 14:01:54.185
60, 65775.23, 20873.36, -187500.02, -187500.02, -187500.02, -181709.81, -187500.02, -187500.02, 0.000, 0.000, 0.000, 14:01:54.185
61, 67508.55, 22373.29, -187500.02, -187500.02, -187500.02, -181543.88, -187500.02, -187500.02, 0.000, 0.000, 0.000, 14:01:54.185
62, 70631.11, 25579.43, -187500.02, -187500.02, -187500.02, -181573.52, -187500.02, -187500.02, 0.010, -0.022, 1.036, 14:01:54.186
63, 70484.86, 25528.75, -187500.02, -187500.02, -187500.02, -181771.22, -187500.02, -187500.02, 0.000, 0.000, 0.000, 14:01:54.186
64, 68778.04, 23892.63, -187500.02, -187500.02, -187500.02, -181779.95, -187500.02, -187500.02, 0.000, 0.000, 0.000, 14:01:54.186
65, 65758.52, 20835.92, -187500.02, -187500.02, -187500.02, -181711.81, -187500.02, -187500.02, 0.000, 0.000, 0.000, 14:01:54.186
66, 67447.62, 22286.50, -187500.02, -187500.02, -187500.02, -181583.44, -187500.02, -187500.02, 0.000, 0.000, 0.000, 14:01:54.186
67, 70581.51, 25512.75, -187500.02, -187500.02, -187500.02, -181559.66, -187500.02, -187500.02, 0.000, 0.000, 0.000, 14:01:54.186
68, 70464.84, 25491.63, -187500.02, -187500.02, -187500.02, -181799.53, -187500.02, -187500.02, 0.000, 0.000, 0.000, 14:01:54.186
69, 68755.13, 23869.11, -187500.02, -187500.02, -187500.02, -181818.14, -187500.02, -187500.02, 0.000, 0.000, 0.000, 14:01:54.186
70, 65723.20, 20801.45, -187500.02, -187500.02, -187500.02, -181714.31, -187500.02, -187500.02, 0.000, 0.000, 0.000, 14:01:54.187
71, 67396.36, 22228.94, -187500.02, -187500.02, -187500.02, -181546.92, -187500.02, -187500.02, 0.000, 0.000, 0.000, 14:01:54.187
72, 70545.97, 25467.76, -187500.02, -187500.02, -187500.02, -181568.98, -187500.02, -187500.02, 0.006, -0.020, 1.026, 14:01:54.187
73, 70429.14, 25446.99, -187500.02, -187500.02, -187500.02, -181776.72, -187500.02, -187500.02, 0.000, 0.000, 0.000, 14:01:54.654
74, 68743.32, 23839.70, -187500.02, -187500.02, -187500.02, -181819.52, -187500.02, -187500.02, 0.000, 0.000, 0.000, 14:01:54.655
75, 65688.84, 20757.66, -187500.02, -187500.02, -187500.02, -181712.02, -187500.02, -187500.02, 0.000, 0.000, 0.000, 14:01:54.655
76, 67332.15, 22159.05, -187500.02, -187500.02, -187500.02, -181527.03, -187500.02, -187500.02, 0.000, 0.000, 0.000, 14:01:54.655
77, 70504.69, 25424.35, -187500.02, -187500.02, -187500.02, -181532.41, -187500.02, -187500.02, 0.000, 0.000, 0.000, 14:01:54.655
78, 70413.09, 25443.37, -187500.02, -187500.02, -187500.02, -181782.59, -187500.02, -187500.02, 0.000, 0.000, 0.000, 14:01:54.655
79, 68742.74, 23853.42, -187500.02, -187500.02, -187500.02, -181828.50, -187500.02, -187500.02, 0.000, 0.000, 0.000, 14:01:54.655
80, 65693.97, 20777.76, -187500.02, -187500.02, -187500.02, -181734.50, -187500.02, -187500.02, 0.000, 0.000, 0.000, 14:01:54.656
81, 67308.23, 22152.84, -187500.02, -187500.02, -187500.02, -181564.95, -187500.02, -187500.02, 0.000, 0.000, 0.000, 14:01:54.656
82, 70502.67, 25421.15, -187500.02, -187500.02, -187500.02, -181573.58, -187500.02, -187500.02, 0.010, -0.022, 1.030, 14:01:54.656
83, 70427.64, 25431.77, -187500.02, -187500.02, -187500.02, -181845.11, -187500.02, -187500.02, 0.000, 0.000, 0.000, 14:01:54.656
84, 68756.51, 23856.44, -187500.02, -187500.02, -187500.02, -181864.34, -187500.02, -187500.02, 0.000, 0.000, 0.000, 14:01:54.657
85, 65696.98, 20778.00, -187500.02, -187500.02, -187500.02, -181741.30, -187500.02, -187500.02, 0.000, 0.000, 0.000, 14:01:54.657
86, 67300.14, 22143.78, -187500.02, -187500.02, -187500.02, -181607.63, -187500.02, -187500.02, 0.000, 0.000, 0.000, 14:01:54.657
87, 70506.23, 25438.34, -187500.02, -187500.02, -187500.02, -181605.89, -187500.02, -187500.02, 0.000, 0.000, 0.000, 14:01:54.657
88, 70441.16, 25464.60, -187500.02, -187500.02, -187500.02, -181845.30, -187500.02, -187500.02, 0.000, 0.000, 0.000, 14:01:54.657
89, 68788.19, 23887.53, -187500.02, -187500.02, -187500.02, -181849.00, -187500.02, -187500.02, 0.000, 0.000, 0.000, 14:01:54.658
90, 65729.68, 20810.86, -187500.02, -187500.02, -187500.02, -181743.09, -187500.02, -187500.02, 0.000, 0.000, 0.000, 14:01:54.658
91, 67299.06, 22140.81, -187500.02, -187500.02, -187500.02, -181562.77, -187500.02, -187500.02, 0.000, 0.000, 0.000, 14:01:54.658
92, 70516.29, 25438.59, -187500.02, -187500.02, -187500.02, -181549.95, -187500.02, -187500.02, 0.002, -0.020, 1.026, 14:01:54.658
93, 70469.39, 25487.80, -187500.02, -187500.02, -187500.02, -181796.92, -187500.02, -187500.02, 0.000, 0.000, 0.000, 14:01:54.658
94, 68830.20, 23936.17, -187500.02, -187500.02, -187500.02, -181829.05, -187500.02, -187500.02, 0.000, 0.000, 0.000, 14:01:54.659
95, 65775.73, 20860.23, -187500.02, -187500.02, -187500.02, -181728.03, -187500.02, -187500.02, 0.000, 0.000, 0.000, 14:01:54.659
96, 67317.26, 22167.19, -187500.02, -187500.02, -187500.02, -181579.67, -187500.02, -187500.02, 0.000, 0.000, 0.000, 14:01:54.659
97, 70548.83, 25478.28, -187500.02, -187500.02, -187500.02, -181588.22, -187500.02, -187500.02, 0.000, 0.000, 0.000, 14:01:54.659
98, 70499.91, 25532.44, -187500.02, -187500.02, -187500.02, -181839.53, -187500.02, -187500.02, 0.000, 0.000, 0.000, 14:01:54.659
99, 68860.02, 23974.35, -187500.02, -187500.02, -187500.02, -181818.30, -187500.02, -187500.02, 0.000, 0.000, 0.000, 14:01:54.659
100, 65794.91, 20889.16, -187500.02, -187500.02, -187500.02, -181673.13, -187500.02, -187500.02, 0.000, 0.000, 0.000, 14:01:54.659
101, 67326.27, 22170.11, -187500.02, -187500.02, -187500.02, -181547.59, -187500.02, -187500.02, 0.008, -0.010, 1.032, 14:01:54.659
102, 70568.57, 25502.69, -187500.02, -187500.02, -187500.02, -181563.45, -187500.02, -187500.02, 0.000, 0.000, 0.000, 14:01:54.660
103, 70536.91, 25567.78, -187500.02, -187500.02, -187500.02, -181795.52, -187500.02, -187500.02, 0.000, 0.000, 0.000, 14:01:54.660
104, 68923.23, 24030.94, -187500.02, -187500.02, -187500.02, -181826.66, -187500.02, -187500.02, 0.000, 0.000, 0.000, 14:01:54.660
105, 65847.77, 20941.10, -187500.02, -187500.02, -187500.02, -181721.95, -187500.02, -187500.02, 0.000, 0.000, 0.000, 14:01:54.660
106, 67331.74, 22194.57, -187500.02, -187500.02, -187500.02, -181593.75, -187500.02, -187500.02, 0.000, 0.000, 0.000, 14:01:54.660
107, 70584.41, 25518.49, -187500.02, -187500.02, -187500.02, -181585.63, -187500.02, -187500.02, 0.000, 0.000, 0.000, 14:01:54.660
108, 70570.63, 25598.78, -187500.02, -187500.02, -187500.02, -181812.38, -187500.02, -187500.02, 0.000, 0.000, 0.000, 14:01:54.660
109, 68979.27, 24091.13, -187500.02, -187500.02, -187500.02, -181921.20, -187500.02, -187500.02, 0.000, 0.000, 0.000, 14:01:54.660
110, 65882.93, 20986.19, -187500.02, -187500.02, -187500.02, -181795.66, -187500.02, -187500.02, 0.000, 0.000, 0.000, 14:01:54.661
111, 67325.64, 22185.74, -187500.02, -187500.02, -187500.02, -181601.14, -187500.02, -187500.02, 0.012, -0.014, 1.030, 14:01:54.661
112, 70606.25, 25537.74, -187500.02, -187500.02, -187500.02, -181642.31, -187500.02, -187500.02, 0.000, 0.000, 0.000, 14:01:54.661
113, 70599.75, 25635.91, -187500.02, -187500.02, -187500.02, -181900.50, -187500.02, -187500.02, 0.000, 0.000, 0.000, 14:01:54.661
114, 68992.03, 24118.27, -187500.02, -187500.02, -187500.02, -181923.20, -187500.02, -187500.02, 0.000, 0.000, 0.000, 14:01:54.661
115, 65891.73, 21009.81, -187500.02, -187500.02, -187500.02, -181785.92, -187500.02, -187500.02, 0.000, 0.000, 0.000, 14:01:54.661
116, 67312.01, 22179.26, -187500.02, -187500.02, -187500.02, -181627.94, -187500.02, -187500.02, 0.000, 0.000, 0.000, 14:01:54.661
117, 70587.63, 25529.04, -187500.02, -187500.02, -187500.02, -181643.69, -187500.02, -187500.02, 0.000, 0.000, 0.000, 14:01:54.661
118, 70588.55, 25630.77, -187500.02, -187500.02, -187500.02, -181886.06, -187500.02, -187500.02, 0.000, 0.000, 0.000, 14:01:54.662
119, 68998.02, 24120.50, -187500.02, -187500.02, -187500.02, -181932.00, -187500.02, -187500.02, 0.000, 0.000, 0.000, 14:01:54.662
120, 65906.04, 21021.28, -187500.02, -187500.02, -187500.02, -181833.05, -187500.02, -187500.02, 0.000, 0.000, 0.000, 14:01:54.662
121, 67295.18, 22161.89, -187500.02, -187500.02, -187500.02, -181638.34, -187500.02, -187500.02, 0.014, -0.012, 1.026, 14:01:54.662
122, 70595.57, 25530.36, -187500.02, -187500.02, -187500.02, -181643.09, -187500.02, -187500.02, 0.000, 0.000, 0.000, 14:01:54.662
123, 70610.34, 25665.05, -187500.02, -187500.02, -187500.02, -181899.98, -187500.02, -187500.02, 0.000, 0.000, 0.000, 14:01:54.662
124, 69032.34, 24170.68, -187500.02, -187500.02, -187500.02, -181933.42, -187500.02, -187500.02, 0.000, 0.000, 0.000, 14:01:54.662
125, 65932.84, 21056.59, -187500.02, -187500.02, -187500.02, -181796.92, -187500.02, -187500.02, 0.000, 0.000, 0.000, 14:01:54.662
126, 67300.63, 22169.11, -187500.02, -187500.02, -187500.02, -181630.84, -187500.02, -187500.02, 0.000, 0.000, 0.000, 14:01:54.662
127, 70607.02, 25548.47, -187500.02, -187500.02, -187500.02, -181636.84, -187500.02, -187500.02, 0.000, 0.000, 0.000, 14:01:54.663
128, 70628.90, 25679.45, -187500.02, -187500.02, -187500.02, -181870.22, -187500.02, -187500.02, 0.000, 0.000, 0.000, 14:01:54.663
129, 69050.08, 24178.31, -187500.02, -187500.02, -187500.02, -181878.86, -187500.02, -187500.02, 0.000, 0.000, 0.000, 14:01:54.663
130, 65950.70, 21068.75, -187500.02, -187500.02, -187500.02, -181759.11, -187500.02, -187500.02, 0.000, 0.000, 0.000, 14:01:54.663
131, 67291.47, 22162.96, -187500.02, -187500.02, -187500.02, -181629.95, -187500.02, -187500.02, 0.016, -0.018, 1.022, 14:01:54.663
132, 70607.73, 25553.25, -187500.02, -187500.02, -187500.02, -181633.22, -187500.02, -187500.02, 0.000, 0.000, 0.000, 14:01:54.663
133, 70640.02, 25694.67, -187500.02, -187500.02, -187500.02, -181883.53, -187500.02, -187500.02, 0.000, 0.000, 0.000, 14:01:54.663
134, 69077.44, 24208.68, -187500.02, -187500.02, -187500.02, -181936.64, -187500.02, -187500.02, 0.000, 0.000, 0.000, 14:01:54.663
135, 65963.41, 21084.49, -187500.02, -187500.02, -187500.02, -181814.45, -187500.02, -187500.02, 0.000, 0.000, 0.000, 14:01:54.664
136, 67266.55, 22138.24, -187500.02, -187500.02, -187500.02, -181654.03, -187500.02, -187500.02, 0.000, 0.000, 0.000, 14:01:54.664
137, 70597.05, 25541.94, -187500.02, -187500.02, -187500.02, -181651.25, -187500.02, -187500.02, 0.000, 0.000, 0.000, 14:01:54.664
138, 70650.71, 25697.11, -187500.02, -187500.02, -187500.02, -181891.47, -187500.02, -187500.02, 0.000, 0.000, 0.000, 14:01:54.664
139, 69102.78, 24228.06, -187500.02, -187500.02, -187500.02, -181937.45, -187500.02, -187500.02, 0.000, 0.000, 0.000, 14:01:54.664
140, 65984.98, 21107.02, -187500.02, -187500.02, -187500.02, -181819.80, -187500.02, -187500.02, 0.000, 0.000, 0.000, 14:01:54.664
141, 67256.09, 22127.89, -187500.02, -187500.02, -187500.02, -181676.56, -187500.02, -187500.02, 0.008, -0.018, 1.028, 14:01:54.664
142, 70588.84, 25531.53, -187500.02, -187500.02, -187500.02, -181671.17, -187500.02, -187500.02, 0.000, 0.000, 0.000, 14:01:54.664
143, 70648.25, 25705.06, -187500.02, -187500.02, -187500.02, -181907.50, -187500.02, -187500.02, 0.000, 0.000, 0.000, 14:01:54.665
144, 69107.52, 24238.59, -187500.02, -187500.02, -187500.02, -181934.00, -187500.02, -187500.02, 0.000, 0.000, 0.000, 14:01:54.665
145, 65994.20, 21120.56, -187500.02, -187500.02, -187500.02, -181797.59, -187500.02, -187500.02, 0.000, 0.000, 0.000, 14:01:54.665
146, 67242.67, 22115.75, -187500.02, -187500.02, -187500.02, -181680.61, -187500.02, -187500.02, 0.000, 0.000, 0.000, 14:01:54.665
147, 70596.17, 25538.41, -187500.02, -187500.02, -187500.02, -181694.53, -187500.02, -187500.02, 0.000, 0.000, 0.000, 14:01:54.665
148, 70663.05, 25718.61, -187500.02, -187500.02, -187500.02, -181903.77, -187500.02, -187500.02, 0.000, 0.000, 0.000, 14:01:54.665
