%OpenBCI Raw EEG Data
%
%Sample Rate = 250.0 Hz
%First Column = SampleIndex
%Last Column = Timestamp 
%Other Columns = EEG data in microvolts followed by Accel Data (in G) interleaved with Aux Data
0, 49631.40, 68555.68, -187500.02, -187500.02, -165909.44, -187500.02, -187500.02, -187500.02, 0.016, -0.014, 1.022, 17:58:25.850
1, 50166.72, 69385.89, -187500.02, -187500.02, -166021.00, -187500.02, -187500.02, -187500.02, 0.000, 0.000, 0.000, 17:58:25.850
2, 50416.46, 69422.05, -187500.02, -187500.02, -166038.19, -187500.02, -187500.02, -187500.02, 0.000, 0.000, 0.000, 17:58:25.850
3, 50308.61, 68962.48, -187500.02, -187500.02, -165924.70, -187500.02, -187500.02, -187500.02, 0.000, 0.000, 0.000, 17:58:25.850
4, 49870.34, 68168.68, -187500.02, -187500.02, -165761.00, -187500.02, -187500.02, -187500.02, 0.000, 0.000, 0.000, 17:58:25.850
5, 49632.09, 68555.91, -187500.02, -187500.02, -165857.89, -187500.02, -187500.02, -187500.02, 0.000, 0.000, 0.000, 17:58:25.851
6, 50174.21, 69398.79, -187500.02, -187500.02, -166024.80, -187500.02, -187500.02, -187500.02, 0.000, 0.000, 0.000, 17:58:25.851
7, 50433.09, 69440.14, -187500.02, -187500.02, -166100.25, -187500.02, -187500.02, -187500.02, 0.024, -0.024, 1.036, 17:58:25.851
8, 50327.77, 68988.27, -187500.02, -187500.02, -166001.61, -187500.02, -187500.02, -187500.02, 0.000, 0.000, 0.000, 17:58:25.851
9, 49878.83, 68177.11, -187500.02, -187500.02, -165819.19, -187500.02, -187500.02, -187500.02, 0.000, 0.000, 0.000, 17:58:25.851
10, 49636.25, 68553.87, -187500.02, -187500.02, -165951.38, -187500.02, -187500.02, -187500.02, 0.000, 0.000, 0.000, 17:58:25.852
11, 50169.58, 69395.30, -187500.02, -187500.02, -166107.75, -187500.02, -187500.02, -187500.02, 0.000, 0.000, 0.000, 17:58:25.852
12, 50429.98, 69441.34, -187500.02, -187500.02, -166140.91, -187500.02, -187500.02, -187500.02, 0.000, 0.000, 0.000, 17:58:25.852
13, 50317.82, 68982.60, -187500.02, -187500.02, -166019.97, -187500.02, -187500.02, -187500.02, 0.000, 0.000, 0.000, 17:58:25.852
14, 49872.26, 68173.00, -187500.02, -187500.02, -165831.63, -187500.02, -187500.02, -187500.02, 0.000, 0.000, 0.000, 17:58:25.852
15, 49616.49, 68530.31, -187500.02, -187500.02, -165896.98, -187500.02, -187500.02, -187500.02, 0.000, 0.000, 0.000, 17:58:25.852
16, 50148.48, 69375.45, -187500.02, -187500.02, -166033.58, -187500.02, -187500.02, -187500.02, 0.016, -0.022, 1.032, 17:58:25.853
17, 50410.54, 69424.25, -187500.02, -187500.02, -166062.09, -187500.02, -187500.02, -187500.02, 0.000, 0.000, 0.000, 17:58:25.853
18, 50307.76, 68979.05, -187500.02, -187500.02, -165991.38, -187500.02, -187500.02, -187500.02, 0.000, 0.000, 0.000, 17:58:25.853
19, 49864.10, 68164.39, -187500.02, -187500.02, -165805.64, -187500.02, -187500.02, -187500.02, 0.000, 0.000, 0.000, 17:58:25.853
20, 49607.62, 68512.03, -187500.02, -187500.02, -165879.31, -187500.02, -187500.02, -187500.02, 0.000, 0.000, 0.000, 17:58:25.853
21, 50152.93, 69377.80, -187500.02, -187500.02, -166051.89, -187500.02, -187500.02, -187500.02, 0.000, 0.000, 0.000, 17:58:25.854
22, 50419.70, 69435.87, -187500.02, -187500.02, -166086.84, -187500.02, -187500.02, -187500.02, 0.000, 0.000, 0.000, 17:58:25.854
23, 50310.60, 68985.91, -187500.02, -187500.02, -165950.09, -187500.02, -187500.02, -187500.02, 0.000, 0.000, 0.000, 17:58:25.854
24, 49879.21, 68178.45, -187500.02, -187500.02, -165792.66, -187500.02, -187500.02, -187500.02, 0.000, 0.000, 0.000, 17:58:25.854
25, 49622.28, 68522.09, -187500.02, -187500.02, -165927.41, -187500.02, -187500.02, -187500.02, 0.000, 0.000, 0.000, 17:58:25.854
26, 50144.19, 69372.15, -187500.02, -187500.02, -166083.45, -187500.02, -187500.02, -187500.02, 0.014, -0.016, 1.020, 17:58:25.854
27, 50412.21, 69426.59, -187500.02, -187500.02, -166117.72, -187500.02, -187500.02, -187500.02, 0.000, 0.000, 0.000, 17:58:25.855
28, 50310.58, 68986.63, -187500.02, -187500.02, -166023.75, -187500.02, -187500.02, -187500.02, 0.000, 0.000, 0.000, 17:58:25.855
29, 49873.76, 68165.58, -187500.02, -187500.02, -165830.31, -187500.02, -187500.02, -187500.02, 0.000, 0.000, 0.000, 17:58:25.855
30, 49597.63, 68488.76, -187500.02, -187500.02, -165899.09, -187500.02, -187500.02, -187500.02, 0.000, 0.000, 0.000, 17:58:25.855
31, 50132.28, 69364.28, -187500.02, -187500.02, -166054.75, -187500.02, -187500.02, -187500.02, 0.000, 0.000, 0.000, 17:58:25.855
32, 50406.45, 69425.84, -187500.02, -187500.02, -166086.59, -187500.02, -187500.02, -187500.02, 0.000, 0.000, 0.000, 17:58:25.855
33, 50300.70, 68982.02, -187500.02, -187500.02, -165934.78, -187500.02, -187500.02, -187500.02, 0.000, 0.000, 0.000, 17:58:25.855
34, 49876.87, 68175.70, -187500.02, -187500.02, -165749.63, -187500.02, -187500.02, -187500.02, 0.000, 0.000, 0.000, 17:58:25.855
35, 49609.38, 68499.38, -187500.02, -187500.02, -165879.16, -187500.02, -187500.02, -187500.02, 0.000, 0.000, 0.000, 17:58:25.856
36, 50134.43, 69366.60, -187500.02, -187500.02, -166018.78, -187500.02, -187500.02, -187500.02, 0.010, -0.014, 1.020, 17:58:25.856
37, 50424.30, 69443.16, -187500.02, -187500.02, -166093.27, -187500.02, -187500.02, -187500.02, 0.000, 0.000, 0.000, 17:58:25.856
38, 50326.36, 69009.35, -187500.02, -187500.02, -166015.03, -187500.02, -187500.02, -187500.02, 0.000, 0.000, 0.000, 17:58:25.856
39, 49901.48, 68192.40, -187500.02, -187500.02, -165853.20, -187500.02, -187500.02, -187500.02, 0.000, 0.000, 0.000, 17:58:25.856
40, 49611.06, 68489.16, -187500.02, -187500.02, -165964.69, -187500.02, -187500.02, -187500.02, 0.000, 0.000, 0.000, 17:58:25.856
41, 50133.13, 69361.77, -187500.02, -187500.02, -166087.73, -187500.02, -187500.02, -187500.02, 0.000, 0.000, 0.000, 17:58:25.856
42, 50419.86, 69440.23, -187500.02, -187500.02, -166126.36, -187500.02, -187500.02, -187500.02, 0.000, 0.000, 0.000, 17:58:25.856
43, 50319.88, 69010.52, -187500.02, -187500.02, -166007.39, -187500.02, -187500.02, -187500.02, 0.000, 0.000, 0.000, 17:58:25.856
44, 49889.09, 68181.29, -187500.02, -187500.02, -165809.19, -187500.02, -187500.02, -187500.02, 0.000, 0.000, 0.000, 17:58:25.857
45, 49594.34, 68462.07, -187500.02, -187500.02, -165870.88, -187500.02, -187500.02, -187500.02, 0.000, 0.000, 0.000, 17:58:25.857
46, 50120.30, 69347.56, -187500.02, -187500.02, -166002.67, -187500.02, -187500.02, -187500.02, 0.008, -0.012, 1.022, 17:58:25.857
47, 50415.59, 69432.96, -187500.02, -187500.02, -166031.86, -187500.02, -187500.02, -187500.02, 0.000, 0.000, 0.000, 17:58:25.857
48, 50324.70, 69010.85, -187500.02, -187500.02, -165934.19, -187500.02, -187500.02, -187500.02, 0.000, 0.000, 0.000, 17:58:25.857
49, 49897.43, 68180.80, -187500.02, -187500.02, -165735.41, -187500.02, -187500.02, -187500.02, 0.000, 0.000, 0.000, 17:58:25.857
50, 49599.04, 68461.96, -187500.02, -187500.02, -165852.11, -187500.02, -187500.02, -187500.02, 0.000, 0.000, 0.000, 17:58:25.857
51, 50132.30, 69360.75, -187500.02, -187500.02, -166047.33, -187500.02, -187500.02, -187500.02, 0.000, 0.000, 0.000, 17:58:25.857
52, 50436.04, 69454.71, -187500.02, -187500.02, -166094.63, -187500.02, -187500.02, -187500.02, 0.000, 0.000, 0.000, 17:58:25.858
53, 50344.13, 69040.13, -187500.02, -187500.02, -166027.23, -187500.02, -187500.02, -187500.02, 0.000, 0.000, 0.000, 17:58:25.858
54, 49912.67, 68198.14, -187500.02, -187500.02, -165839.28, -187500.02, -187500.02, -187500.02, 0.000, 0.000, 0.000, 17:58:25.858
55, 49600.40, 68456.55, -187500.02, -187500.02, -165914.00, -187500.02, -187500.02, -187500.02, 0.000, 0.000, 0.000, 17:58:25.858
56, 50122.98, 69355.80, -187500.02, -187500.02, -166068.36, -187500.02, -187500.02, -187500.02, 0.010, -0.010, 1.026, 17:58:25.858
57, 50429.36, 69454.22, -187500.02, -187500.02, -166121.80, -187500.02, -187500.02, -187500.02, 0.000, 0.000, 0.000, 17:58:25.858
58, 50337.16, 69033.14, -187500.02, -187500.02, -166001.45, -187500.02, -187500.02, -187500.02, 0.000, 0.000, 0.000, 17:58:25.858
59, 49912.36, 68192.84, -187500.02, -187500.02, -165787.22, -187500.02, -187500.02, -187500.02, 0.000, 0.000, 0.000, 17:58:25.858
60, 49604.96, 68448.77, -187500.02, -187500.02, -165907.41, -187500.02, -187500.02, -187500.02, 0.000, 0.000, 0.000, 17:58:25.858
61, 50121.08, 69350.48, -187500.02, -187500.02, -166065.34, -187500.02, -187500.02, -187500.02, 0.000, 0.000, 0.000, 17:58:25.859
62, 50431.64, 69456.41, -187500.02, -187500.02, -166100.17, -187500.02, -187500.02, -187500.02, 0.000, 0.000, 0.000, 17:58:25.859
63, 50345.38, 69046.64, -187500.02, -187500.02, -165984.45, -187500.02, -187500.02, -187500.02, 0.000, 0.000, 0.000, 17:58:25.860
64, 49934.15, 68212.85, -187500.02, -187500.02, -165802.58, -187500.02, -187500.02, -187500.02, 0.000, 0.000, 0.000, 17:58:25.860
65, 49595.43, 68435.14, -187500.02, -187500.02, -165893.66, -187500.02, -187500.02, -187500.02, 0.000, 0.000, 0.000, 17:58:25.860
66, 50103.56, 69339.04, -187500.02, -187500.02, -166050.81, -187500.02, -187500.02, -187500.02, 0.014, -0.010, 1.024, 17:58:25.860
67, 50435.10, 69463.99, -187500.02, -187500.02, -166121.63, -187500.02, -187500.02, -187500.02, 0.000, 0.000, 0.000, 17:58:25.860
68, 50355.59, 69059.42, -187500.02, -187500.02, -166056.31, -187500.02, -187500.02, -187500.02, 0.000, 0.000, 0.000, 17:58:25.860
69, 49937.44, 68209.68, -187500.02, -187500.02, -165885.19, -187500.02, -187500.02, -187500.02, 0.000, 0.000, 0.000, 17:58:25.861
70, 49593.11, 68428.27, -187500.02, -187500.02, -165993.41, -187500.02, -187500.02, -187500.02, 0.000, 0.000, 0.000, 17:58:25.861
71, 50101.75, 69336.30, -187500.02, -187500.02, -166115.23, -187500.02, -187500.02, -187500.02, 0.000, 0.000, 0.000, 17:58:25.861
72, 50431.73, 69457.77, -187500.02, -187500.02, -166130.28, -187500.02, -187500.02, -187500.02, 0.000, 0.000, 0.000, 17:58:25.861
73, 50357.00, 69065.50, -187500.02, -187500.02, -166040.02, -187500.02, -187500.02, -187500.02, 0.000, 0.000, 0.000, 17:58:25.861
74, 49935.67, 68211.60, -187500.02, -187500.02, -165835.67, -187500.02, -187500.02, -187500.02, 0.000, 0.000, 0.000, 17:58:25.861
75, 49583.84, 68414.62, -187500.02, -187500.02, -165900.66, -187500.02, -187500.02, -187500.02, 0.000, 0.000, 0.000, 17:58:25.861
76, 50100.63, 69341.13, -187500.02, -187500.02, -166062.34, -187500.02, -187500.02, -187500.02, 0.016, -0.006, 1.018, 17:58:25.861
77, 50434.95, 69467.50, -187500.02, -187500.02, -166122.72, -187500.02, -187500.02, -187500.02, 0.000, 0.000, 0.000, 17:58:25.862
78, 50353.63, 69066.93, -187500.02, -187500.02, -166028.06, -187500.02, -187500.02, -187500.02, 0.000, 0.000, 0.000, 17:58:25.862
79, 49933.71, 68210.13, -187500.02, -187500.02, -165811.88, -187500.02, -187500.02, -187500.02, 0.000, 0.000, 0.000, 17:58:25.862
80, 49574.02, 68401.34, -187500.02, -187500.02, -165856.69, -187500.02, -187500.02, -187500.02, 0.000, 0.000, 0.000, 17:58:25.862
81, 50103.71, 69348.32, -187500.02, -187500.02, -166056.77, -187500.02, -187500.02, -187500.02, 0.000, 0.000, 0.000, 17:58:25.862
82, 50460.71, 69496.71, -187500.02, -187500.02, -166158.48, -187500.02, -187500.02, -187500.02, 0.000, 0.000, 0.000, 17:58:25.862
83, 50391.02, 69108.64, -187500.02, -187500.02, -166092.25, -187500.02, -187500.02, -187500.02, 0.000, 0.000, 0.000, 17:58:25.862
84, 49968.08, 68240.03, -187500.02, -187500.02, -165873.39, -187500.02, -187500.02, -187500.02, 0.000, 0.000, 0.000, 17:58:25.862
85, 49596.26, 68412.85, -187500.02, -187500.02, -165971.02, -187500.02, -187500.02, -187500.02, 0.000, 0.000, 0.000, 17:58:25.863
86, 50108.36, 69350.27, -187500.02, -187500.02, -166147.75, -187500.02, -187500.02, -187500.02, 0.010, -0.010, 1.020, 17:58:25.863
87, 50458.64, 69493.65, -187500.02, -187500.02, -166188.83, -187500.02, -187500.02, -187500.02, 0.000, 0.000, 0.000, 17:58:25.863
88, 50388.99, 69104.28, -187500.02, -187500.02, -166089.03, -187500.02, -187500.02, -187500.02, 0.000, 0.000, 0.000, 17:58:25.863
89, 49968.04, 68231.63, -187500.02, -187500.02, -165862.17, -187500.02, -187500.02, -187500.02, 0.000, 0.000, 0.000, 17:58:25.863
90, 49572.97, 68377.31, -187500.02, -187500.02, -165903.78, -187500.02, -187500.02, -187500.02, 0.000, 0.000, 0.000, 17:58:25.863
91, 50082.01, 69327.91, -187500.02, -187500.02, -166070.23, -187500.02, -187500.02, -187500.02, 0.000, 0.000, 0.000, 17:58:25.863
92, 50443.01, 69482.02, -187500.02, -187500.02, -166097.34, -187500.02, -187500.02, -187500.02, 0.000, 0.000, 0.000, 17:58:25.863
93, 50387.16, 69107.61, -187500.02, -187500.02, -166022.81, -187500.02, -187500.02, -187500.02, 0.000, 0.000, 0.000, 17:58:25.864
94, 49974.59, 68241.37, -187500.02, -187500.02, -165821.53, -187500.02, -187500.02, -187500.02, 0.000, 0.000, 0.000, 17:58:25.864
95, 49577.04, 68379.35, -187500.02, -187500.02, -165868.33, -187500.02, -187500.02, -187500.02, 0.000, 0.000, 0.000, 17:58:25.864
96, 50089.39, 69334.57, -187500.02, -187500.02, -166018.11, -187500.02, -187500.02, -187500.02, 0.018, -0.012, 1.024, 17:58:25.864
97, 50462.55, 69504.73, -187500.02, -187500.02, -166092.41, -187500.02, -187500.02, -187500.02, 0.000, 0.000, 0.000, 17:58:25.864
98, 50401.37, 69130.01, -187500.02, -187500.02, -166053.16, -187500.02, -187500.02, -187500.02, 0.000, 0.000, 0.000, 17:58:25.864
99, 49998.59, 68260.08, -187500.02, -187500.02, -165862.25, -187500.02, -187500.02, -187500.02, 0.000, 0.000, 0.000, 17:58:25.864
100, 49594.61, 68385.31, -187500.02, -187500.02, -165923.08, -187500.02, -187500.02, -187500.02, 0.000, 0.000, 0.000, 17:58:25.864
101, 50093.30, 69333.92, -187500.02, -187500.02, -166088.44, -187500.02, -187500.02, -187500.02, 0.000, 0.000, 0.000, 17:58:25.864
102, 50466.41, 69502.28, -187500.02, -187500.02, -166158.19, -187500.02, -187500.02, -187500.02, 0.000, 0.000, 0.000, 17:58:25.865
103, 50402.04, 69127.04, -187500.02, -187500.02, -166103.45, -187500.02, -187500.02, -187500.02, 0.000, 0.000, 0.000, 17:58:25.865
104, 49988.56, 68246.45, -187500.02, -187500.02, -165866.13, -187500.02, -187500.02, -187500.02, 0.000, 0.000, 0.000, 17:58:25.865
105, 49578.40, 68357.11, -187500.02, -187500.02, -165909.34, -187500.02, -187500.02, -187500.02, 0.000, 0.000, 0.000, 17:58:25.865
106, 50080.36, 69322.91, -187500.02, -187500.02, -166115.91, -187500.02, -187500.02, -187500.02, 0.010, -0.012, 1.022, 17:58:25.865
107, 50456.22, 69496.78, -187500.02, -187500.02, -166159.31, -187500.02, -187500.02, -187500.02, 0.000, 0.000, 0.000, 17:58:25.865
108, 50393.70, 69124.42, -187500.02, -187500.02, -166058.19, -187500.02, -187500.02, -187500.02, 0.000, 0.000, 0.000, 17:58:25.866
109, 50001.25, 68260.64, -187500.02, -187500.02, -165864.67, -187500.02, -187500.02, -187500.02, 0.000, 0.000, 0.000, 17:58:25.866
110, 49590.43, 68361.94, -187500.02, -187500.02, -165953.56, -187500.02, -187500.02, -187500.02, 0.000, 0.000, 0.000, 17:58:25.866
111, 50079.48, 69314.95, -187500.02, -187500.02, -166117.28, -187500.02, -187500.02, -187500.02, 0.000, 0.000, 0.000, 17:58:25.866
112, 50462.35, 69497.30, -187500.02, -187500.02, -166164.34, -187500.02, -187500.02, -187500.02, 0.000, 0.000, 0.000, 17:58:25.866
113, 50403.36, 69131.35, -187500.02, -187500.02, -166079.25, -187500.02, -187500.02, -187500.02, 0.000, 0.000, 0.000, 17:58:25.866
114, 50008.56, 68266.54, -187500.02, -187500.02, -165868.61, -187500.02, -187500.02, -187500.02, 0.000, 0.000, 0.000, 17:58:25.867
115, 49588.46, 68356.02, -187500.02, -187500.02, -165954.13, -187500.02, -187500.02, -187500.02, 0.000, 0.000, 0.000, 17:58:25.867
116, 50072.24, 69311.70, -187500.02, -187500.02, -166140.95, -187500.02, -187500.02, -187500.02, 0.016, -0.016, 1.028, 17:58:25.867
117, 50457.86, 69498.45, -187500.02, -187500.02, -166188.08, -187500.02, -187500.02, -187500.02, 0.000, 0.000, 0.000, 17:58:25.867
118, 50400.68, 69137.36, -187500.02, -187500.02, -166103.63, -187500.02, -187500.02, -187500.02, 0.000, 0.000, 0.000, 17:58:25.867
119, 50007.36, 68267.05, -187500.02, -187500.02, -165883.22, -187500.02, -187500.02, -187500.02, 0.000, 0.000, 0.000, 17:58:25.867
120, 49569.98, 68332.43, -187500.02, -187500.02, -165907.98, -187500.02, -187500.02, -187500.02, 0.000, 0.000, 0.000, 17:58:26.329
121, 50063.05, 69304.48, -187500.02, -187500.02, -166090.83, -187500.02, -187500.02, -187500.02, 0.000, 0.000, 0.000, 17:58:26.329
122, 50459.15, 69493.74, -187500.02, -187500.02, -166148.36, -187500.02, -187500.02, -187500.02, 0.000, 0.000, 0.000, 17:58:26.329
123, 50409.06, 69139.66, -187500.02, -187500.02, -166064.30, -187500.02, -187500.02, -187500.02, 0.000, 0.000, 0.000, 17:58:26.329
124, 50023.98, 68277.55, -187500.02, -187500.02, -165867.63, -187500.02, -187500.02, -187500.02, 0.000, 0.000, 0.000, 17:58:26.330
125, 49579.92, 68328.48, -187500.02, -187500.02, -165921.03, -187500.02, -187500.02, -187500.02, 0.000, 0.000, 0.000, 17:58:26.330
126, 50066.70, 69299.84, -187500.02, -187500.02, -166098.69, -187500.02, -187500.02, -187500.02, 0.016, -0.018, 1.032, 17:58:26.330
127, 50470.50, 69506.63, -187500.02, -187500.02, -166176.92, -187500.02, -187500.02, -187500.02, 0.000, 0.000, 0.000, 17:58:26.330
128, 50419.75, 69150.20, -187500.02, -187500.02, -166114.50, -187500.02, -187500.02, -187500.02, 0.000, 0.000, 0.000, 17:58:26.330
129, 50035.14, 68280.30, -187500.02, -187500.02, -165926.11, -187500.02, -187500.02, -187500.02, 0.000, 0.000, 0.000, 17:58:26.331
130, 49593.18, 68327.52, -187500.02, -187500.02, -165997.61, -187500.02, -187500.02, -187500.02, 0.000, 0.000, 0.000, 17:58:26.331
131, 50058.96, 69288.80, -187500.02, -187500.02, -166175.47, -187500.02, -187500.02, -187500.02, 0.000, 0.000, 0.000, 17:58:26.331
132, 50456.04, 69488.62, -187500.02, -187500.02, -166233.42, -187500.02, -187500.02, -187500.02, 0.000, 0.000, 0.000, 17:58:26.331
133, 50405.93, 69136.29, -187500.02, -187500.02, -166148.47, -187500.02, -187500.02, -187500.02, 0.000, 0.000, 0.000, 17:58:26.331
134, 50024.41, 68270.52, -187500.02, -187500.02, -165918.67, -187500.02, -187500.02, -187500.02, 0.000, 0.000, 0.000, 17:58:26.332
135, 49579.03, 68302.37, -187500.02, -187500.02, -165992.19, -187500.02, -187500.02, -187500.02, 0.000, 0.000, 0.000, 17:58:26.332
136, 50046.00, 69265.35, -187500.02, -187500.02, -166157.14, -187500.02, -187500.02, -187500.02, 0.016, -0.014, 1.028, 17:58:26.332
137, 50449.96, 69476.13, -187500.02, -187500.02, -166174.19, -187500.02, -187500.02, -187500.02, 0.000, 0.000, 0.000, 17:58:26.332
138, 50405.15, 69132.18, -187500.02, -187500.02, -166064.56, -187500.02, -187500.02, -187500.02, 0.000, 0.000, 0.000, 17:58:26.332
139, 50027.25, 68272.38, -187500.02, -187500.02, -165828.70, -187500.02, -187500.02, -187500.02, 0.000, 0.000, 0.000, 17:58:26.332
140, 49574.16, 68292.69, -187500.02, -187500.02, -165900.94, -187500.02, -187500.02, -187500.02, 0.000, 0.000, 0.000, 17:58:26.333
141, 50041.64, 69268.19, -187500.02, -187500.02, -166105.89, -187500.02, -187500.02, -187500.02, 0.000, 0.000, 0.000, 17:58:26.333
142, 50460.43, 69491.33, -187500.02, -187500.02, -166171.89, -187500.02, -187500.02, -187500.02, 0.000, 0.000, 0.000, 17:58:26.333
143, 50420.04, 69152.98, -187500.02, -187500.02, -166103.56, -187500.02, -187500.02, -187500.02, 0.000, 0.000, 0.000, 17:58:26.333
144, 50045.20, 68292.35, -187500.02, -187500.02, -165903.34, -187500.02, -187500.02, -187500.02, 0.000, 0.000, 0.000, 17:58:26.333
145, 49582.18, 68295.04, -187500.02, -187500.02, -165995.94, -187500.02, -187500.02, -187500.02, 0.014, -0.012, 1.026, 17:58:26.334
146, 50040.03, 69268.73, -187500.02, -187500.02, -166182.47, -187500.02, -187500.02, -187500.02, 0.000, 0.000, 0.000, 17:58:26.334
147, 50453.81, 69491.82, -187500.02, -187500.02, -166250.58, -187500.02, -187500.02, -187500.02, 0.000, 0.000, 0.000, 17:58:26.334
148, 50405.77, 69150.46, -187500.02, -187500.02, -166154.91, -187500.02, -187500.02, -187500.02, 0.000, 0.000, 0.000, 17:58:26.334
149, 50028.54, 68282.41, -187500.02, -187500.02, -165914.78, -187500.02, -187500.02, -187500.02, 0.000, 0.000, 0.000, 17:58:26.334
150, 49563.36, 68272.35, -187500.02, -187500.02, -165986.34, -187500.02, -187500.02, -187500.02, 0.000, 0.000, 0.000, 17:58:26.334
151, 50027.83, 69254.38, -187500.02, -187500.02, -166158.48, -187500.02, -187500.02, -187500.02, 0.000, 0.000, 0.000, 17:58:26.335
152, 50446.95, 69480.02, -187500.02, -187500.02, -166164.30, -187500.02, -187500.02, -187500.02, 0.000, 0.000, 0.000, 17:58:26.335
153, 50411.14, 69152.52, -187500.02, -187500.02, -166073.66, -187500.02, -187500.02, -187500.02, 0.000, 0.000, 0.000, 17:58:26.335
154, 50049.15, 68297.66, -187500.02, -187500.02, -165846.94, -187500.02, -187500.02, -187500.02, 0.000, 0.000, 0.000, 17:58:26.335
155, 49576.30, 68270.14, -187500.02, -187500.02, -165894.31, -187500.02, -187500.02, -187500.02, 0.014, -0.016, 1.028, 17:58:26.335
156, 50034.91, 69253.03, -187500.02, -187500.02, -166084.63, -187500.02, -187500.02, -187500.02, 0.000, 0.000, 0.000, 17:58:26.336
157, 50471.15, 69501.27, -187500.02, -187500.02, -166160.98, -187500.02, -187500.02, -187500.02, 0.000, 0.000, 0.000, 17:58:26.336
158, 50427.41, 69168.97, -187500.02, -187500.02, -166101.11, -187500.02, -187500.02, -187500.02, 0.000, 0.000, 0.000, 17:58:26.336
159, 50062.79, 68311.35, -187500.02, -187500.02, -165935.64, -187500.02, -187500.02, -187500.02, 0.000, 0.000, 0.000, 17:58:26.336
160, 49583.12, 68267.52, -187500.02, -187500.02, -166054.23, -187500.02, -187500.02, -187500.02, 0.000, 0.000, 0.000, 17:58:26.336
161, 50020.50, 69236.27, -187500.02, -187500.02, -166178.20, -187500.02, -187500.02, -187500.02, 0.000, 0.000, 0.000, 17:58:26.337
162, 50460.04, 69492.76, -187500.02, -187500.02, -166237.55, -187500.02, -187500.02, -187500.02, 0.000, 0.000, 0.000, 17:58:26.337
163, 50426.83, 69170.09, -187500.02, -187500.02, -166209.67, -187500.02, -187500.02, -187500.02, 0.000, 0.000, 0.000, 17:58:26.337
164, 50045.29, 68290.05, -187500.02, -187500.02, -165971.58, -187500.02, -187500.02, -187500.02, 0.000, 0.000, 0.000, 17:58:26.337
165, 49553.37, 68232.48, -187500.02, -187500.02, -165987.95, -187500.02, -187500.02, -187500.02, 0.016, -0.022, 1.022, 17:58:26.337
166, 50012.38, 69229.25, -187500.02, -187500.02, -166140.02, -187500.02, -187500.02, -187500.02, 0.000, 0.000, 0.000, 17:58:26.337
167, 50463.93, 69497.92, -187500.02, -187500.02, -166200.84, -187500.02, -187500.02, -187500.02, 0.000, 0.000, 0.000, 17:58:26.337
168, 50429.40, 69176.23, -187500.02, -187500.02, -166138.81, -187500.02, -187500.02, -187500.02, 0.000, 0.000, 0.000, 17:58:26.337
169, 50064.04, 68311.53, -187500.02, -187500.02, -165920.59, -187500.02, -187500.02, -187500.02, 0.000, 0.000, 0.000, 17:58:26.338
170, 49568.93, 68240.23, -187500.02, -187500.02, -165951.13, -187500.02, -187500.02, -187500.02, 0.000, 0.000, 0.000, 17:58:26.338
171, 50027.09, 69242.26, -187500.02, -187500.02, -166129.06, -187500.02, -187500.02, -187500.02, 0.000, 0.000, 0.000, 17:58:26.338
172, 50486.69, 69520.54, -187500.02, -187500.02, -166261.56, -187500.02, -187500.02, -187500.02, 0.000, 0.000, 0.000, 17:58:26.338
173, 50448.02, 69195.19, -187500.02, -187500.02, -166203.52, -187500.02, -187500.02, -187500.02, 0.000, 0.000, 0.000, 17:58:26.338
174, 50081.81, 68324.99, -187500.02, -187500.02, -166022.20, -187500.02, -187500.02, -187500.02, 0.000, 0.000, 0.000, 17:58:26.338
175, 49575.63, 68233.34, -187500.02, -187500.02, -166074.31, -187500.02, -187500.02, -187500.02, 0.010, -0.020, 1.028, 17:58:26.338
176, 50019.71, 69232.18, -187500.02, -187500.02, -166262.91, -187500.02, -187500.02, -187500.02, 0.000, 0.000, 0.000, 17:58:26.338
177, 50472.23, 69503.84, -187500.02, -187500.02, -166310.66, -187500.02, -187500.02, -187500.02, 0.000, 0.000, 0.000, 17:58:26.338
178, 50428.53, 69178.63, -187500.02, -187500.02, -166190.80, -187500.02, -187500.02, -187500.02, 0.000, 0.000, 0.000, 17:58:26.339
179, 50061.09, 68306.02, -187500.02, -187500.02, -165957.14, -187500.02, -187500.02, -187500.02, 0.000, 0.000, 0.000, 17:58:26.339
180, 49558.49, 68215.87, -187500.02, -187500.02, -165991.09, -187500.02, -187500.02, -187500.02, 0.000, 0.000, 0.000, 17:58:26.339
181, 50004.02, 69225.16, -187500.02, -187500.02, -166168.61, -187500.02, -187500.02, -187500.02, 0.000, 0.000, 0.000, 17:58:26.339
182, 50460.38, 69506.05, -187500.02, -187500.02, -166234.98, -187500.02, -187500.02, -187500.02, 0.000, 0.000, 0.000, 17:58:26.339
183, 50428.75, 69189.15, -187500.02, -187500.02, -166187.19, -187500.02, -187500.02, -187500.02, 0.000, 0.000, 0.000, 17:58:26.340
184, 50061.49, 68306.41, -187500.02, -187500.02, -165964.25, -187500.02, -187500.02, -187500.02, 0.000, 0.000, 0.000, 17:58:26.340
185, 49557.32, 68207.27, -187500.02, -187500.02, -166001.42, -187500.02, -187500.02, -187500.02, 0.008, -0.012, 1.024, 17:58:26.340
186, 50007.64, 69225.63, -187500.02, -187500.02, -166199.83, -187500.02, -187500.02, -187500.02, 0.000, 0.000, 0.000, 17:58:26.340
187, 50468.16, 69507.02, -187500.02, -187500.02, -166242.53, -187500.02, -187500.02, -187500.02, 0.000, 0.000, 0.000, 17:58:26.340
188, 50433.96, 69195.55, -187500.02, -187500.02, -166181.38, -187500.02, -187500.02, -187500.02, 0.000, 0.000, 0.000, 17:58:26.340
189, 50075.82, 68324.88, -187500.02, -187500.02, -165998.75, -187500.02, -187500.02, -187500.02, 0.000, 0.000, 0.000, 17:58:26.341
190, 49560.03, 68205.52, -187500.02, -187500.02, -166055.23, -187500.02, -187500.02, -187500.02, 0.000, 0.000, 0.000, 17:58:26.341
191, 49991.84, 69211.39, -187500.02, -187500.02, -166233.72, -187500.02, -187500.02, -187500.02, 0.000, 0.000, 0.000, 17:58:26.341
192, 50462.28, 69511.64, -187500.02, -187500.02, -166298.14, -187500.02, -187500.02, -187500.02, 0.000, 0.000, 0.000, 17:58:26.341
193, 50437.00, 69203.01, -187500.02, -187500.02, -166281.58, -187500.02, -187500.02, -187500.02, 0.000, 0.000, 0.000, 17:58:26.341
194, 50066.83, 68316.61, -187500.02, -187500.02, -166052.94, -187500.02, -187500.02, -187500.02, 0.000, 0.000, 0.000, 17:58:26.342
195, 49538.24, 68177.53, -187500.02, -187500.02, -166057.66, -187500.02, -187500.02, -187500.02, 0.004, -0.020, 1.028, 17:58:26.342
196, 49978.48, 69196.95, -187500.02, -187500.02, -166234.19, -187500.02, -187500.02, -187500.02, 0.000, 0.000, 0.000, 17:58:26.342
197, 50457.14, 69504.52, -187500.02, -187500.02, -166300.95, -187500.02, -187500.02, -187500.02, 0.000, 0.000, 0.000, 17:58:26.342
198, 50423.25, 69193.42, -187500.02, -187500.02, -166214.14, -187500.02, -187500.02, -187500.02, 0.000, 0.000, 0.000, 17:58:26.342
199, 50064.04, 68315.80, -187500.02, -187500.02, -165991.33, -187500.02, -187500.02, -187500.02, 0.000, 0.000, 0.000, 17:58:26.342
200, 49540.29, 68174.45, -187500.02, -187500.02, -166009.02, -187500.02, -187500.02, -187500.02, 0.000, 0.000, 0.000, 17:58:26.343
201, 49973.38, 69196.08, -187500.02, -187500.02, -166159.47, -187500.02, -187500.02, -187500.02, 0.000, 0.000, 0.000, 17:58:26.343
202, 50463.18, 69515.55, -187500.02, -187500.02, -166269.45, -187500.02, -187500.02, -187500.02, 0.000, 0.000, 0.000, 17:58:26.343
203, 50442.81, 69219.53, -187500.02, -187500.02, -166273.97, -187500.02, -187500.02, -187500.02, 0.000, 0.000, 0.000, 17:58:26.343
204, 50083.62, 68336.97, -187500.02, -187500.02, -166086.95, -187500.02, -187500.02, -187500.02, 0.000, 0.000, 0.000, 17:58:26.343
205, 49543.78, 68172.69, -187500.02, -187500.02, -166086.20, -187500.02, -187500.02, -187500.02, 0.010, -0.016, 1.032, 17:58:26.343
206, 49966.18, 69186.11, -187500.02, -187500.02, -166270.58, -187500.02, -187500.02, -187500.02, 0.000, 0.000, 0.000, 17:58:26.344
207, 50454.05, 69503.33, -187500.02, -187500.02, -166356.78, -187500.02, -187500.02, -187500.02, 0.000, 0.000, 0.000, 17:58:26.344
208, 50424.02, 69199.91, -187500.02, -187500.02, -166319.70, -187500.02, -187500.02, -187500.02, 0.000, 0.000, 0.000, 17:58:26.344
209, 50073.34, 68325.10, -187500.02, -187500.02, -166078.80, -187500.02, -187500.02, -187500.02, 0.000, 0.000, 0.000, 17:58:26.344
210, 49539.02, 68159.30, -187500.02, -187500.02, -166113.31, -187500.02, -187500.02, -187500.02, 0.000, 0.000, 0.000, 17:58:26.344
211, 49949.64, 69171.54, -187500.02, -187500.02, -166265.03, -187500.02, -187500.02, -187500.02, 0.000, 0.000, 0.000, 17:58:26.345
212, 50440.93, 69491.80, -187500.02, -187500.02, -166296.44, -187500.02, -187500.02, -187500.02, 0.000, 0.000, 0.000, 17:58:26.345
213, 50420.50, 69197.83, -187500.02, -187500.02, -166218.30, -187500.02, -187500.02, -187500.02, 0.000, 0.000, 0.000, 17:58:26.345
214, 50083.06, 68337.73, -187500.02, -187500.02, -165992.25, -187500.02, -187500.02, -187500.02, 0.000, 0.000, 0.000, 17:58:26.345
215, 49552.79, 68166.36, -187500.02, -187500.02, -166044.11, -187500.02, -187500.02, -187500.02, 0.022, -0.008, 1.022, 17:58:26.345
216, 49957.85, 69177.26, -187500.02, -187500.02, -166228.39, -187500.02, -187500.02, -187500.02, 0.000, 0.000, 0.000, 17:58:26.345
217, 50452.69, 69506.13, -187500.02, -187500.02, -166270.63, -187500.02, -187500.02, -187500.02, 0.000, 0.000, 0.000, 17:58:26.346
218, 50438.48, 69219.55, -187500.02, -187500.02, -166242.38, -187500.02, -187500.02, -187500.02, 0.000, 0.000, 0.000, 17:58:26.346
219, 50099.67, 68353.89, -187500.02, -187500.02, -166061.70, -187500.02, -187500.02, -187500.02, 0.000, 0.000, 0.000, 17:58:26.346
220, 49547.40, 68154.24, -187500.02, -187500.02, -166105.44, -187500.02, -187500.02, -187500.02, 0.000, 0.000, 0.000, 17:58:26.346
221, 49954.56, 69170.96, -187500.02, -187500.02, -166306.22, -187500.02, -187500.02, -187500.02, 0.000, 0.000, 0.000, 17:58:26.346
222, 50448.91, 69500.83, -187500.02, -187500.02, -166349.19, -187500.02, -187500.02, -187500.02, 0.000, 0.000, 0.000, 17:58:26.346
223, 50432.93, 69210.37, -187500.02, -187500.02, -166291.94, -187500.02, -187500.02, -187500.02, 0.000, 0.000, 0.000, 17:58:26.346
224, 50092.31, 68345.40, -187500.02, -187500.02, -166064.53, -187500.02, -187500.02, -187500.02, 0.000, 0.000, 0.000, 17:58:26.346
225, 49536.29, 68131.53, -187500.02, -187500.02, -166031.13, -187500.02, -187500.02, -187500.02, 0.018, -0.006, 1.024, 17:58:26.347
226, 49938.85, 69150.13, -187500.02, -187500.02, -166187.22, -187500.02, -187500.02, -187500.02, 0.000, 0.000, 0.000, 17:58:26.347
227, 50451.89, 69504.16, -187500.02, -187500.02, -166298.05, -187500.02, -187500.02, -187500.02, 0.000, 0.000, 0.000, 17:58:26.347
228, 50432.42, 69215.55, -187500.02, -187500.02, -166260.39, -187500.02, -187500.02, -187500.02, 0.000, 0.000, 0.000, 17:58:26.347
229, 50098.64, 68355.86, -187500.02, -187500.02, -166026.50, -187500.02, -187500.02, -187500.02, 0.000, 0.000, 0.000, 17:58:26.347
230, 49550.89, 68139.40, -187500.02, -187500.02, -166056.02, -187500.02, -187500.02, -187500.02, 0.000, 0.000, 0.000, 17:58:26.347
231, 49940.46, 69150.38, -187500.02, -187500.02, -166219.19, -187500.02, -187500.02, -187500.02, 0.000, 0.000, 0.000, 17:58:26.347
232, 50454.77, 69508.47, -187500.02, -187500.02, -166304.84, -187500.02, -187500.02, -187500.02, 0.000, 0.000, 0.000, 17:58:26.347
233, 50442.83, 69231.73, -187500.02, -187500.02, -166278.72, -187500.02, -187500.02, -187500.02, 0.000, 0.000, 0.000, 17:58:26.348
234, 50122.67, 68380.73, -187500.02, -187500.02, -166110.42, -187500.02, -187500.02, -187500.02, 0.000, 0.000, 0.000, 17:58:26.348
235, 49562.85, 68147.41, -187500.02, -187500.02, -166130.20, -187500.02, -187500.02, -187500.02, 0.018, -0.004, 1.026, 17:58:26.348
236, 49939.61, 69149.30, -187500.02, -187500.02, -166306.77, -187500.02, -187500.02, -187500.02, 0.000, 0.000, 0.000, 17:58:26.348
237, 50452.38, 69506.59, -187500.02, -187500.02, -166366.05, -187500.02, -187500.02, -187500.02, 0.000, 0.000, 0.000, 17:58:26.348
238, 50447.46, 69233.66, -187500.02, -187500.02, -166288.61, -187500.02, -187500.02, -187500.02, 0.000, 0.000, 0.000, 17:58:26.348
239, 50116.81, 68376.29, -187500.02, -187500.02, -166051.02, -187500.02, -187500.02, -187500.02, 0.000, 0.000, 0.000, 17:58:26.348
240, 49553.01, 68129.03, -187500.02, -187500.02, -166058.50, -187500.02, -187500.02, -187500.02, 0.000, 0.000, 0.000, 17:58:26.811
241, 49932.21, 69141.88, -187500.02, -187500.02, -166257.55, -187500.02, -187500.02, -187500.02, 0.000, 0.000, 0.000, 17:58:26.811
242, 50446.12, 69504.13, -187500.02, -187500.02, -166342.09, -187500.02, -187500.02, -187500.02, 0.000, 0.000, 0.000, 17:58:26.811
243, 50434.23, 69227.22, -187500.02, -187500.02, -166291.34, -187500.02, -187500.02, -187500.02, 0.000, 0.000, 0.000, 17:58:26.811
244, 50108.65, 68373.89, -187500.02, -187500.02, -166035.09, -187500.02, -187500.02, -187500.02, 0.000, 0.000, 0.000, 17:58:26.812
245, 49546.53, 68119.66, -187500.02, -187500.02, -166039.34, -187500.02, -187500.02, -187500.02, 0.018, -0.010, 1.026, 17:58:26.812
246, 49921.14, 69132.63, -187500.02, -187500.02, -166229.05, -187500.02, -187500.02, -187500.02, 0.000, 0.000, 0.000, 17:58:26.812
247, 50447.86, 69513.72, -187500.02, -187500.02, -166327.28, -187500.02, -187500.02, -187500.02, 0.000, 0.000, 0.000, 17:58:26.812
248, 50449.85, 69247.87, -187500.02, -187500.02, -166319.91, -187500.02, -187500.02, -187500.02, 0.000, 0.000, 0.000, 17:58:26.812
249, 50135.59, 68399.71, -187500.02, -187500.02, -166142.55, -187500.02, -187500.02, -187500.02, 0.000, 0.000, 0.000, 17:58:26.813
250, 49572.19, 68132.72, -187500.02, -187500.02, -166166.81, -187500.02, -187500.02, -187500.02, 0.000, 0.000, 0.000, 17:58:26.813
251, 49921.41, 69125.98, -187500.02, -187500.02, -166321.53, -187500.02, -187500.02, -187500.02, 0.000, 0.000, 0.000, 17:58:26.813
252, 50441.34, 69497.78, -187500.02, -187500.02, -166366.89, -187500.02, -187500.02, -187500.02, 0.000, 0.000, 0.000, 17:58:26.813
253, 50437.96, 69227.40, -187500.02, -187500.02, -166302.05, -187500.02, -187500.02, -187500.02, 0.000, 0.000, 0.000, 17:58:26.813
254, 50127.63, 68383.84, -187500.02, -187500.02, -166098.63, -187500.02, -187500.02, -187500.02, 0.000, 0.000, 0.000, 17:58:26.813
255, 49555.31, 68102.90, -187500.02, -187500.02, -166099.08, -187500.02, -187500.02, -187500.02, 0.020, -0.008, 1.020, 17:58:26.814
0, 49904.38, 69104.20, -187500.02, -187500.02, -166259.78, -187500.02, -187500.02, -187500.02, 0.000, 0.000, 0.000, 17:58:26.814
1, 50433.34, 69489.45, -187500.02, -187500.02, -166326.81, -187500.02, -187500.02, -187500.02, 0.000, 0.000, 0.000, 17:58:26.814
2, 50435.03, 69230.28, -187500.02, -187500.02, -166269.30, -187500.02, -187500.02, -187500.02, 0.000, 0.000, 0.000, 17:58:26.814
3, 50125.75, 68390.86, -187500.02, -187500.02, -166037.11, -187500.02, -187500.02, -187500.02, 0.000, 0.000, 0.000, 17:58:26.814
4, 49564.07, 68108.89, -187500.02, -187500.02, -166059.47, -187500.02, -187500.02, -187500.02, 0.000, 0.000, 0.000, 17:58:26.815
5, 49915.31, 69114.43, -187500.02, -187500.02, -166250.33, -187500.02, -187500.02, -187500.02, 0.000, 0.000, 0.000, 17:58:26.815
6, 50453.03, 69511.20, -187500.02, -187500.02, -166357.03, -187500.02, -187500.02, -187500.02, 0.000, 0.000, 0.000, 17:58:26.815
7, 50459.93, 69256.19, -187500.02, -187500.02, -166340.14, -187500.02, -187500.02, -187500.02, 0.000, 0.000, 0.000, 17:58:26.815
8, 50147.12, 68409.32, -187500.02, -187500.02, -166110.16, -187500.02, -187500.02, -187500.02, 0.014, -0.012, 1.022, 17:58:26.815
9, 49571.25, 68101.83, -187500.02, -187500.02, -166102.17, -187500.02, -187500.02, -187500.02, 0.000, 0.000, 0.000, 17:58:26.815
10, 49912.58, 69104.28, -187500.02, -187500.02, -166320.59, -187500.02, -187500.02, -187500.02, 0.000, 0.000, 0.000, 17:58:26.816
11, 50452.54, 69506.32, -187500.02, -187500.02, -166420.56, -187500.02, -187500.02, -187500.02, 0.000, 0.000, 0.000, 17:58:26.816
12, 50452.51, 69248.67, -187500.02, -187500.02, -166382.42, -187500.02, -187500.02, -187500.02, 0.000, 0.000, 0.000, 17:58:26.816
13, 50140.06, 68408.47, -187500.02, -187500.02, -166174.44, -187500.02, -187500.02, -187500.02, 0.000, 0.000, 0.000, 17:58:26.816
14, 49557.82, 68088.46, -187500.02, -187500.02, -166165.64, -187500.02, -187500.02, -187500.02, 0.000, 0.000, 0.000, 17:58:26.816
15, 49886.75, 69078.06, -187500.02, -187500.02, -166335.91, -187500.02, -187500.02, -187500.02, 0.000, 0.000, 0.000, 17:58:26.817
16, 50425.45, 69481.02, -187500.02, -187500.02, -166378.42, -187500.02, -187500.02, -187500.02, 0.000, 0.000, 0.000, 17:58:26.817
17, 50439.46, 69236.56, -187500.02, -187500.02, -166356.03, -187500.02, -187500.02, -187500.02, 0.000, 0.000, 0.000, 17:58:26.817
18, 50132.73, 68398.64, -187500.02, -187500.02, -166129.56, -187500.02, -187500.02, -187500.02, 0.018, -0.018, 1.022, 17:58:26.817
19, 49551.20, 68071.74, -187500.02, -187500.02, -166087.06, -187500.02, -187500.02, -187500.02, 0.000, 0.000, 0.000, 17:58:26.817
20, 49887.82, 69074.17, -187500.02, -187500.02, -166313.73, -187500.02, -187500.02, -187500.02, 0.000, 0.000, 0.000, 17:58:26.817
21, 50437.36, 69496.38, -187500.02, -187500.02, -166399.14, -187500.02, -187500.02, -187500.02, 0.000, 0.000, 0.000, 17:58:26.818
22, 50449.76, 69251.42, -187500.02, -187500.02, -166382.98, -187500.02, -187500.02, -187500.02, 0.000, 0.000, 0.000, 17:58:26.818
23, 50147.07, 68418.77, -187500.02, -187500.02, -166173.97, -187500.02, -187500.02, -187500.02, 0.000, 0.000, 0.000, 17:58:26.818
24, 49565.42, 68084.66, -187500.02, -187500.02, -166171.11, -187500.02, -187500.02, -187500.02, 0.000, 0.000, 0.000, 17:58:26.818
25, 49879.01, 69069.68, -187500.02, -187500.02, -166342.89, -187500.02, -187500.02, -187500.02, 0.000, 0.000, 0.000, 17:58:26.818
26, 50430.27, 69496.45, -187500.02, -187500.02, -166460.63, -187500.02, -187500.02, -187500.02, 0.000, 0.000, 0.000, 17:58:26.818
27, 50432.57, 69244.79, -187500.02, -187500.02, -166415.30, -187500.02, -187500.02, -187500.02, 0.000, 0.000, 0.000, 17:58:26.819
28, 50136.93, 68420.84, -187500.02, -187500.02, -166183.69, -187500.02, -187500.02, -187500.02, 0.012, -0.010, 1.022, 17:58:26.819
29, 49556.34, 68080.95, -187500.02, -187500.02, -166159.17, -187500.02, -187500.02, -187500.02, 0.000, 0.000, 0.000, 17:58:26.819
30, 49874.81, 69074.40, -187500.02, -187500.02, -166365.08, -187500.02, -187500.02, -187500.02, 0.000, 0.000, 0.000, 17:58:26.819
31, 50423.25, 69497.02, -187500.02, -187500.02, -166441.08, -187500.02, -187500.02, -187500.02, 0.000, 0.000, 0.000, 17:58:26.819
32, 50434.34, 69252.32, -187500.02, -187500.02, -166367.73, -187500.02, -187500.02, -187500.02, 0.000, 0.000, 0.000, 17:58:26.820
33, 50137.75, 68424.95, -187500.02, -187500.02, -166102.20, -187500.02, -187500.02, -187500.02, 0.000, 0.000, 0.000, 17:58:26.820
34, 49558.58, 68070.80, -187500.02, -187500.02, -166091.50, -187500.02, -187500.02, -187500.02, 0.000, 0.000, 0.000, 17:58:26.820
35, 49869.89, 69059.58, -187500.02, -187500.02, -166290.80, -187500.02, -187500.02, -187500.02, 0.000, 0.000, 0.000, 17:58:26.820
36, 50435.66, 69505.95, -187500.02, -187500.02, -166423.11, -187500.02, -187500.02, -187500.02, 0.000, 0.000, 0.000, 17:58:26.820
37, 50452.54, 69271.98, -187500.02, -187500.02, -166447.36, -187500.02, -187500.02, -187500.02, 0.000, 0.000, 0.000, 17:58:26.820
38, 50155.77, 68446.76, -187500.02, -187500.02, -166220.13, -187500.02, -187500.02, -187500.02, 0.012, -0.016, 1.020, 17:58:26.821
39, 49572.37, 68081.78, -187500.02, -187500.02, -166185.84, -187500.02, -187500.02, -187500.02, 0.000, 0.000, 0.000, 17:58:26.821
40, 49870.18, 69060.43, -187500.02, -187500.02, -166376.03, -187500.02, -187500.02, -187500.02, 0.000, 0.000, 0.000, 17:58:26.821
41, 50428.13, 69497.13, -187500.02, -187500.02, -166436.47, -187500.02, -187500.02, -187500.02, 0.000, 0.000, 0.000, 17:58:26.821
42, 50445.07, 69261.62, -187500.02, -187500.02, -166391.52, -187500.02, -187500.02, -187500.02, 0.000, 0.000, 0.000, 17:58:26.821
43, 50154.30, 68438.38, -187500.02, -187500.02, -166152.41, -187500.02, -187500.02, -187500.02, 0.000, 0.000, 0.000, 17:58:26.821
44, 49571.68, 68064.63, -187500.02, -187500.02, -166118.92, -187500.02, -187500.02, -187500.02, 0.000, 0.000, 0.000, 17:58:26.822
45, 49866.18, 69043.51, -187500.02, -187500.02, -166310.20, -187500.02, -187500.02, -187500.02, 0.000, 0.000, 0.000, 17:58:26.822
46, 50422.29, 69485.73, -187500.02, -187500.02, -166359.45, -187500.02, -187500.02, -187500.02, 0.000, 0.000, 0.000, 17:58:26.822
47, 50441.58, 69254.82, -187500.02, -187500.02, -166301.02, -187500.02, -187500.02, -187500.02, 0.000, 0.000, 0.000, 17:58:26.822
48, 50157.49, 68445.53, -187500.02, -187500.02, -166078.03, -187500.02, -187500.02, -187500.02, 0.012, -0.012, 1.024, 17:58:26.822
49, 49571.65, 68061.95, -187500.02, -187500.02, -166048.94, -187500.02, -187500.02, -187500.02, 0.000, 0.000, 0.000, 17:58:26.823
50, 49863.21, 69045.01, -187500.02, -187500.02, -166247.00, -187500.02, -187500.02, -187500.02, 0.000, 0.000, 0.000, 17:58:26.823
51, 50429.73, 69500.60, -187500.02, -187500.02, -166360.97, -187500.02, -187500.02, -187500.02, 0.000, 0.000, 0.000, 17:58:26.823
52, 50459.40, 69276.80, -187500.02, -187500.02, -166376.33, -187500.02, -187500.02, -187500.02, 0.000, 0.000, 0.000, 17:58:26.823
53, 50178.82, 68467.05, -187500.02, -187500.02, -166194.83, -187500.02, -187500.02, -187500.02, 0.000, 0.000, 0.000, 17:58:26.823
54, 49580.59, 68060.95, -187500.02, -187500.02, -166182.02, -187500.02, -187500.02, -187500.02, 0.000, 0.000, 0.000, 17:58:26.823
55, 49846.91, 69022.41, -187500.02, -187500.02, -166365.77, -187500.02, -187500.02, -187500.02, 0.000, 0.000, 0.000, 17:58:26.824
56, 50415.54, 69486.14, -187500.02, -187500.02, -166459.50, -187500.02, -187500.02, -187500.02, 0.000, 0.000, 0.000, 17:58:26.824
57, 50439.88, 69260.05, -187500.02, -187500.02, -166431.39, -187500.02, -187500.02, -187500.02, 0.000, 0.000, 0.000, 17:58:26.824
58, 50157.71, 68455.14, -187500.02, -187500.02, -166187.83, -187500.02, -187500.02, -187500.02, 0.012, -0.010, 1.024, 17:58:26.824
59, 49565.98, 68048.52, -187500.02, -187500.02, -166143.95, -187500.02, -187500.02, -187500.02, 0.000, 0.000, 0.000, 17:58:26.824
60, 49832.72, 69014.49, -187500.02, -187500.02, -166320.13, -187500.02, -187500.02, -187500.02, 0.000, 0.000, 0.000, 17:58:26.824
61, 50404.25, 69485.07, -187500.02, -187500.02, -166392.97, -187500.02, -187500.02, -187500.02, 0.000, 0.000, 0.000, 17:58:26.825
62, 50431.97, 69261.26, -187500.02, -187500.02, -166387.98, -187500.02, -187500.02, -187500.02, 0.000, 0.000, 0.000, 17:58:26.825
63, 50158.21, 68455.34, -187500.02, -187500.02, -166169.92, -187500.02, -187500.02, -187500.02, 0.000, 0.000, 0.000, 17:58:26.825
64, 49563.27, 68033.32, -187500.02, -187500.02, -166114.63, -187500.02, -187500.02, -187500.02, 0.000, 0.000, 0.000, 17:58:26.825
65, 49830.55, 69004.70, -187500.02, -187500.02, -166300.14, -187500.02, -187500.02, -187500.02, 0.000, 0.000, 0.000, 17:58:26.825
66, 50406.71, 69485.16, -187500.02, -187500.02, -166394.11, -187500.02, -187500.02, -187500.02, 0.000, 0.000, 0.000, 17:58:26.826
67, 50450.81, 69280.48, -187500.02, -187500.02, -166413.06, -187500.02, -187500.02, -187500.02, 0.000, 0.000, 0.000, 17:58:26.826
68, 50184.98, 68490.05, -187500.02, -187500.02, -166233.61, -187500.02, -187500.02, -187500.02, 0.018, -0.008, 1.024, 17:58:26.826
69, 49584.80, 68056.92, -187500.02, -187500.02, -166228.64, -187500.02, -187500.02, -187500.02, 0.000, 0.000, 0.000, 17:58:26.826
70, 49833.19, 69007.27, -187500.02, -187500.02, -166406.25, -187500.02, -187500.02, -187500.02, 0.000, 0.000, 0.000, 17:58:26.826
71, 50413.62, 69496.16, -187500.02, -187500.02, -166492.48, -187500.02, -187500.02, -187500.02, 0.000, 0.000, 0.000, 17:58:26.826
72, 50453.96, 69288.38, -187500.02, -187500.02, -166478.53, -187500.02, -187500.02, -187500.02, 0.000, 0.000, 0.000, 17:58:26.827
73, 50179.46, 68486.23, -187500.02, -187500.02, -166246.61, -187500.02, -187500.02, -187500.02, 0.000, 0.000, 0.000, 17:58:26.827
74, 49580.04, 68039.02, -187500.02, -187500.02, -166199.88, -187500.02, -187500.02, -187500.02, 0.000, 0.000, 0.000, 17:58:26.827
75, 49822.15, 68991.20, -187500.02, -187500.02, -166353.59, -187500.02, -187500.02, -187500.02, 0.000, 0.000, 0.000, 17:58:26.827
76, 50404.81, 69484.87, -187500.02, -187500.02, -166428.05, -187500.02, -187500.02, -187500.02, 0.000, 0.000, 0.000, 17:58:26.827
77, 50452.71, 69284.21, -187500.02, -187500.02, -166428.20, -187500.02, -187500.02, -187500.02, 0.000, 0.000, 0.000, 17:58:26.827
78, 50182.82, 68489.05, -187500.02, -187500.02, -166208.50, -187500.02, -187500.02, -187500.02, 0.016, -0.014, 1.022, 17:58:26.828
79, 49584.46, 68035.58, -187500.02, -187500.02, -166144.63, -187500.02, -187500.02, -187500.02, 0.000, 0.000, 0.000, 17:58:26.828
80, 49830.66, 68994.83, -187500.02, -187500.02, -166332.13, -187500.02, -187500.02, -187500.02, 0.000, 0.000, 0.000, 17:58:26.828
81, 50417.71, 69500.69, -187500.02, -187500.02, -166450.39, -187500.02, -187500.02, -187500.02, 0.000, 0.000, 0.000, 17:58:26.828
82, 50461.95, 69299.26, -187500.02, -187500.02, -166484.61, -187500.02, -187500.02, -187500.02, 0.000, 0.000, 0.000, 17:58:26.828
83, 50203.27, 68511.34, -187500.02, -187500.02, -166307.39, -187500.02, -187500.02, -187500.02, 0.000, 0.000, 0.000, 17:58:26.828
84, 49597.89, 68042.02, -187500.02, -187500.02, -166265.17, -187500.02, -187500.02, -187500.02, 0.000, 0.000, 0.000, 17:58:26.829
85, 49824.12, 68985.84, -187500.02, -187500.02, -166416.64, -187500.02, -187500.02, -187500.02, 0.000, 0.000, 0.000, 17:58:26.829
86, 50408.21, 69493.65, -187500.02, -187500.02, -166512.36, -187500.02, -187500.02, -187500.02, 0.000, 0.000, 0.000, 17:58:26.829
87, 50447.21, 69287.74, -187500.02, -187500.02, -166483.77, -187500.02, -187500.02, -187500.02, 0.000, 0.000, 0.000, 17:58:26.829
88, 50191.60, 68507.52, -187500.02, -187500.02, -166242.08, -187500.02, -187500.02, -187500.02, 0.010, -0.010, 1.022, 17:58:26.829
89, 49590.76, 68032.92, -187500.02, -187500.02, -166202.92, -187500.02, -187500.02, -187500.02, 0.000, 0.000, 0.000, 17:58:26.830
90, 49813.90, 68973.21, -187500.02, -187500.02, -166382.84, -187500.02, -187500.02, -187500.02, 0.000, 0.000, 0.000, 17:58:26.830
91, 50407.88, 69488.46, -187500.02, -187500.02, -166464.81, -187500.02, -187500.02, -187500.02, 0.000, 0.000, 0.000, 17:58:26.830
92, 50454.17, 69289.35, -187500.02, -187500.02, -166433.67, -187500.02, -187500.02, -187500.02, 0.000, 0.000, 0.000, 17:58:26.830
93, 50202.35, 68515.94, -187500.02, -187500.02, -166250.77, -187500.02, -187500.02, -187500.02, 0.000, 0.000, 0.000, 17:58:26.830
94, 49600.96, 68032.65, -187500.02, -187500.02, -166233.63, -187500.02, -187500.02, -187500.02, 0.000, 0.000, 0.000, 17:58:26.830
95, 49804.54, 68960.83, -187500.02, -187500.02, -166380.80, -187500.02, -187500.02, -187500.02, 0.000, 0.000, 0.000, 17:58:26.831
96, 50401.37, 69487.13, -187500.02, -187500.02, -166487.55, -187500.02, -187500.02, -187500.02, 0.000, 0.000, 0.000, 17:58:26.831
97, 50454.05, 69296.02, -187500.02, -187500.02, -166488.22, -187500.02, -187500.02, -187500.02, 0.000, 0.000, 0.000, 17:58:26.831
98, 50209.32, 68527.95, -187500.02, -187500.02, -166337.77, -187500.02, -187500.02, -187500.02, 0.010, -0.008, 1.022, 17:58:26.831
99, 49595.90, 68022.68, -187500.02, -187500.02, -166283.70, -187500.02, -187500.02, -187500.02, 0.000, 0.000, 0.000, 17:58:26.831
100, 49805.68, 68957.27, -187500.02, -187500.02, -166445.64, -187500.02, -187500.02, -187500.02, 0.000, 0.000, 0.000, 17:58:26.831
101, 50396.72, 69477.58, -187500.02, -187500.02, -166516.47, -187500.02, -187500.02, -187500.02, 0.000, 0.000, 0.000, 17:58:26.832
102, 50451.75, 69289.80, -187500.02, -187500.02, -166491.44, -187500.02, -187500.02, -187500.02, 0.000, 0.000, 0.000, 17:58:26.832
103, 50209.97, 68530.58, -187500.02, -187500.02, -166323.22, -187500.02, -187500.02, -187500.02, 0.000, 0.000, 0.000, 17:58:26.832
104, 49601.29, 68020.52, -187500.02, -187500.02, -166273.41, -187500.02, -187500.02, -187500.02, 0.000, 0.000, 0.000, 17:58:27.290
105, 49794.16, 68939.15, -187500.02, -187500.02, -166421.78, -187500.02, -187500.02, -187500.02, 0.000, 0.000, 0.000, 17:58:27.290
106, 50386.48, 69464.44, -187500.02, -187500.02, -166481.00, -187500.02, -187500.02, -187500.02, 0.000, 0.000, 0.000, 17:58:27.290
107, 50449.45, 69285.51, -187500.02, -187500.02, -166449.77, -187500.02, -187500.02, -187500.02, 0.000, 0.000, 0.000, 17:58:27.291
108, 50198.51, 68520.52, -187500.02, -187500.02, -166224.53, -187500.02, -187500.02, -187500.02, 0.016, -0.010, 1.022, 17:58:27.291
109, 49596.04, 68009.70, -187500.02, -187500.02, -166182.95, -187500.02, -187500.02, -187500.02, 0.000, 0.000, 0.000, 17:58:27.291
110, 49794.52, 68936.64, -187500.02, -187500.02, -166386.61, -187500.02, -187500.02, -187500.02, 0.000, 0.000, 0.000, 17:58:27.291
111, 50403.23, 69486.01, -187500.02, -187500.02, -166489.05, -187500.02, -187500.02, -187500.02, 0.000, 0.000, 0.000, 17:58:27.291
112, 50464.74, 69301.49, -187500.02, -187500.02, -166473.31, -187500.02, -187500.02, -187500.02, 0.000, 0.000, 0.000, 17:58:27.291
113, 50225.84, 68539.90, -187500.02, -187500.02, -166286.48, -187500.02, -187500.02, -187500.02, 0.000, 0.000, 0.000, 17:58:27.291
114, 49622.46, 68020.52, -187500.02, -187500.02, -166242.08, -187500.02, -187500.02, -187500.02, 0.000, 0.000, 0.000, 17:58:27.291
115, 49798.84, 68932.91, -187500.02, -187500.02, -166419.02, -187500.02, -187500.02, -187500.02, 0.000, 0.000, 0.000, 17:58:27.292
116, 50401.98, 69482.77, -187500.02, -187500.02, -166516.25, -187500.02, -187500.02, -187500.02, 0.000, 0.000, 0.000, 17:58:27.292
117, 50463.55, 69303.66, -187500.02, -187500.02, -166493.53, -187500.02, -187500.02, -187500.02, 0.000, 0.000, 0.000, 17:58:27.292
118, 50217.68, 68542.49, -187500.02, -187500.02, -166288.81, -187500.02, -187500.02, -187500.02, 0.014, -0.014, 1.020, 17:58:27.292
119, 49608.58, 68003.93, -187500.02, -187500.02, -166203.45, -187500.02, -187500.02, -187500.02, 0.000, 0.000, 0.000, 17:58:27.292
120, 49790.14, 68920.91, -187500.02, -187500.02, -166387.81, -187500.02, -187500.02, -187500.02, 0.000, 0.000, 0.000, 17:58:27.292
121, 50395.58, 69479.63, -187500.02, -187500.02, -166498.92, -187500.02, -187500.02, -187500.02, 0.000, 0.000, 0.000, 17:58:27.292
122, 50451.20, 69289.38, -187500.02, -187500.02, -166460.19, -187500.02, -187500.02, -187500.02, 0.000, 0.000, 0.000, 17:58:27.292
123, 50219.70, 68543.90, -187500.02, -187500.02, -166239.80, -187500.02, -187500.02, -187500.02, 0.000, 0.000, 0.000, 17:58:27.293
124, 49617.70, 68009.72, -187500.02, -187500.02, -166201.02, -187500.02, -187500.02, -187500.02, 0.000, 0.000, 0.000, 17:58:27.293
125, 49788.46, 68913.73, -187500.02, -187500.02, -166397.48, -187500.02, -187500.02, -187500.02, 0.000, 0.000, 0.000, 17:58:27.293
126, 50405.62, 69489.31, -187500.02, -187500.02, -166538.63, -187500.02, -187500.02, -187500.02, 0.000, 0.000, 0.000, 17:58:27.293
127, 50475.13, 69315.84, -187500.02, -187500.02, -166537.52, -187500.02, -187500.02, -187500.02, 0.012, -0.012, 1.018, 17:58:27.293
128, 50231.81, 68559.26, -187500.02, -187500.02, -166349.59, -187500.02, -187500.02, -187500.02, 0.000, 0.000, 0.000, 17:58:27.293
129, 49616.24, 67992.35, -187500.02, -187500.02, -166246.14, -187500.02, -187500.02, -187500.02, 0.000, 0.000, 0.000, 17:58:27.293
130, 49784.22, 68899.48, -187500.02, -187500.02, -166424.58, -187500.02, -187500.02, -187500.02, 0.000, 0.000, 0.000, 17:58:27.293
131, 50395.80, 69475.39, -187500.02, -187500.02, -166516.53, -187500.02, -187500.02, -187500.02, 0.000, 0.000, 0.000, 17:58:27.293
132, 50463.80, 69301.49, -187500.02, -187500.02, -166489.73, -187500.02, -187500.02, -187500.02, 0.000, 0.000, 0.000, 17:58:27.294
133, 50227.12, 68555.81, -187500.02, -187500.02, -166274.22, -187500.02, -187500.02, -187500.02, 0.000, 0.000, 0.000, 17:58:27.294
134, 49620.71, 67998.20, -187500.02, -187500.02, -166199.63, -187500.02, -187500.02, -187500.02, 0.000, 0.000, 0.000, 17:58:27.294
135, 49784.53, 68896.52, -187500.02, -187500.02, -166408.80, -187500.02, -187500.02, -187500.02, 0.000, 0.000, 0.000, 17:58:27.294
136, 50394.20, 69472.77, -187500.02, -187500.02, -166500.19, -187500.02, -187500.02, -187500.02, 0.000, 0.000, 0.000, 17:58:27.294
137, 50468.07, 69310.37, -187500.02, -187500.02, -166481.75, -187500.02, -187500.02, -187500.02, 0.012, -0.012, 1.024, 17:58:27.294
138, 50239.34, 68571.84, -187500.02, -187500.02, -166273.97, -187500.02, -187500.02, -187500.02, 0.000, 0.000, 0.000, 17:58:27.294
139, 49630.62, 68002.59, -187500.02, -187500.02, -166229.58, -187500.02, -187500.02, -187500.02, 0.000, 0.000, 0.000, 17:58:27.294
140, 49774.47, 68886.98, -187500.02, -187500.02, -166455.38, -187500.02, -187500.02, -187500.02, 0.000, 0.000, 0.000, 17:58:27.294
141, 50387.87, 69472.86, -187500.02, -187500.02, -166591.55, -187500.02, -187500.02, -187500.02, 0.000, 0.000, 0.000, 17:58:27.295
142, 50456.82, 69302.68, -187500.02, -187500.02, -166551.42, -187500.02, -187500.02, -187500.02, 0.000, 0.000, 0.000, 17:58:27.295
143, 50231.48, 68569.96, -187500.02, -187500.02, -166343.17, -187500.02, -187500.02, -187500.02, 0.000, 0.000, 0.000, 17:58:27.295
144, 49625.18, 67989.04, -187500.02, -187500.02, -166276.16, -187500.02, -187500.02, -187500.02, 0.000, 0.000, 0.000, 17:58:27.295
145, 49758.27, 68867.60, -187500.02, -187500.02, -166405.42, -187500.02, -187500.02, -187500.02, 0.000, 0.000, 0.000, 17:58:27.295
146, 50374.44, 69462.02, -187500.02, -187500.02, -166490.20, -187500.02, -187500.02, -187500.02, 0.000, 0.000, 0.000, 17:58:27.295
147, 50460.38, 69309.25, -187500.02, -187500.02, -166494.70, -187500.02, -187500.02, -187500.02, 0.012, -0.010, 1.020, 17:58:27.295
148, 50229.33, 68574.39, -187500.02, -187500.02, -166285.70, -187500.02, -187500.02, -187500.02, 0.000, 0.000, 0.000, 17:58:27.296
149, 49621.63, 67990.83, -187500.02, -187500.02, -166179.98, -187500.02, -187500.02, -187500.02, 0.000, 0.000, 0.000, 17:58:27.296
150, 49756.79, 68868.92, -187500.02, -187500.02, -166356.66, -187500.02, -187500.02, -187500.02, 0.000, 0.000, 0.000, 17:58:27.296
151, 50387.83, 69479.79, -187500.02, -187500.02, -166514.56, -187500.02, -187500.02, -187500.02, 0.000, 0.000, 0.000, 17:58:27.296
152, 50466.17, 69313.95, -187500.02, -187500.02, -166517.94, -187500.02, -187500.02, -187500.02, 0.000, 0.000, 0.000, 17:58:27.296
153, 50238.18, 68583.55, -187500.02, -187500.02, -166343.70, -187500.02, -187500.02, -187500.02, 0.000, 0.000, 0.000, 17:58:27.296
154, 49636.03, 67997.67, -187500.02, -187500.02, -166289.38, -187500.02, -187500.02, -187500.02, 0.000, 0.000, 0.000, 17:58:27.296
155, 49762.16, 68867.38, -187500.02, -187500.02, -166469.28, -187500.02, -187500.02, -187500.02, 0.000, 0.000, 0.000, 17:58:27.296
156, 50386.38, 69475.92, -187500.02, -187500.02, -166598.30, -187500.02, -187500.02, -187500.02, 0.000, 0.000, 0.000, 17:58:27.297
157, 50468.38, 69317.18, -187500.02, -187500.02, -166579.64, -187500.02, -187500.02, -187500.02, 0.012, -0.004, 1.028, 17:58:27.297
158, 50242.65, 68592.18, -187500.02, -187500.02, -166353.72, -187500.02, -187500.02, -187500.02, 0.000, 0.000, 0.000, 17:58:27.297
159, 49632.58, 67986.13, -187500.02, -187500.02, -166258.17, -187500.02, -187500.02, -187500.02, 0.000, 0.000, 0.000, 17:58:27.297
160, 49754.45, 68853.70, -187500.02, -187500.02, -166458.94, -187500.02, -187500.02, -187500.02, 0.000, 0.000, 0.000, 17:58:27.297
161, 50375.62, 69467.01, -187500.02, -187500.02, -166539.48, -187500.02, -187500.02, -187500.02, 0.000, 0.000, 0.000, 17:58:27.297
162, 50464.11, 69314.50, -187500.02, -187500.02, -166511.08, -187500.02, -187500.02, -187500.02, 0.000, 0.000, 0.000, 17:58:27.297
163, 50240.15, 68592.23, -187500.02, -187500.02, -166292.19, -187500.02, -187500.02, -187500.02, 0.000, 0.000, 0.000, 17:58:27.297
164, 49638.04, 67987.32, -187500.02, -187500.02, -166203.63, -187500.02, -187500.02, -187500.02, 0.000, 0.000, 0.000, 17:58:27.297
165, 49751.23, 68851.53, -187500.02, -187500.02, -166395.72, -187500.02, -187500.02, -187500.02, 0.000, 0.000, 0.000, 17:58:27.298
166, 50380.63, 69476.30, -187500.02, -187500.02, -166520.56, -187500.02, -187500.02, -187500.02, 0.000, 0.000, 0.000, 17:58:27.298
167, 50475.42, 69329.32, -187500.02, -187500.02, -166580.42, -187500.02, -187500.02, -187500.02, 0.010, -0.010, 1.026, 17:58:27.298
168, 50248.46, 68603.83, -187500.02, -187500.02, -166405.00, -187500.02, -187500.02, -187500.02, 0.000, 0.000, 0.000, 17:58:27.298
169, 49632.98, 67973.09, -187500.02, -187500.02, -166286.72, -187500.02, -187500.02, -187500.02, 0.000, 0.000, 0.000, 17:58:27.298
170, 49733.17, 68821.94, -187500.02, -187500.02, -166467.36, -187500.02, -187500.02, -187500.02, 0.000, 0.000, 0.000, 17:58:27.298
171, 50356.27, 69445.17, -187500.02, -187500.02, -166574.36, -187500.02, -187500.02, -187500.02, 0.000, 0.000, 0.000, 17:58:27.298
172, 50446.50, 69297.73, -187500.02, -187500.02, -166527.17, -187500.02, -187500.02, -187500.02, 0.000, 0.000, 0.000, 17:58:27.298
173, 50230.70, 68592.36, -187500.02, -187500.02, -166304.08, -187500.02, -187500.02, -187500.02, 0.000, 0.000, 0.000, 17:58:27.298
174, 49625.50, 67966.51, -187500.02, -187500.02, -166191.31, -187500.02, -187500.02, -187500.02, 0.000, 0.000, 0.000, 17:58:27.299
175, 49729.61, 68823.61, -187500.02, -187500.02, -166383.94, -187500.02, -187500.02, -187500.02, 0.000, 0.000, 0.000, 17:58:27.299
176, 50363.30, 69464.03, -187500.02, -187500.02, -166513.66, -187500.02, -187500.02, -187500.02, 0.000, 0.000, 0.000, 17:58:27.299
177, 50466.50, 69324.52, -187500.02, -187500.02, -166532.03, -187500.02, -187500.02, -187500.02, 0.010, -0.012, 1.026, 17:58:27.299
178, 50252.98, 68621.51, -187500.02, -187500.02, -166357.95, -187500.02, -187500.02, -187500.02, 0.000, 0.000, 0.000, 17:58:27.299
179, 49650.46, 67987.39, -187500.02, -187500.02, -166287.00, -187500.02, -187500.02, -187500.02, 0.000, 0.000, 0.000, 17:58:27.299
180, 49729.70, 68815.48, -187500.02, -187500.02, -166486.22, -187500.02, -187500.02, -187500.02, 0.000, 0.000, 0.000, 17:58:27.299
181, 50355.33, 69452.34, -187500.02, -187500.02, -166590.92, -187500.02, -187500.02, -187500.02, 0.000, 0.000, 0.000, 17:58:27.299
182, 50454.14, 69316.42, -187500.02, -187500.02, -166589.13, -187500.02, -187500.02, -187500.02, 0.000, 0.000, 0.000, 17:58:27.300
183, 50237.80, 68614.24, -187500.02, -187500.02, -166376.56, -187500.02, -187500.02, -187500.02, 0.000, 0.000, 0.000, 17:58:27.300
184, 49626.39, 67962.02, -187500.02, -187500.02, -166260.73, -187500.02, -187500.02, -187500.02, 0.000, 0.000, 0.000, 17:58:27.300
185, 49704.94, 68794.22, -187500.02, -187500.02, -166441.97, -187500.02, -187500.02, -187500.02, 0.000, 0.000, 0.000, 17:58:27.300
186, 50336.08, 69449.30, -187500.02, -187500.02, -166537.88, -187500.02, -187500.02, -187500.02, 0.000, 0.000, 0.000, 17:58:27.300
187, 50438.41, 69315.30, -187500.02, -187500.02, -166525.55, -187500.02, -187500.02, -187500.02, 0.014, -0.014, 1.022, 17:58:27.300
188, 50229.82, 68618.16, -187500.02, -187500.02, -166313.92, -187500.02, -187500.02, -187500.02, 0.000, 0.000, 0.000, 17:58:27.300
189, 49631.51, 67968.37, -187500.02, -187500.02, -166185.33, -187500.02, -187500.02, -187500.02, 0.000, 0.000, 0.000, 17:58:27.300
190, 49699.39, 68786.89, -187500.02, -187500.02, -166361.77, -187500.02, -187500.02, -187500.02, 0.000, 0.000, 0.000, 17:58:27.301
191, 50340.60, 69450.09, -187500.02, -187500.02, -166507.75, -187500.02, -187500.02, -187500.02, 0.000, 0.000, 0.000, 17:58:27.301
192, 50454.77, 69327.35, -187500.02, -187500.02, -166532.16, -187500.02, -187500.02, -187500.02, 0.000, 0.000, 0.000, 17:58:27.301
193, 50254.92, 68643.05, -187500.02, -187500.02, -166364.63, -187500.02, -187500.02, -187500.02, 0.000, 0.000, 0.000, 17:58:27.301
194, 49655.49, 67987.52, -187500.02, -187500.02, -166287.30, -187500.02, -187500.02, -187500.02, 0.000, 0.000, 0.000, 17:58:27.301
195, 49714.84, 68802.34, -187500.02, -187500.02, -166513.63, -187500.02, -187500.02, -187500.02, 0.000, 0.000, 0.000, 17:58:27.301
196, 50343.23, 69460.91, -187500.02, -187500.02, -166645.55, -187500.02, -187500.02, -187500.02, 0.000, 0.000, 0.000, 17:58:27.301
197, 50449.02, 69330.64, -187500.02, -187500.02, -166606.83, -187500.02, -187500.02, -187500.02, 0.016, -0.010, 1.020, 17:58:27.301
198, 50243.57, 68641.00, -187500.02, -187500.02, -166395.75, -187500.02, -187500.02, -187500.02, 0.000, 0.000, 0.000, 17:58:27.302
199, 49644.83, 67976.32, -187500.02, -187500.02, -166283.47, -187500.02, -187500.02, -187500.02, 0.000, 0.000, 0.000, 17:58:27.302
200, 49697.25, 68781.39, -187500.02, -187500.02, -166468.39, -187500.02, -187500.02, -187500.02, 0.000, 0.000, 0.000, 17:58:27.302
201, 50331.12, 69453.02, -187500.02, -187500.02, -166567.92, -187500.02, -187500.02, -187500.02, 0.000, 0.000, 0.000, 17:58:27.302
202, 50450.25, 69333.39, -187500.02, -187500.02, -166560.75, -187500.02, -187500.02, -187500.02, 0.000, 0.000, 0.000, 17:58:27.302
203, 50245.47, 68647.79, -187500.02, -187500.02, -166359.98, -187500.02, -187500.02, -187500.02, 0.000, 0.000, 0.000, 17:58:27.302
204, 49649.79, 67979.56, -187500.02, -187500.02, -166278.72, -187500.02, -187500.02, -187500.02, 0.000, 0.000, 0.000, 17:58:27.302
205, 49687.28, 68773.52, -187500.02, -187500.02, -166456.81, -187500.02, -187500.02, -187500.02, 0.000, 0.000, 0.000, 17:58:27.302
206, 50329.06, 69456.55, -187500.02, -187500.02, -166560.92, -187500.02, -187500.02, -187500.02, 0.000, 0.000, 0.000, 17:58:27.302
207, 50458.28, 69346.76, -187500.02, -187500.02, -166562.95, -187500.02, -187500.02, -187500.02, 0.012, -0.008, 1.016, 17:58:27.303
208, 50266.95, 68676.02, -187500.02, -187500.02, -166405.95, -187500.02, -187500.02, -187500.02, 0.000, 0.000, 0.000, 17:58:27.303
209, 49670.25, 67994.01, -187500.02, -187500.02, -166327.61, -187500.02, -187500.02, -187500.02, 0.000, 0.000, 0.000, 17:58:27.303
210, 49697.49, 68778.28, -187500.02, -187500.02, -166528.69, -187500.02, -187500.02, -187500.02, 0.000, 0.000, 0.000, 17:58:27.303
211, 50331.23, 69460.03, -187500.02, -187500.02, -166651.41, -187500.02, -187500.02, -187500.02, 0.000, 0.000, 0.000, 17:58:27.303
212, 50451.93, 69342.71, -187500.02, -187500.02, -166633.67, -187500.02, -187500.02, -187500.02, 0.000, 0.000, 0.000, 17:58:27.303
213, 50257.98, 68669.36, -187500.02, -187500.02, -166432.22, -187500.02, -187500.02, -187500.02, 0.000, 0.000, 0.000, 17:58:27.303
214, 49657.21, 67973.87, -187500.02, -187500.02, -166307.61, -187500.02, -187500.02, -187500.02, 0.000, 0.000, 0.000, 17:58:27.304
215, 49674.38, 68748.15, -187500.02, -187500.02, -166455.58, -187500.02, -187500.02, -187500.02, 0.000, 0.000, 0.000, 17:58:27.304
216, 50312.16, 69441.97, -187500.02, -187500.02, -166577.17, -187500.02, -187500.02, -187500.02, 0.000, 0.000, 0.000, 17:58:27.304
217, 50440.49, 69332.07, -187500.02, -187500.02, -166564.09, -187500.02, -187500.02, -187500.02, 0.014, -0.010, 1.026, 17:58:27.304
218, 50246.00, 68663.80, -187500.02, -187500.02, -166351.94, -187500.02, -187500.02, -187500.02, 0.000, 0.000, 0.000, 17:58:27.304
219, 49656.79, 67975.52, -187500.02, -187500.02, -166255.31, -187500.02, -187500.02, -187500.02, 0.000, 0.000, 0.000, 17:58:27.304
220, 49677.13, 68751.98, -187500.02, -187500.02, -166468.95, -187500.02, -187500.02, -187500.02, 0.000, 0.000, 0.000, 17:58:27.305
221, 50323.30, 69457.28, -187500.02, -187500.02, -166624.56, -187500.02, -187500.02, -187500.02, 0.000, 0.000, 0.000, 17:58:27.305
222, 50454.79, 69349.52, -187500.02, -187500.02, -166644.81, -187500.02, -187500.02, -187500.02, 0.000, 0.000, 0.000, 17:58:27.305
223, 50259.53, 68678.77, -187500.02, -187500.02, -166473.48, -187500.02, -187500.02, -187500.02, 0.000, 0.000, 0.000, 17:58:27.305
224, 49663.03, 67975.63, -187500.02, -187500.02, -166364.45, -187500.02, -187500.02, -187500.02, 0.000, 0.000, 0.000, 17:58:27.770
225, 49673.15, 68739.57, -187500.02, -187500.02, -166555.30, -187500.02, -187500.02, -187500.02, 0.000, 0.000, 0.000, 17:58:27.770
226, 50307.85, 69440.05, -187500.02, -187500.02, -166672.92, -187500.02, -187500.02, -187500.02, 0.000, 0.000, 0.000, 17:58:27.770
227, 50444.15, 69336.02, -187500.02, -187500.02, -166685.56, -187500.02, -187500.02, -187500.02, 0.012, -0.014, 1.028, 17:58:27.771
228, 50254.61, 68673.14, -187500.02, -187500.02, -166489.25, -187500.02, -187500.02, -187500.02, 0.000, 0.000, 0.000, 17:58:27.771
229, 49661.08, 67961.35, -187500.02, -187500.02, -166364.50, -187500.02, -187500.02, -187500.02, 0.000, 0.000, 0.000, 17:58:27.771
230, 49654.27, 68713.15, -187500.02, -187500.02, -166508.55, -187500.02, -187500.02, -187500.02, 0.000, 0.000, 0.000, 17:58:27.771
231, 50295.76, 69426.95, -187500.02, -187500.02, -166611.94, -187500.02, -187500.02, -187500.02, 0.000, 0.000, 0.000, 17:58:27.771
232, 50438.34, 69331.71, -187500.02, -187500.02, -166606.55, -187500.02, -187500.02, -187500.02, 0.000, 0.000, 0.000, 17:58:27.771
233, 50251.52, 68674.13, -187500.02, -187500.02, -166400.22, -187500.02, -187500.02, -187500.02, 0.000, 0.000, 0.000, 17:58:27.772
234, 49663.36, 67961.52, -187500.02, -187500.02, -166267.73, -187500.02, -187500.02, -187500.02, 0.000, 0.000, 0.000, 17:58:27.772
235, 49654.33, 68713.02, -187500.02, -187500.02, -166421.66, -187500.02, -187500.02, -187500.02, 0.000, 0.000, 0.000, 17:58:27.772
236, 50306.96, 69443.20, -187500.02, -187500.02, -166580.27, -187500.02, -187500.02, -187500.02, 0.000, 0.000, 0.000, 17:58:27.772
237, 50459.82, 69358.38, -187500.02, -187500.02, -166638.53, -187500.02, -187500.02, -187500.02, 0.012, -0.012, 1.026, 17:58:27.772
238, 50269.05, 68705.70, -187500.02, -187500.02, -166458.17, -187500.02, -187500.02, -187500.02, 0.000, 0.000, 0.000, 17:58:27.772
239, 49677.20, 67980.52, -187500.02, -187500.02, -166369.42, -187500.02, -187500.02, -187500.02, 0.000, 0.000, 0.000, 17:58:27.773
240, 49657.66, 68715.09, -187500.02, -187500.02, -166566.84, -187500.02, -187500.02, -187500.02, 0.000, 0.000, 0.000, 17:58:27.773
241, 50294.15, 69435.29, -187500.02, -187500.02, -166672.13, -187500.02, -187500.02, -187500.02, 0.000, 0.000, 0.000, 17:58:27.773
242, 50442.88, 69343.67, -187500.02, -187500.02, -166664.91, -187500.02, -187500.02, -187500.02, 0.000, 0.000, 0.000, 17:58:27.773
243, 50262.25, 68701.73, -187500.02, -187500.02, -166480.86, -187500.02, -187500.02, -187500.02, 0.000, 0.000, 0.000, 17:58:27.773
244, 49678.94, 67975.41, -187500.02, -187500.02, -166365.19, -187500.02, -187500.02, -187500.02, 0.000, 0.000, 0.000, 17:58:27.774
245, 49651.45, 68702.09, -187500.02, -187500.02, -166535.89, -187500.02, -187500.02, -187500.02, 0.000, 0.000, 0.000, 17:58:27.774
246, 50286.37, 69426.86, -187500.02, -187500.02, -166647.72, -187500.02, -187500.02, -187500.02, 0.012, -0.016, 1.026, 17:58:27.774
247, 50443.88, 69345.66, -187500.02, -187500.02, -166648.23, -187500.02, -187500.02, -187500.02, 0.000, 0.000, 0.000, 17:58:27.774
248, 50264.45, 68706.22, -187500.02, -187500.02, -166462.28, -187500.02, -187500.02, -187500.02, 0.000, 0.000, 0.000, 17:58:27.774
249, 49672.91, 67961.95, -187500.02, -187500.02, -166309.80, -187500.02, -187500.02, -187500.02, 0.000, 0.000, 0.000, 17:58:27.774
250, 49644.39, 68688.49, -187500.02, -187500.02, -166497.16, -187500.02, -187500.02, -187500.02, 0.000, 0.000, 0.000, 17:58:27.775
251, 50295.94, 69439.49, -187500.02, -187500.02, -166656.13, -187500.02, -187500.02, -187500.02, 0.000, 0.000, 0.000, 17:58:27.775
252, 50459.53, 69369.55, -187500.02, -187500.02, -166684.69, -187500.02, -187500.02, -187500.02, 0.000, 0.000, 0.000, 17:58:27.775
253, 50285.52, 68734.54, -187500.02, -187500.02, -166516.89, -187500.02, -187500.02, -187500.02, 0.000, 0.000, 0.000, 17:58:27.775
254, 49700.93, 67985.31, -187500.02, -187500.02, -166403.95, -187500.02, -187500.02, -187500.02, 0.000, 0.000, 0.000, 17:58:27.775
255, 49648.54, 68686.46, -187500.02, -187500.02, -166546.53, -187500.02, -187500.02, -187500.02, 0.000, 0.000, 0.000, 17:58:27.776
0, 50286.48, 69432.43, -187500.02, -187500.02, -166658.61, -187500.02, -187500.02, -187500.02, 0.016, -0.012, 1.018, 17:58:27.776
1, 50446.48, 69357.15, -187500.02, -187500.02, -166681.33, -187500.02, -187500.02, -187500.02, 0.000, 0.000, 0.000, 17:58:27.776
2, 50272.40, 68726.00, -187500.02, -187500.02, -166517.19, -187500.02, -187500.02, -187500.02, 0.000, 0.000, 0.000, 17:58:27.776
3, 49685.04, 67971.67, -187500.02, -187500.02, -166383.20, -187500.02, -187500.02, -187500.02, 0.000, 0.000, 0.000, 17:58:27.776
4, 49633.19, 68668.29, -187500.02, -187500.02, -166541.19, -187500.02, -187500.02, -187500.02, 0.000, 0.000, 0.000, 17:58:27.776
5, 50277.10, 69422.39, -187500.02, -187500.02, -166649.02, -187500.02, -187500.02, -187500.02, 0.000, 0.000, 0.000, 17:58:27.777
6, 50437.36, 69347.38, -187500.02, -187500.02, -166628.89, -187500.02, -187500.02, -187500.02, 0.000, 0.000, 0.000, 17:58:27.777
7, 50268.18, 68726.85, -187500.02, -187500.02, -166452.11, -187500.02, -187500.02, -187500.02, 0.000, 0.000, 0.000, 17:58:27.777
8, 49693.16, 67976.62, -187500.02, -187500.02, -166333.00, -187500.02, -187500.02, -187500.02, 0.000, 0.000, 0.000, 17:58:27.777
9, 49636.27, 68665.02, -187500.02, -187500.02, -166499.95, -187500.02, -187500.02, -187500.02, 0.000, 0.000, 0.000, 17:58:27.777
10, 50286.30, 69434.41, -187500.02, -187500.02, -166634.80, -187500.02, -187500.02, -187500.02, 0.016, -0.008, 1.018, 17:58:27.777
11, 50458.10, 69369.84, -187500.02, -187500.02, -166647.41, -187500.02, -187500.02, -187500.02, 0.000, 0.000, 0.000, 17:58:27.777
12, 50294.39, 68758.19, -187500.02, -187500.02, -166522.53, -187500.02, -187500.02, -187500.02, 0.000, 0.000, 0.000, 17:58:27.777
13, 49714.97, 67992.41, -187500.02, -187500.02, -166415.03, -187500.02, -187500.02, -187500.02, 0.000, 0.000, 0.000, 17:58:27.777
14, 49640.25, 68661.12, -187500.02, -187500.02, -166576.69, -187500.02, -187500.02, -187500.02, 0.000, 0.000, 0.000, 17:58:27.778
15, 50276.61, 69421.21, -187500.02, -187500.02, -166716.53, -187500.02, -187500.02, -187500.02, 0.000, 0.000, 0.000, 17:58:27.778
16, 50449.54, 69356.09, -187500.02, -187500.02, -166708.77, -187500.02, -187500.02, -187500.02, 0.000, 0.000, 0.000, 17:58:27.778
17, 50274.01, 68739.10, -187500.02, -187500.02, -166520.69, -187500.02, -187500.02, -187500.02, 0.000, 0.000, 0.000, 17:58:27.778
18, 49692.04, 67969.98, -187500.02, -187500.02, -166383.97, -187500.02, -187500.02, -187500.02, 0.000, 0.000, 0.000, 17:58:27.778
19, 49616.78, 68637.02, -187500.02, -187500.02, -166531.00, -187500.02, -187500.02, -187500.02, 0.000, 0.000, 0.000, 17:58:27.778
20, 50263.19, 69411.93, -187500.02, -187500.02, -166643.67, -187500.02, -187500.02, -187500.02, 0.014, -0.012, 1.022, 17:58:27.778
21, 50437.78, 69351.23, -187500.02, -187500.02, -166639.69, -187500.02, -187500.02, -187500.02, 0.000, 0.000, 0.000, 17:58:27.779
22, 50276.31, 68743.52, -187500.02, -187500.02, -166445.98, -187500.02, -187500.02, -187500.02, 0.000, 0.000, 0.000, 17:58:27.779
23, 49708.63, 67972.75, -187500.02, -187500.02, -166310.50, -187500.02, -187500.02, -187500.02, 0.000, 0.000, 0.000, 17:58:27.779
24, 49621.99, 68625.06, -187500.02, -187500.02, -166473.47, -187500.02, -187500.02, -187500.02, 0.000, 0.000, 0.000, 17:58:27.779
25, 50267.75, 69410.86, -187500.02, -187500.02, -166610.59, -187500.02, -187500.02, -187500.02, 0.000, 0.000, 0.000, 17:58:27.779
26, 50461.74, 69368.77, -187500.02, -187500.02, -166667.44, -187500.02, -187500.02, -187500.02, 0.000, 0.000, 0.000, 17:58:27.779
27, 50302.06, 68769.48, -187500.02, -187500.02, -166543.27, -187500.02, -187500.02, -187500.02, 0.000, 0.000, 0.000, 17:58:27.779
28, 49724.23, 67985.69, -187500.02, -187500.02, -166417.20, -187500.02, -187500.02, -187500.02, 0.000, 0.000, 0.000, 17:58:27.779
29, 49626.30, 68625.91, -187500.02, -187500.02, -166572.33, -187500.02, -187500.02, -187500.02, 0.000, 0.000, 0.000, 17:58:27.780
30, 50265.23, 69411.95, -187500.02, -187500.02, -166705.77, -187500.02, -187500.02, -187500.02, 0.014, -0.012, 1.022, 17:58:27.780
31, 50449.38, 69361.08, -187500.02, -187500.02, -166723.06, -187500.02, -187500.02, -187500.02, 0.000, 0.000, 0.000, 17:58:27.780
32, 50283.80, 68757.45, -187500.02, -187500.02, -166542.81, -187500.02, -187500.02, -187500.02, 0.000, 0.000, 0.000, 17:58:27.780
33, 49707.84, 67967.85, -187500.02, -187500.02, -166371.36, -187500.02, -187500.02, -187500.02, 0.000, 0.000, 0.000, 17:58:27.780
34, 49605.09, 68599.96, -187500.02, -187500.02, -166509.77, -187500.02, -187500.02, -187500.02, 0.000, 0.000, 0.000, 17:58:27.780
35, 50248.93, 69393.42, -187500.02, -187500.02, -166625.98, -187500.02, -187500.02, -187500.02, 0.000, 0.000, 0.000, 17:58:27.780
36, 50444.60, 69357.44, -187500.02, -187500.02, -166661.22, -187500.02, -187500.02, -187500.02, 0.000, 0.000, 0.000, 17:58:27.780
37, 50285.25, 68764.88, -187500.02, -187500.02, -166511.53, -187500.02, -187500.02, -187500.02, 0.000, 0.000, 0.000, 17:58:27.780
38, 49712.98, 67971.38, -187500.02, -187500.02, -166372.67, -187500.02, -187500.02, -187500.02, 0.000, 0.000, 0.000, 17:58:27.781
39, 49603.79, 68601.37, -187500.02, -187500.02, -166530.53, -187500.02, -187500.02, -187500.02, 0.000, 0.000, 0.000, 17:58:27.781
40, 50242.16, 69401.90, -187500.02, -187500.02, -166673.42, -187500.02, -187500.02, -187500.02, 0.008, -0.016, 1.026, 17:58:27.781
41, 50441.02, 69365.04, -187500.02, -187500.02, -166671.52, -187500.02, -187500.02, -187500.02, 0.000, 0.000, 0.000, 17:58:27.781
42, 50299.49, 68788.99, -187500.02, -187500.02, -166547.05, -187500.02, -187500.02, -187500.02, 0.000, 0.000, 0.000, 17:58:27.781
43, 49734.75, 67993.06, -187500.02, -187500.02, -166459.09, -187500.02, -187500.02, -187500.02, 0.000, 0.000, 0.000, 17:58:27.781
44, 49610.79, 68604.09, -187500.02, -187500.02, -166638.22, -187500.02, -187500.02, -187500.02, 0.000, 0.000, 0.000, 17:58:27.781
45, 50246.43, 69405.67, -187500.02, -187500.02, -166771.52, -187500.02, -187500.02, -187500.02, 0.000, 0.000, 0.000, 17:58:27.781
46, 50448.62, 69370.54, -187500.02, -187500.02, -166773.05, -187500.02, -187500.02, -187500.02, 0.000, 0.000, 0.000, 17:58:27.782
47, 50288.38, 68781.95, -187500.02, -187500.02, -166586.36, -187500.02, -187500.02, -187500.02, 0.000, 0.000, 0.000, 17:58:27.782
48, 49726.57, 67976.37, -187500.02, -187500.02, -166451.13, -187500.02, -187500.02, -187500.02, 0.000, 0.000, 0.000, 17:58:27.782
49, 49596.64, 68574.99, -187500.02, -187500.02, -166585.33, -187500.02, -187500.02, -187500.02, 0.000, 0.000, 0.000, 17:58:27.782
50, 50240.55, 69389.36, -187500.02, -187500.02, -166675.36, -187500.02, -187500.02, -187500.02, 0.006, -0.014, 1.030, 17:58:27.782
51, 50449.43, 69366.06, -187500.02, -187500.02, -166701.36, -187500.02, -187500.02, -187500.02, 0.000, 0.000, 0.000, 17:58:27.783
52, 50291.56, 68781.39, -187500.02, -187500.02, -166547.63, -187500.02, -187500.02, -187500.02, 0.000, 0.000, 0.000, 17:58:27.783
53, 49729.93, 67972.84, -187500.02, -187500.02, -166384.06, -187500.02, -187500.02, -187500.02, 0.000, 0.000, 0.000, 17:58:27.783
54, 49593.80, 68564.29, -187500.02, -187500.02, -166520.67, -187500.02, -187500.02, -187500.02, 0.000, 0.000, 0.000, 17:58:27.783
55, 50240.28, 69394.63, -187500.02, -187500.02, -166690.41, -187500.02, -187500.02, -187500.02, 0.000, 0.000, 0.000, 17:58:27.783
56, 50452.29, 69373.80, -187500.02, -187500.02, -166732.30, -187500.02, -187500.02, -187500.02, 0.000, 0.000, 0.000, 17:58:27.783
57, 50304.59, 68797.98, -187500.02, -187500.02, -166617.98, -187500.02, -187500.02, -187500.02, 0.000, 0.000, 0.000, 17:58:27.784
58, 49735.49, 67976.41, -187500.02, -187500.02, -166465.77, -187500.02, -187500.02, -187500.02, 0.000, 0.000, 0.000, 17:58:27.784
59, 49584.62, 68552.40, -187500.02, -187500.02, -166600.55, -187500.02, -187500.02, -187500.02, 0.000, 0.000, 0.000, 17:58:27.784
60, 50228.41, 69384.26, -187500.02, -187500.02, -166756.48, -187500.02, -187500.02, -187500.02, 0.008, -0.014, 1.030, 17:58:27.784
61, 50446.79, 69370.09, -187500.02, -187500.02, -166791.06, -187500.02, -187500.02, -187500.02, 0.000, 0.000, 0.000, 17:58:27.784
62, 50298.26, 68799.65, -187500.02, -187500.02, -166652.05, -187500.02, -187500.02, -187500.02, 0.000, 0.000, 0.000, 17:58:27.785
63, 49732.99, 67974.98, -187500.02, -187500.02, -166495.20, -187500.02, -187500.02, -187500.02, 0.000, 0.000, 0.000, 17:58:27.785
64, 49573.95, 68540.13, -187500.02, -187500.02, -166601.47, -187500.02, -187500.02, -187500.02, 0.000, 0.000, 0.000, 17:58:27.785
65, 50217.82, 69378.02, -187500.02, -187500.02, -166727.47, -187500.02, -187500.02, -187500.02, 0.000, 0.000, 0.000, 17:58:27.785
66, 50431.10, 69356.08, -187500.02, -187500.02, -166756.72, -187500.02, -187500.02, -187500.02, 0.000, 0.000, 0.000, 17:58:27.785
67, 50287.09, 68794.78, -187500.02, -187500.02, -166616.73, -187500.02, -187500.02, -187500.02, 0.000, 0.000, 0.000, 17:58:27.785
68, 49729.37, 67968.88, -187500.02, -187500.02, -166442.42, -187500.02, -187500.02, -187500.02, 0.000, 0.000, 0.000, 17:58:27.786
69, 49571.72, 68532.86, -187500.02, -187500.02, -166574.67, -187500.02, -187500.02, -187500.02, 0.000, 0.000, 0.000, 17:58:27.786
70, 50221.44, 69381.55, -187500.02, -187500.02, -166729.91, -187500.02, -187500.02, -187500.02, 0.012, -0.014, 1.024, 17:58:27.786
71, 50455.38, 69380.62, -187500.02, -187500.02, -166797.78, -187500.02, -187500.02, -187500.02, 0.000, 0.000, 0.000, 17:58:27.786
72, 50311.27, 68818.16, -187500.02, -187500.02, -166672.23, -187500.02, -187500.02, -187500.02, 0.000, 0.000, 0.000, 17:58:27.786
73, 49753.30, 67983.77, -187500.02, -187500.02, -166514.50, -187500.02, -187500.02, -187500.02, 0.000, 0.000, 0.000, 17:58:27.786
74, 49580.14, 68530.36, -187500.02, -187500.02, -166665.70, -187500.02, -187500.02, -187500.02, 0.000, 0.000, 0.000, 17:58:27.787
75, 50206.44, 69367.88, -187500.02, -187500.02, -166783.14, -187500.02, -187500.02, -187500.02, 0.000, 0.000, 0.000, 17:58:27.787
76, 50437.89, 69367.38, -187500.02, -187500.02, -166802.13, -187500.02, -187500.02, -187500.02, 0.000, 0.000, 0.000, 17:58:27.787
77, 50293.57, 68810.29, -187500.02, -187500.02, -166654.63, -187500.02, -187500.02, -187500.02, 0.000, 0.000, 0.000, 17:58:27.787
78, 49731.13, 67967.36, -187500.02, -187500.02, -166442.80, -187500.02, -187500.02, -187500.02, 0.000, 0.000, 0.000, 17:58:27.787
79, 49556.36, 68506.93, -187500.02, -187500.02, -166546.78, -187500.02, -187500.02, -187500.02, 0.000, 0.000, 0.000, 17:58:27.788
80, 50195.94, 69360.23, -187500.02, -187500.02, -166703.16, -187500.02, -187500.02, -187500.02, 0.016, -0.014, 1.026, 17:58:27.788
81, 50426.41, 69359.43, -187500.02, -187500.02, -166721.75, -187500.02, -187500.02, -187500.02, 0.000, 0.000, 0.000, 17:58:27.788
82, 50285.34, 68809.15, -187500.02, -187500.02, -166586.11, -187500.02, -187500.02, -187500.02, 0.000, 0.000, 0.000, 17:58:27.788
83, 49742.29, 67976.70, -187500.02, -187500.02, -166439.00, -187500.02, -187500.02, -187500.02, 0.000, 0.000, 0.000, 17:58:27.788
84, 49555.43, 68497.97, -187500.02, -187500.02, -166584.23, -187500.02, -187500.02, -187500.02, 0.000, 0.000, 0.000, 17:58:27.788
85, 50189.81, 69357.48, -187500.02, -187500.02, -166694.98, -187500.02, -187500.02, -187500.02, 0.000, 0.000, 0.000, 17:58:27.789
86, 50437.92, 69375.19, -187500.02, -187500.02, -166747.30, -187500.02, -187500.02, -187500.02, 0.000, 0.000, 0.000, 17:58:27.789
87, 50308.97, 68836.35, -187500.02, -187500.02, -166661.63, -187500.02, -187500.02, -187500.02, 0.000, 0.000, 0.000, 17:58:27.789
88, 49754.63, 67988.73, -187500.02, -187500.02, -166513.81, -187500.02, -187500.02, -187500.02, 0.000, 0.000, 0.000, 17:58:27.789
89, 49553.39, 68492.96, -187500.02, -187500.02, -166654.28, -187500.02, -187500.02, -187500.02, 0.000, 0.000, 0.000, 17:58:28.252
90, 50183.55, 69348.81, -187500.02, -187500.02, -166778.19, -187500.02, -187500.02, -187500.02, 0.014, -0.008, 1.028, 17:58:28.252
91, 50421.42, 69356.16, -187500.02, -187500.02, -166761.91, -187500.02, -187500.02, -187500.02, 0.000, 0.000, 0.000, 17:58:28.252
92, 50282.97, 68816.62, -187500.02, -187500.02, -166602.25, -187500.02, -187500.02, -187500.02, 0.000, 0.000, 0.000, 17:58:28.252
93, 49744.77, 67976.64, -187500.02, -187500.02, -166439.58, -187500.02, -187500.02, -187500.02, 0.000, 0.000, 0.000, 17:58:28.252
94, 49548.25, 68481.23, -187500.02, -187500.02, -166586.31, -187500.02, -187500.02, -187500.02, 0.000, 0.000, 0.000, 17:58:28.253
95, 50184.61, 69348.84, -187500.02, -187500.02, -166736.77, -187500.02, -187500.02, -187500.02, 0.000, 0.000, 0.000, 17:58:28.253
96, 50440.13, 69369.30, -187500.02, -187500.02, -166793.50, -187500.02, -187500.02, -187500.02, 0.000, 0.000, 0.000, 17:58:28.253
97, 50309.15, 68844.89, -187500.02, -187500.02, -166661.02, -187500.02, -187500.02, -187500.02, 0.000, 0.000, 0.000, 17:58:28.253
98, 49769.80, 67996.77, -187500.02, -187500.02, -166498.20, -187500.02, -187500.02, -187500.02, 0.000, 0.000, 0.000, 17:58:28.253
99, 49556.12, 68483.58, -187500.02, -187500.02, -166651.84, -187500.02, -187500.02, -187500.02, 0.000, 0.000, 0.000, 17:58:28.253
100, 50177.16, 69353.68, -187500.02, -187500.02, -166766.16, -187500.02, -187500.02, -187500.02, 0.014, -0.014, 1.028, 17:58:28.254
101, 50432.42, 69375.43, -187500.02, -187500.02, -166807.91, -187500.02, -187500.02, -187500.02, 0.000, 0.000, 0.000, 17:58:28.254
102, 50298.00, 68842.07, -187500.02, -187500.02, -166673.69, -187500.02, -187500.02, -187500.02, 0.000, 0.000, 0.000, 17:58:28.254
103, 49759.59, 67986.65, -187500.02, -187500.02, -166486.97, -187500.02, -187500.02, -187500.02, 0.000, 0.000, 0.000, 17:58:28.254
104, 49541.72, 68469.94, -187500.02, -187500.02, -166622.75, -187500.02, -187500.02, -187500.02, 0.000, 0.000, 0.000, 17:58:28.254
105, 50169.09, 69345.30, -187500.02, -187500.02, -166764.64, -187500.02, -187500.02, -187500.02, 0.000, 0.000, 0.000, 17:58:28.255
106, 50420.19, 69363.41, -187500.02, -187500.02, -166766.58, -187500.02, -187500.02, -187500.02, 0.000, 0.000, 0.000, 17:58:28.255
107, 50291.78, 68838.25, -187500.02, -187500.02, -166598.77, -187500.02, -187500.02, -187500.02, 0.000, 0.000, 0.000, 17:58:28.255
108, 49764.44, 67992.51, -187500.02, -187500.02, -166397.38, -187500.02, -187500.02, -187500.02, 0.000, 0.000, 0.000, 17:58:28.255
109, 49551.45, 68474.23, -187500.02, -187500.02, -166540.27, -187500.02, -187500.02, -187500.02, 0.000, 0.000, 0.000, 17:58:28.255
110, 50186.86, 69365.35, -187500.02, -187500.02, -166711.19, -187500.02, -187500.02, -187500.02, 0.016, -0.008, 1.026, 17:58:28.255
111, 50447.39, 69394.54, -187500.02, -187500.02, -166764.95, -187500.02, -187500.02, -187500.02, 0.000, 0.000, 0.000, 17:58:28.256
112, 50321.24, 68873.75, -187500.02, -187500.02, -166643.20, -187500.02, -187500.02, -187500.02, 0.000, 0.000, 0.000, 17:58:28.256
113, 49798.21, 68018.91, -187500.02, -187500.02, -166499.53, -187500.02, -187500.02, -187500.02, 0.000, 0.000, 0.000, 17:58:28.256
114, 49561.86, 68474.52, -187500.02, -187500.02, -166659.98, -187500.02, -187500.02, -187500.02, 0.000, 0.000, 0.000, 17:58:28.256
115, 50176.45, 69352.38, -187500.02, -187500.02, -166790.92, -187500.02, -187500.02, -187500.02, 0.000, 0.000, 0.000, 17:58:28.256
116, 50444.55, 69390.01, -187500.02, -187500.02, -166837.55, -187500.02, -187500.02, -187500.02, 0.000, 0.000, 0.000, 17:58:28.256
117, 50312.75, 68869.63, -187500.02, -187500.02, -166685.16, -187500.02, -187500.02, -187500.02, 0.000, 0.000, 0.000, 17:58:28.257
118, 49782.12, 67998.66, -187500.02, -187500.02, -166460.23, -187500.02, -187500.02, -187500.02, 0.000, 0.000, 0.000, 17:58:28.257
119, 49541.99, 68443.50, -187500.02, -187500.02, -166584.95, -187500.02, -187500.02, -187500.02, 0.014, -0.012, 1.024, 17:58:28.257
120, 50167.59, 69345.63, -187500.02, -187500.02, -166731.80, -187500.02, -187500.02, -187500.02, 0.000, 0.000, 0.000, 17:58:28.257
121, 50443.86, 69394.45, -187500.02, -187500.02, -166762.61, -187500.02, -187500.02, -187500.02, 0.000, 0.000, 0.000, 17:58:28.257
122, 50321.69, 68881.99, -187500.02, -187500.02, -166632.25, -187500.02, -187500.02, -187500.02, 0.000, 0.000, 0.000, 17:58:28.257
123, 49797.74, 68018.45, -187500.02, -187500.02, -166438.33, -187500.02, -187500.02, -187500.02, 0.000, 0.000, 0.000, 17:58:28.258
124, 49549.05, 68447.97, -187500.02, -187500.02, -166556.64, -187500.02, -187500.02, -187500.02, 0.000, 0.000, 0.000, 17:58:28.258
125, 50172.09, 69349.64, -187500.02, -187500.02, -166692.70, -187500.02, -187500.02, -187500.02, 0.000, 0.000, 0.000, 17:58:28.258
126, 50449.20, 69398.43, -187500.02, -187500.02, -166758.16, -187500.02, -187500.02, -187500.02, 0.000, 0.000, 0.000, 17:58:28.258
127, 50330.23, 68893.21, -187500.02, -187500.02, -166669.22, -187500.02, -187500.02, -187500.02, 0.000, 0.000, 0.000, 17:58:28.258
128, 49814.75, 68031.13, -187500.02, -187500.02, -166524.00, -187500.02, -187500.02, -187500.02, 0.000, 0.000, 0.000, 17:58:28.258
129, 49545.72, 68440.88, -187500.02, -187500.02, -166640.98, -187500.02, -187500.02, -187500.02, 0.012, -0.012, 1.026, 17:58:28.259
130, 50159.41, 69342.24, -187500.02, -187500.02, -166774.61, -187500.02, -187500.02, -187500.02, 0.000, 0.000, 0.000, 17:58:28.259
131, 50443.32, 69393.40, -187500.02, -187500.02, -166819.94, -187500.02, -187500.02, -187500.02, 0.000, 0.000, 0.000, 17:58:28.259
132, 50321.11, 68887.47, -187500.02, -187500.02, -166701.25, -187500.02, -187500.02, -187500.02, 0.000, 0.000, 0.000, 17:58:28.259
133, 49798.23, 68011.91, -187500.02, -187500.02, -166484.75, -187500.02, -187500.02, -187500.02, 0.000, 0.000, 0.000, 17:58:28.259
134, 49536.23, 68422.24, -187500.02, -187500.02, -166596.20, -187500.02, -187500.02, -187500.02, 0.000, 0.000, 0.000, 17:58:28.259
135, 50152.46, 69331.29, -187500.02, -187500.02, -166726.97, -187500.02, -187500.02, -187500.02, 0.000, 0.000, 0.000, 17:58:28.260
136, 50428.13, 69374.34, -187500.02, -187500.02, -166677.64, -187500.02, -187500.02, -187500.02, 0.000, 0.000, 0.000, 17:58:28.260
137, 50322.25, 68890.38, -187500.02, -187500.02, -166554.33, -187500.02, -187500.02, -187500.02, 0.000, 0.000, 0.000, 17:58:28.260
138, 49818.97, 68028.20, -187500.02, -187500.02, -166405.52, -187500.02, -187500.02, -187500.02, 0.000, 0.000, 0.000, 17:58:28.260
139, 49551.67, 68433.24, -187500.02, -187500.02, -166559.06, -187500.02, -187500.02, -187500.02, 0.012, -0.014, 1.028, 17:58:28.260
140, 50164.27, 69347.76, -187500.02, -187500.02, -166707.95, -187500.02, -187500.02, -187500.02, 0.000, 0.000, 0.000, 17:58:28.260
141, 50453.83, 69402.81, -187500.02, -187500.02, -166741.80, -187500.02, -187500.02, -187500.02, 0.000, 0.000, 0.000, 17:58:28.261
142, 50336.37, 68909.06, -187500.02, -187500.02, -166640.09, -187500.02, -187500.02, -187500.02, 0.000, 0.000, 0.000, 17:58:28.261
143, 49832.99, 68040.61, -187500.02, -187500.02, -166496.80, -187500.02, -187500.02, -187500.02, 0.000, 0.000, 0.000, 17:58:28.261
144, 49551.45, 68418.27, -187500.02, -187500.02, -166636.08, -187500.02, -187500.02, -187500.02, 0.000, 0.000, 0.000, 17:58:28.261
145, 50161.40, 69333.27, -187500.02, -187500.02, -166803.84, -187500.02, -187500.02, -187500.02, 0.000, 0.000, 0.000, 17:58:28.261
146, 50444.91, 69390.01, -187500.02, -187500.02, -166804.88, -187500.02, -187500.02, -187500.02, 0.000, 0.000, 0.000, 17:58:28.261
147, 50333.04, 68905.73, -187500.02, -187500.02, -166695.86, -187500.02, -187500.02, -187500.02, 0.000, 0.000, 0.000, 17:58:28.262
148, 49818.15, 68019.62, -187500.02, -187500.02, -166489.67, -187500.02, -187500.02, -187500.02, 0.000, 0.000, 0.000, 17:58:28.262
149, 49532.94, 68397.59, -187500.02, -187500.02, -166594.23, -187500.02, -187500.02, -187500.02, 0.014, -0.010, 1.024, 17:58:28.262
150, 50151.75, 69330.55, -187500.02, -187500.02, -166755.45, -187500.02, -187500.02, -187500.02, 0.000, 0.000, 0.000, 17:58:28.262
151, 50444.78, 69392.77, -187500.02, -187500.02, -166776.78, -187500.02, -187500.02, -187500.02, 0.000, 0.000, 0.000, 17:58:28.262
152, 50331.25, 68907.79, -187500.02, -187500.02, -166622.61, -187500.02, -187500.02, -187500.02, 0.000, 0.000, 0.000, 17:58:28.262
153, 49834.22, 68039.63, -187500.02, -187500.02, -166447.72, -187500.02, -187500.02, -187500.02, 0.000, 0.000, 0.000, 17:58:28.263
154, 49541.48, 68400.56, -187500.02, -187500.02, -166577.42, -187500.02, -187500.02, -187500.02, 0.000, 0.000, 0.000, 17:58:28.263
155, 50152.42, 69332.52, -187500.02, -187500.02, -166752.70, -187500.02, -187500.02, -187500.02, 0.000, 0.000, 0.000, 17:58:28.263
156, 50450.86, 69404.02, -187500.02, -187500.02, -166785.52, -187500.02, -187500.02, -187500.02, 0.000, 0.000, 0.000, 17:58:28.263
157, 50338.36, 68925.27, -187500.02, -187500.02, -166673.53, -187500.02, -187500.02, -187500.02, 0.000, 0.000, 0.000, 17:58:28.263
158, 49839.45, 68043.71, -187500.02, -187500.02, -166516.28, -187500.02, -187500.02, -187500.02, 0.000, 0.000, 0.000, 17:58:28.263
159, 49538.86, 68394.08, -187500.02, -187500.02, -166645.08, -187500.02, -187500.02, -187500.02, 0.010, -0.008, 1.022, 17:58:28.264
160, 50141.46, 69330.62, -187500.02, -187500.02, -166806.23, -187500.02, -187500.02, -187500.02, 0.000, 0.000, 0.000, 17:58:28.264
161, 50440.46, 69397.60, -187500.02, -187500.02, -166838.56, -187500.02, -187500.02, -187500.02, 0.000, 0.000, 0.000, 17:58:28.264
162, 50333.64, 68918.36, -187500.02, -187500.02, -166702.23, -187500.02, -187500.02, -187500.02, 0.000, 0.000, 0.000, 17:58:28.264
163, 49834.17, 68033.27, -187500.02, -187500.02, -166514.30, -187500.02, -187500.02, -187500.02, 0.000, 0.000, 0.000, 17:58:28.264
164, 49520.15, 68363.97, -187500.02, -187500.02, -166601.89, -187500.02, -187500.02, -187500.02, 0.000, 0.000, 0.000, 17:58:28.264
165, 50126.80, 69309.02, -187500.02, -187500.02, -166749.11, -187500.02, -187500.02, -187500.02, 0.000, 0.000, 0.000, 17:58:28.265
166, 50438.25, 69392.22, -187500.02, -187500.02, -166784.00, -187500.02, -187500.02, -187500.02, 0.000, 0.000, 0.000, 17:58:28.265
167, 50329.29, 68917.38, -187500.02, -187500.02, -166661.02, -187500.02, -187500.02, -187500.02, 0.000, 0.000, 0.000, 17:58:28.265
168, 49833.95, 68032.09, -187500.02, -187500.02, -166444.77, -187500.02, -187500.02, -187500.02, 0.000, 0.000, 0.000, 17:58:28.265
169, 49525.07, 68364.51, -187500.02, -187500.02, -166574.61, -187500.02, -187500.02, -187500.02, 0.014, -0.010, 1.024, 17:58:28.265
170, 50136.61, 69316.02, -187500.02, -187500.02, -166797.36, -187500.02, -187500.02, -187500.02, 0.000, 0.000, 0.000, 17:58:28.265
171, 50445.27, 69399.84, -187500.02, -187500.02, -166829.19, -187500.02, -187500.02, -187500.02, 0.000, 0.000, 0.000, 17:58:28.266
172, 50341.13, 68932.76, -187500.02, -187500.02, -166721.13, -187500.02, -187500.02, -187500.02, 0.000, 0.000, 0.000, 17:58:28.266
173, 49851.90, 68047.18, -187500.02, -187500.02, -166545.28, -187500.02, -187500.02, -187500.02, 0.000, 0.000, 0.000, 17:58:28.266
174, 49526.34, 68357.47, -187500.02, -187500.02, -166694.72, -187500.02, -187500.02, -187500.02, 0.000, 0.000, 0.000, 17:58:28.266
175, 50112.74, 69291.75, -187500.02, -187500.02, -166845.33, -187500.02, -187500.02, -187500.02, 0.000, 0.000, 0.000, 17:58:28.266
176, 50429.51, 69380.73, -187500.02, -187500.02, -166850.88, -187500.02, -187500.02, -187500.02, 0.000, 0.000, 0.000, 17:58:28.266
177, 50326.92, 68919.21, -187500.02, -187500.02, -166759.41, -187500.02, -187500.02, -187500.02, 0.000, 0.000, 0.000, 17:58:28.267
178, 49835.87, 68025.23, -187500.02, -187500.02, -166559.78, -187500.02, -187500.02, -187500.02, 0.000, 0.000, 0.000, 17:58:28.267
179, 49499.57, 68318.66, -187500.02, -187500.02, -166623.44, -187500.02, -187500.02, -187500.02, 0.016, -0.012, 1.024, 17:58:28.267
180, 50088.49, 69266.63, -187500.02, -187500.02, -166739.36, -187500.02, -187500.02, -187500.02, 0.000, 0.000, 0.000, 17:58:28.267
181, 50417.87, 69365.91, -187500.02, -187500.02, -166744.59, -187500.02, -187500.02, -187500.02, 0.000, 0.000, 0.000, 17:58:28.267
182, 50321.13, 68918.79, -187500.02, -187500.02, -166607.86, -187500.02, -187500.02, -187500.02, 0.000, 0.000, 0.000, 17:58:28.268
183, 49839.67, 68032.18, -187500.02, -187500.02, -166429.23, -187500.02, -187500.02, -187500.02, 0.000, 0.000, 0.000, 17:58:28.268
184, 49515.39, 68328.38, -187500.02, -187500.02, -166578.16, -187500.02, -187500.02, -187500.02, 0.000, 0.000, 0.000, 17:58:28.268
185, 50106.55, 69283.01, -187500.02, -187500.02, -166760.34, -187500.02, -187500.02, -187500.02, 0.000, 0.000, 0.000, 17:58:28.268
186, 50436.66, 69389.05, -187500.02, -187500.02, -166810.75, -187500.02, -187500.02, -187500.02, 0.000, 0.000, 0.000, 17:58:28.268
187, 50337.73, 68932.78, -187500.02, -187500.02, -166726.22, -187500.02, -187500.02, -187500.02, 0.000, 0.000, 0.000, 17:58:28.268
188, 49856.97, 68038.64, -187500.02, -187500.02, -166533.03, -187500.02, -187500.02, -187500.02, 0.000, 0.000, 0.000, 17:58:28.269
189, 49513.11, 68314.95, -187500.02, -187500.02, -166635.83, -187500.02, -187500.02, -187500.02, 0.016, -0.014, 1.026, 17:58:28.269
190, 50105.68, 69279.81, -187500.02, -187500.02, -166787.42, -187500.02, -187500.02, -187500.02, 0.000, 0.000, 0.000, 17:58:28.269
191, 50435.41, 69385.20, -187500.02, -187500.02, -166832.44, -187500.02, -187500.02, -187500.02, 0.000, 0.000, 0.000, 17:58:28.269
192, 50331.75, 68931.62, -187500.02, -187500.02, -166675.92, -187500.02, -187500.02, -187500.02, 0.000, 0.000, 0.000, 17:58:28.269
193, 49860.32, 68042.20, -187500.02, -187500.02, -166463.52, -187500.02, -187500.02, -187500.02, 0.000, 0.000, 0.000, 17:58:28.269
194, 49511.84, 68305.41, -187500.02, -187500.02, -166565.17, -187500.02, -187500.02, -187500.02, 0.000, 0.000, 0.000, 17:58:28.270
195, 50104.72, 69275.19, -187500.02, -187500.02, -166737.50, -187500.02, -187500.02, -187500.02, 0.000, 0.000, 0.000, 17:58:28.270
196, 50435.05, 69377.29, -187500.02, -187500.02, -166712.30, -187500.02, -187500.02, -187500.02, 0.000, 0.000, 0.000, 17:58:28.270
197, 50334.76, 68928.77, -187500.02, -187500.02, -166557.58, -187500.02, -187500.02, -187500.02, 0.000, 0.000, 0.000, 17:58:28.270
198, 49875.37, 68048.92, -187500.02, -187500.02, -166378.80, -187500.02, -187500.02, -187500.02, 0.000, 0.000, 0.000, 17:58:28.270
199, 49521.36, 68300.47, -187500.02, -187500.02, -166504.89, -187500.02, -187500.02, -187500.02, 0.018, -0.016, 1.028, 17:58:28.271
200, 50098.17, 69261.59, -187500.02, -187500.02, -166686.31, -187500.02, -187500.02, -187500.02, 0.000, 0.000, 0.000, 17:58:28.271
201, 50436.89, 69378.94, -187500.02, -187500.02, -166740.30, -187500.02, -187500.02, -187500.02, 0.000, 0.000, 0.000, 17:58:28.271
202, 50334.74, 68936.48, -187500.02, -187500.02, -166670.56, -187500.02, -187500.02, -187500.02, 0.000, 0.000, 0.000, 17:58:28.271
203, 49857.02, 68034.95, -187500.02, -187500.02, -166470.72, -187500.02, -187500.02, -187500.02, 0.000, 0.000, 0.000, 17:58:28.271
204, 49491.99, 68267.99, -187500.02, -187500.02, -166571.72, -187500.02, -187500.02, -187500.02, 0.000, 0.000, 0.000, 17:58:28.271
205, 50070.79, 69235.53, -187500.02, -187500.02, -166729.86, -187500.02, -187500.02, -187500.02, 0.000, 0.000, 0.000, 17:58:28.272
206, 50423.95, 69363.97, -187500.02, -187500.02, -166779.34, -187500.02, -187500.02, -187500.02, 0.000, 0.000, 0.000, 17:58:28.272
207, 50321.02, 68919.91, -187500.02, -187500.02, -166660.95, -187500.02, -187500.02, -187500.02, 0.000, 0.000, 0.000, 17:58:28.272
208, 49847.18, 68017.72, -187500.02, -187500.02, -166404.58, -187500.02, -187500.02, -187500.02, 0.000, 0.000, 0.000, 17:58:28.272
209, 49485.33, 68246.91, -187500.02, -187500.02, -166488.84, -187500.02, -187500.02, -187500.02, 0.014, -0.012, 1.026, 17:58:28.731
210, 50066.07, 69226.97, -187500.02, -187500.02, -166659.78, -187500.02, -187500.02, -187500.02, 0.000, 0.000, 0.000, 17:58:28.731
211, 50405.39, 69347.36, -187500.02, -187500.02, -166631.95, -187500.02, -187500.02, -187500.02, 0.000, 0.000, 0.000, 17:58:28.732
212, 50311.72, 68916.98, -187500.02, -187500.02, -166478.83, -187500.02, -187500.02, -187500.02, 0.000, 0.000, 0.000, 17:58:28.732
213, 49856.61, 68025.92, -187500.02, -187500.02, -166287.77, -187500.02, -187500.02, -187500.02, 0.000, 0.000, 0.000, 17:58:28.732
214, 49484.21, 68237.41, -187500.02, -187500.02, -166410.08, -187500.02, -187500.02, -187500.02, 0.000, 0.000, 0.000, 17:58:28.732
215, 50055.14, 69214.03, -187500.02, -187500.02, -166570.63, -187500.02, -187500.02, -187500.02, 0.000, 0.000, 0.000, 17:58:28.732
216, 50415.39, 69354.73, -187500.02, -187500.02, -166631.83, -187500.02, -187500.02, -187500.02, 0.000, 0.000, 0.000, 17:58:28.733
217, 50331.05, 68932.58, -187500.02, -187500.02, -166558.69, -187500.02, -187500.02, -187500.02, 0.000, 0.000, 0.000, 17:58:28.733
218, 49870.38, 68036.00, -187500.02, -187500.02, -166355.83, -187500.02, -187500.02, -187500.02, 0.000, 0.000, 0.000, 17:58:28.733
219, 49494.16, 68245.51, -187500.02, -187500.02, -166475.08, -187500.02, -187500.02, -187500.02, 0.010, -0.004, 1.026, 17:58:28.733
220, 50059.05, 69228.89, -187500.02, -187500.02, -166632.63, -187500.02, -187500.02, -187500.02, 0.000, 0.000, 0.000, 17:58:28.733
221, 50425.40, 69375.21, -187500.02, -187500.02, -166652.05, -187500.02, -187500.02, -187500.02, 0.000, 0.000, 0.000, 17:58:28.733
222, 50338.07, 68957.81, -187500.02, -187500.02, -166573.78, -187500.02, -187500.02, -187500.02, 0.000, 0.000, 0.000, 17:58:28.734
223, 49882.05, 68057.26, -187500.02, -187500.02, -166374.95, -187500.02, -187500.02, -187500.02, 0.000, 0.000, 0.000, 17:58:28.734
224, 49496.35, 68239.80, -187500.02, -187500.02, -166469.14, -187500.02, -187500.02, -187500.02, 0.000, 0.000, 0.000, 17:58:28.734
225, 50059.43, 69220.31, -187500.02, -187500.02, -166622.44, -187500.02, -187500.02, -187500.02, 0.000, 0.000, 0.000, 17:58:28.734
226, 50425.51, 69369.71, -187500.02, -187500.02, -166661.91, -187500.02, -187500.02, -187500.02, 0.000, 0.000, 0.000, 17:58:28.734
227, 50336.28, 68953.14, -187500.02, -187500.02, -166574.52, -187500.02, -187500.02, -187500.02, 0.000, 0.000, 0.000, 17:58:28.734
228, 49881.45, 68052.07, -187500.02, -187500.02, -166349.61, -187500.02, -187500.02, -187500.02, 0.000, 0.000, 0.000, 17:58:28.734
229, 49493.31, 68232.85, -187500.02, -187500.02, -166423.58, -187500.02, -187500.02, -187500.02, 0.016, -0.008, 1.024, 17:58:28.734
230, 50061.58, 69231.66, -187500.02, -187500.02, -166628.45, -187500.02, -187500.02, -187500.02, 0.000, 0.000, 0.000, 17:58:28.735
231, 50420.48, 69373.55, -187500.02, -187500.02, -166664.59, -187500.02, -187500.02, -187500.02, 0.000, 0.000, 0.000, 17:58:28.735
232, 50337.18, 68962.13, -187500.02, -187500.02, -166551.20, -187500.02, -187500.02, -187500.02, 0.000, 0.000, 0.000, 17:58:28.735
233, 49895.44, 68070.34, -187500.02, -187500.02, -166349.86, -187500.02, -187500.02, -187500.02, 0.000, 0.000, 0.000, 17:58:28.735
234, 49499.59, 68232.56, -187500.02, -187500.02, -166457.09, -187500.02, -187500.02, -187500.02, 0.000, 0.000, 0.000, 17:58:28.735
235, 50050.32, 69216.45, -187500.02, -187500.02, -166617.41, -187500.02, -187500.02, -187500.02, 0.000, 0.000, 0.000, 17:58:28.735
236, 50428.20, 69376.39, -187500.02, -187500.02, -166660.61, -187500.02, -187500.02, -187500.02, 0.000, 0.000, 0.000, 17:58:28.735
237, 50341.56, 68960.02, -187500.02, -187500.02, -166551.38, -187500.02, -187500.02, -187500.02, 0.000, 0.000, 0.000, 17:58:28.735
238, 49898.50, 68062.87, -187500.02, -187500.02, -166346.89, -187500.02, -187500.02, -187500.02, 0.012, -0.002, 1.026, 17:58:28.735
239, 49499.34, 68217.50, -187500.02, -187500.02, -166439.69, -187500.02, -187500.02, -187500.02, 0.000, 0.000, 0.000, 17:58:28.736
240, 50048.37, 69210.84, -187500.02, -187500.02, -166627.05, -187500.02, -187500.02, -187500.02, 0.000, 0.000, 0.000, 17:58:28.736
241, 50427.16, 69377.87, -187500.02, -187500.02, -166668.34, -187500.02, -187500.02, -187500.02, 0.000, 0.000, 0.000, 17:58:28.736
242, 50347.17, 68974.04, -187500.02, -187500.02, -166573.73, -187500.02, -187500.02, -187500.02, 0.000, 0.000, 0.000, 17:58:28.736
243, 49903.46, 68071.09, -187500.02, -187500.02, -166339.94, -187500.02, -187500.02, -187500.02, 0.000, 0.000, 0.000, 17:58:28.736
244, 49496.50, 68208.02, -187500.02, -187500.02, -166430.06, -187500.02, -187500.02, -187500.02, 0.000, 0.000, 0.000, 17:58:28.736
245, 50045.31, 69208.84, -187500.02, -187500.02, -166595.17, -187500.02, -187500.02, -187500.02, 0.000, 0.000, 0.000, 17:58:28.736
246, 50433.74, 69384.64, -187500.02, -187500.02, -166647.98, -187500.02, -187500.02, -187500.02, 0.000, 0.000, 0.000, 17:58:28.736
247, 50356.09, 68990.29, -187500.02, -187500.02, -166565.73, -187500.02, -187500.02, -187500.02, 0.000, 0.000, 0.000, 17:58:28.737
248, 49920.09, 68090.59, -187500.02, -187500.02, -166377.22, -187500.02, -187500.02, -187500.02, 0.008, -0.012, 1.026, 17:58:28.737
249, 49503.77, 68215.29, -187500.02, -187500.02, -166483.92, -187500.02, -187500.02, -187500.02, 0.000, 0.000, 0.000, 17:58:28.737
250, 50040.91, 69209.07, -187500.02, -187500.02, -166648.95, -187500.02, -187500.02, -187500.02, 0.000, 0.000, 0.000, 17:58:28.737
251, 50428.30, 69383.14, -187500.02, -187500.02, -166680.50, -187500.02, -187500.02, -187500.02, 0.000, 0.000, 0.000, 17:58:28.737
252, 50353.96, 68988.34, -187500.02, -187500.02, -166591.33, -187500.02, -187500.02, -187500.02, 0.000, 0.000, 0.000, 17:58:28.737
253, 49924.09, 68092.95, -187500.02, -187500.02, -166401.11, -187500.02, -187500.02, -187500.02, 0.000, 0.000, 0.000, 17:58:28.737
254, 49493.49, 68197.47, -187500.02, -187500.02, -166440.06, -187500.02, -187500.02, -187500.02, 0.000, 0.000, 0.000, 17:58:28.737
255, 50027.47, 69196.44, -187500.02, -187500.02, -166561.30, -187500.02, -187500.02, -187500.02, 0.000, 0.000, 0.000, 17:58:28.737
0, 50423.14, 69383.30, -187500.02, -187500.02, -166632.23, -187500.02, -187500.02, -187500.02, 0.000, 0.000, 0.000, 17:58:28.738
1, 50361.27, 69004.68, -187500.02, -187500.02, -166606.56, -187500.02, -187500.02, -187500.02, 0.000, 0.000, 0.000, 17:58:28.738
2, 49928.61, 68108.34, -187500.02, -187500.02, -166408.98, -187500.02, -187500.02, -187500.02, 0.014, -0.016, 1.022, 17:58:28.738
3, 49498.25, 68201.23, -187500.02, -187500.02, -166479.97, -187500.02, -187500.02, -187500.02, 0.000, 0.000, 0.000, 17:58:28.738
4, 50039.47, 69207.10, -187500.02, -187500.02, -166640.31, -187500.02, -187500.02, -187500.02, 0.000, 0.000, 0.000, 17:58:28.738
5, 50448.91, 69404.47, -187500.02, -187500.02, -166710.17, -187500.02, -187500.02, -187500.02, 0.000, 0.000, 0.000, 17:58:28.738
6, 50379.09, 69016.57, -187500.02, -187500.02, -166652.39, -187500.02, -187500.02, -187500.02, 0.000, 0.000, 0.000, 17:58:28.738
7, 49943.70, 68107.80, -187500.02, -187500.02, -166422.52, -187500.02, -187500.02, -187500.02, 0.000, 0.000, 0.000, 17:58:28.738
8, 49506.86, 68192.24, -187500.02, -187500.02, -166499.23, -187500.02, -187500.02, -187500.02, 0.000, 0.000, 0.000, 17:58:28.738
9, 50038.49, 69201.55, -187500.02, -187500.02, -166713.63, -187500.02, -187500.02, -187500.02, 0.000, 0.000, 0.000, 17:58:28.739
10, 50441.27, 69400.40, -187500.02, -187500.02, -166779.56, -187500.02, -187500.02, -187500.02, 0.000, 0.000, 0.000, 17:58:28.739
11, 50371.44, 69021.34, -187500.02, -187500.02, -166680.19, -187500.02, -187500.02, -187500.02, 0.000, 0.000, 0.000, 17:58:28.739
12, 49947.83, 68126.86, -187500.02, -187500.02, -166465.92, -187500.02, -187500.02, -187500.02, 0.016, -0.014, 1.026, 17:58:28.739
13, 49506.63, 68198.39, -187500.02, -187500.02, -166524.73, -187500.02, -187500.02, -187500.02, 0.000, 0.000, 0.000, 17:58:28.739
14, 50030.51, 69205.91, -187500.02, -187500.02, -166682.70, -187500.02, -187500.02, -187500.02, 0.000, 0.000, 0.000, 17:58:28.740
15, 50442.05, 69410.05, -187500.02, -187500.02, -166723.05, -187500.02, -187500.02, -187500.02, 0.000, 0.000, 0.000, 17:58:28.740
16, 50374.13, 69030.97, -187500.02, -187500.02, -166643.33, -187500.02, -187500.02, -187500.02, 0.000, 0.000, 0.000, 17:58:28.740
17, 49950.87, 68126.55, -187500.02, -187500.02, -166398.73, -187500.02, -187500.02, -187500.02, 0.000, 0.000, 0.000, 17:58:28.740
18, 49508.26, 68189.16, -187500.02, -187500.02, -166477.91, -187500.02, -187500.02, -187500.02, 0.000, 0.000, 0.000, 17:58:28.740
19, 50030.15, 69201.06, -187500.02, -187500.02, -166689.25, -187500.02, -187500.02, -187500.02, 0.000, 0.000, 0.000, 17:58:28.740
20, 50448.82, 69414.81, -187500.02, -187500.02, -166766.19, -187500.02, -187500.02, -187500.02, 0.000, 0.000, 0.000, 17:58:28.741
21, 50386.04, 69044.72, -187500.02, -187500.02, -166715.64, -187500.02, -187500.02, -187500.02, 0.000, 0.000, 0.000, 17:58:28.741
22, 49969.76, 68143.76, -187500.02, -187500.02, -166513.86, -187500.02, -187500.02, -187500.02, 0.014, -0.006, 1.022, 17:58:28.741
23, 49511.77, 68186.63, -187500.02, -187500.02, -166606.56, -187500.02, -187500.02, -187500.02, 0.000, 0.000, 0.000, 17:58:28.741
24, 50021.37, 69195.55, -187500.02, -187500.02, -166779.77, -187500.02, -187500.02, -187500.02, 0.000, 0.000, 0.000, 17:58:28.741
25, 50446.90, 69415.17, -187500.02, -187500.02, -166852.44, -187500.02, -187500.02, -187500.02, 0.000, 0.000, 0.000, 17:58:28.741
26, 50372.40, 69041.38, -187500.02, -187500.02, -166763.95, -187500.02, -187500.02, -187500.02, 0.000, 0.000, 0.000, 17:58:28.742
27, 49952.01, 68134.87, -187500.02, -187500.02, -166519.03, -187500.02, -187500.02, -187500.02, 0.000, 0.000, 0.000, 17:58:28.742
28, 49490.45, 68161.02, -187500.02, -187500.02, -166572.38, -187500.02, -187500.02, -187500.02, 0.000, 0.000, 0.000, 17:58:28.742
29, 49996.27, 69168.16, -187500.02, -187500.02, -166697.73, -187500.02, -187500.02, -187500.02, 0.000, 0.000, 0.000, 17:58:28.742
30, 50419.23, 69391.62, -187500.02, -187500.02, -166729.70, -187500.02, -187500.02, -187500.02, 0.000, 0.000, 0.000, 17:58:28.742
31, 50360.36, 69029.88, -187500.02, -187500.02, -166630.70, -187500.02, -187500.02, -187500.02, 0.000, 0.000, 0.000, 17:58:28.743
32, 49961.78, 68141.48, -187500.02, -187500.02, -166441.70, -187500.02, -187500.02, -187500.02, 0.018, -0.014, 1.030, 17:58:28.743
33, 49492.17, 68157.71, -187500.02, -187500.02, -166510.52, -187500.02, -187500.02, -187500.02, 0.000, 0.000, 0.000, 17:58:28.743
34, 49993.09, 69174.98, -187500.02, -187500.02, -166672.30, -187500.02, -187500.02, -187500.02, 0.000, 0.000, 0.000, 17:58:28.743
35, 50431.86, 69410.84, -187500.02, -187500.02, -166767.67, -187500.02, -187500.02, -187500.02, 0.000, 0.000, 0.000, 17:58:28.743
36, 50370.57, 69045.16, -187500.02, -187500.02, -166709.77, -187500.02, -187500.02, -187500.02, 0.000, 0.000, 0.000, 17:58:28.743
37, 49964.95, 68145.19, -187500.02, -187500.02, -166491.56, -187500.02, -187500.02, -187500.02, 0.000, 0.000, 0.000, 17:58:28.744
38, 49501.40, 68160.79, -187500.02, -187500.02, -166565.95, -187500.02, -187500.02, -187500.02, 0.000, 0.000, 0.000, 17:58:28.744
39, 50000.47, 69177.66, -187500.02, -187500.02, -166744.77, -187500.02, -187500.02, -187500.02, 0.000, 0.000, 0.000, 17:58:28.744
40, 50428.68, 69407.48, -187500.02, -187500.02, -166798.61, -187500.02, -187500.02, -187500.02, 0.000, 0.000, 0.000, 17:58:28.744
41, 50371.96, 69051.60, -187500.02, -187500.02, -166753.89, -187500.02, -187500.02, -187500.02, 0.000, 0.000, 0.000, 17:58:28.744
42, 49956.80, 68146.33, -187500.02, -187500.02, -166492.59, -187500.02, -187500.02, -187500.02, 0.020, -0.018, 1.034, 17:58:28.745
43, 49480.93, 68142.38, -187500.02, -187500.02, -166517.39, -187500.02, -187500.02, -187500.02, 0.000, 0.000, 0.000, 17:58:28.745
44, 49983.28, 69165.68, -187500.02, -187500.02, -166712.36, -187500.02, -187500.02, -187500.02, 0.000, 0.000, 0.000, 17:58:28.745
45, 50423.14, 69404.89, -187500.02, -187500.02, -166774.88, -187500.02, -187500.02, -187500.02, 0.000, 0.000, 0.000, 17:58:28.745
46, 50365.07, 69044.80, -187500.02, -187500.02, -166714.84, -187500.02, -187500.02, -187500.02, 0.000, 0.000, 0.000, 17:58:28.745
47, 49971.70, 68158.09, -187500.02, -187500.02, -166490.92, -187500.02, -187500.02, -187500.02, 0.000, 0.000, 0.000, 17:58:28.745
48, 49494.56, 68143.49, -187500.02, -187500.02, -166547.80, -187500.02, -187500.02, -187500.02, 0.000, 0.000, 0.000, 17:58:28.745
49, 49980.87, 69155.85, -187500.02, -187500.02, -166713.92, -187500.02, -187500.02, -187500.02, 0.000, 0.000, 0.000, 17:58:28.746
50, 50427.34, 69403.73, -187500.02, -187500.02, -166781.42, -187500.02, -187500.02, -187500.02, 0.000, 0.000, 0.000, 17:58:28.746
51, 50376.43, 69058.39, -187500.02, -187500.02, -166726.84, -187500.02, -187500.02, -187500.02, 0.000, 0.000, 0.000, 17:58:28.746
52, 49987.64, 68174.47, -187500.02, -187500.02, -166525.11, -187500.02, -187500.02, -187500.02, 0.014, -0.018, 1.028, 17:58:28.746
53, 49502.74, 68145.08, -187500.02, -187500.02, -166596.00, -187500.02, -187500.02, -187500.02, 0.000, 0.000, 0.000, 17:58:28.746
54, 49980.13, 69156.34, -187500.02, -187500.02, -166799.08, -187500.02, -187500.02, -187500.02, 0.000, 0.000, 0.000, 17:58:28.746
55, 50416.13, 69397.98, -187500.02, -187500.02, -166811.88, -187500.02, -187500.02, -187500.02, 0.000, 0.000, 0.000, 17:58:28.746
56, 50363.57, 69050.15, -187500.02, -187500.02, -166712.00, -187500.02, -187500.02, -187500.02, 0.000, 0.000, 0.000, 17:58:28.747
57, 49979.08, 68165.87, -187500.02, -187500.02, -166489.47, -187500.02, -187500.02, -187500.02, 0.000, 0.000, 0.000, 17:58:28.747
58, 49491.12, 68122.23, -187500.02, -187500.02, -166564.72, -187500.02, -187500.02, -187500.02, 0.000, 0.000, 0.000, 17:58:28.747
59, 49966.12, 69135.69, -187500.02, -187500.02, -166755.45, -187500.02, -187500.02, -187500.02, 0.000, 0.000, 0.000, 17:58:28.747
60, 50413.53, 69391.19, -187500.02, -187500.02, -166813.67, -187500.02, -187500.02, -187500.02, 0.000, 0.000, 0.000, 17:58:28.747
61, 50361.63, 69047.17, -187500.02, -187500.02, -166709.81, -187500.02, -187500.02, -187500.02, 0.000, 0.000, 0.000, 17:58:28.747
62, 49975.17, 68160.97, -187500.02, -187500.02, -166467.50, -187500.02, -187500.02, -187500.02, 0.016, -0.018, 1.020, 17:58:28.747
63, 49481.20, 68110.37, -187500.02, -187500.02, -166497.95, -187500.02, -187500.02, -187500.02, 0.000, 0.000, 0.000, 17:58:28.747
64, 49958.63, 69135.62, -187500.02, -187500.02, -166696.38, -187500.02, -187500.02, -187500.02, 0.000, 0.000, 0.000, 17:58:28.747
65, 50419.99, 69404.84, -187500.02, -187500.02, -166809.59, -187500.02, -187500.02, -187500.02, 0.000, 0.000, 0.000, 17:58:28.748
66, 50370.66, 69069.81, -187500.02, -187500.02, -166739.88, -187500.02, -187500.02, -187500.02, 0.000, 0.000, 0.000, 17:58:28.748
67, 49994.05, 68188.76, -187500.02, -187500.02, -166528.00, -187500.02, -187500.02, -187500.02, 0.000, 0.000, 0.000, 17:58:28.748
68, 49498.25, 68122.15, -187500.02, -187500.02, -166619.17, -187500.02, -187500.02, -187500.02, 0.000, 0.000, 0.000, 17:58:28.748
69, 49954.80, 69130.73, -187500.02, -187500.02, -166798.53, -187500.02, -187500.02, -187500.02, 0.000, 0.000, 0.000, 17:58:28.748
70, 50409.53, 69396.66, -187500.02, -187500.02, -166866.86, -187500.02, -187500.02, -187500.02, 0.000, 0.000, 0.000, 17:58:28.748
71, 50361.90, 69060.49, -187500.02, -187500.02, -166771.86, -187500.02, -187500.02, -187500.02, 0.000, 0.000, 0.000, 17:58:28.748
72, 49984.36, 68178.09, -187500.02, -187500.02, -166543.48, -187500.02, -187500.02, -187500.02, 0.012, -0.014, 1.022, 17:58:28.748
73, 49473.37, 68090.85, -187500.02, -187500.02, -166536.63, -187500.02, -187500.02, -187500.02, 0.000, 0.000, 0.000, 17:58:29.211
74, 49938.31, 69113.13, -187500.02, -187500.02, -166718.44, -187500.02, -187500.02, -187500.02, 0.000, 0.000, 0.000, 17:58:29.211
75, 50401.64, 69388.09, -187500.02, -187500.02, -166788.91, -187500.02, -187500.02, -187500.02, 0.000, 0.000, 0.000, 17:58:29.212
76, 50356.04, 69056.30, -187500.02, -187500.02, -166715.16, -187500.02, -187500.02, -187500.02, 0.000, 0.000, 0.000, 17:58:29.212
77, 49987.24, 68180.95, -187500.02, -187500.02, -166494.70, -187500.02, -187500.02, -187500.02, 0.000, 0.000, 0.000, 17:58:29.212
78, 49478.56, 68089.60, -187500.02, -187500.02, -166520.95, -187500.02, -187500.02, -187500.02, 0.000, 0.000, 0.000, 17:58:29.212
79, 49934.20, 69111.26, -187500.02, -187500.02, -166709.66, -187500.02, -187500.02, -187500.02, 0.000, 0.000, 0.000, 17:58:29.212
80, 50413.31, 69407.93, -187500.02, -187500.02, -166821.50, -187500.02, -187500.02, -187500.02, 0.000, 0.000, 0.000, 17:58:29.212
81, 50371.20, 69082.84, -187500.02, -187500.02, -166777.95, -187500.02, -187500.02, -187500.02, 0.000, 0.000, 0.000, 17:58:29.212
82, 50002.97, 68207.71, -187500.02, -187500.02, -166580.64, -187500.02, -187500.02, -187500.02, 0.014, -0.012, 1.026, 17:58:29.213
83, 49490.40, 68099.57, -187500.02, -187500.02, -166646.47, -187500.02, -187500.02, -187500.02, 0.000, 0.000, 0.000, 17:58:29.213
84, 49935.16, 69114.19, -187500.02, -187500.02, -166836.13, -187500.02, -187500.02, -187500.02, 0.000, 0.000, 0.000, 17:58:29.213
85, 50404.16, 69397.41, -187500.02, -187500.02, -166857.88, -187500.02, -187500.02, -187500.02, 0.000, 0.000, 0.000, 17:58:29.213
86, 50366.52, 69073.77, -187500.02, -187500.02, -166771.36, -187500.02, -187500.02, -187500.02, 0.000, 0.000, 0.000, 17:58:29.213
87, 49996.02, 68193.09, -187500.02, -187500.02, -166519.00, -187500.02, -187500.02, -187500.02, 0.000, 0.000, 0.000, 17:58:29.213
88, 49480.99, 68077.00, -187500.02, -187500.02, -166534.17, -187500.02, -187500.02, -187500.02, 0.000, 0.000, 0.000, 17:58:29.213
89, 49928.01, 69101.00, -187500.02, -187500.02, -166720.89, -187500.02, -187500.02, -187500.02, 0.000, 0.000, 0.000, 17:58:29.213
90, 50404.93, 69400.33, -187500.02, -187500.02, -166792.25, -187500.02, -187500.02, -187500.02, 0.000, 0.000, 0.000, 17:58:29.213
91, 50363.33, 69076.25, -187500.02, -187500.02, -166706.44, -187500.02, -187500.02, -187500.02, 0.000, 0.000, 0.000, 17:58:29.214
92, 49999.84, 68202.10, -187500.02, -187500.02, -166460.14, -187500.02, -187500.02, -187500.02, 0.010, -0.018, 1.026, 17:58:29.214
93, 49482.43, 68076.86, -187500.02, -187500.02, -166505.77, -187500.02, -187500.02, -187500.02, 0.000, 0.000, 0.000, 17:58:29.214
94, 49922.24, 69095.37, -187500.02, -187500.02, -166705.88, -187500.02, -187500.02, -187500.02, 0.000, 0.000, 0.000, 17:58:29.214
95, 50409.91, 69406.68, -187500.02, -187500.02, -166800.94, -187500.02, -187500.02, -187500.02, 0.000, 0.000, 0.000, 17:58:29.214
96, 50376.11, 69097.64, -187500.02, -187500.02, -166775.09, -187500.02, -187500.02, -187500.02, 0.000, 0.000, 0.000, 17:58:29.214
97, 50019.43, 68222.88, -187500.02, -187500.02, -166574.41, -187500.02, -187500.02, -187500.02, 0.000, 0.000, 0.000, 17:58:29.215
98, 49490.79, 68078.31, -187500.02, -187500.02, -166603.95, -187500.02, -187500.02, -187500.02, 0.000, 0.000, 0.000, 17:58:29.215
99, 49913.25, 69087.07, -187500.02, -187500.02, -166782.34, -187500.02, -187500.02, -187500.02, 0.000, 0.000, 0.000, 17:58:29.215
100, 50400.86, 69399.66, -187500.02, -187500.02, -166851.44, -187500.02, -187500.02, -187500.02, 0.000, 0.000, 0.000, 17:58:29.215
101, 50374.59, 69097.40, -187500.02, -187500.02, -166811.00, -187500.02, -187500.02, -187500.02, 0.014, -0.016, 1.030, 17:58:29.215
102, 50016.34, 68223.29, -187500.02, -187500.02, -166590.09, -187500.02, -187500.02, -187500.02, 0.000, 0.000, 0.000, 17:58:29.215
103, 49484.68, 68066.11, -187500.02, -187500.02, -166606.19, -187500.02, -187500.02, -187500.02, 0.000, 0.000, 0.000, 17:58:29.215
104, 49904.25, 69078.04, -187500.02, -187500.02, -166769.72, -187500.02, -187500.02, -187500.02, 0.000, 0.000, 0.000, 17:58:29.215
105, 50386.78, 69394.37, -187500.02, -187500.02, -166816.34, -187500.02, -187500.02, -187500.02, 0.000, 0.000, 0.000, 17:58:29.215
106, 50365.77, 69097.76, -187500.02, -187500.02, -166758.56, -187500.02, -187500.02, -187500.02, 0.000, 0.000, 0.000, 17:58:29.216
107, 50013.12, 68227.36, -187500.02, -187500.02, -166523.11, -187500.02, -187500.02, -187500.02, 0.000, 0.000, 0.000, 17:58:29.216
108, 49487.70, 68064.50, -187500.02, -187500.02, -166555.88, -187500.02, -187500.02, -187500.02, 0.000, 0.000, 0.000, 17:58:29.216
109, 49908.96, 69082.53, -187500.02, -187500.02, -166755.50, -187500.02, -187500.02, -187500.02, 0.000, 0.000, 0.000, 17:58:29.216
110, 50402.33, 69402.52, -187500.02, -187500.02, -166819.63, -187500.02, -187500.02, -187500.02, 0.000, 0.000, 0.000, 17:58:29.216
111, 50379.51, 69104.06, -187500.02, -187500.02, -166782.97, -187500.02, -187500.02, -187500.02, 0.014, -0.016, 1.032, 17:58:29.216
112, 50033.62, 68239.80, -187500.02, -187500.02, -166563.45, -187500.02, -187500.02, -187500.02, 0.000, 0.000, 0.000, 17:58:29.216
113, 49500.02, 68065.64, -187500.02, -187500.02, -166610.25, -187500.02, -187500.02, -187500.02, 0.000, 0.000, 0.000, 17:58:29.216
114, 49913.97, 69080.73, -187500.02, -187500.02, -166792.91, -187500.02, -187500.02, -187500.02, 0.000, 0.000, 0.000, 17:58:29.217
115, 50403.61, 69406.57, -187500.02, -187500.02, -166834.69, -187500.02, -187500.02, -187500.02, 0.000, 0.000, 0.000, 17:58:29.217
116, 50379.20, 69109.60, -187500.02, -187500.02, -166788.06, -187500.02, -187500.02, -187500.02, 0.000, 0.000, 0.000, 17:58:29.217
117, 50035.56, 68248.05, -187500.02, -187500.02, -166531.39, -187500.02, -187500.02, -187500.02, 0.000, 0.000, 0.000, 17:58:29.217
118, 49498.11, 68051.72, -187500.02, -187500.02, -166545.22, -187500.02, -187500.02, -187500.02, 0.000, 0.000, 0.000, 17:58:29.217
119, 49902.59, 69063.63, -187500.02, -187500.02, -166708.73, -187500.02, -187500.02, -187500.02, 0.000, 0.000, 0.000, 17:58:29.217
120, 50408.61, 69410.13, -187500.02, -187500.02, -166787.13, -187500.02, -187500.02, -187500.02, 0.000, 0.000, 0.000, 17:58:29.217
121, 50382.35, 69116.27, -187500.02, -187500.02, -166740.20, -187500.02, -187500.02, -187500.02, 0.018, -0.016, 1.034, 17:58:29.217
122, 50039.25, 68251.83, -187500.02, -187500.02, -166496.17, -187500.02, -187500.02, -187500.02, 0.000, 0.000, 0.000, 17:58:29.218
123, 49500.95, 68054.48, -187500.02, -187500.02, -166508.69, -187500.02, -187500.02, -187500.02, 0.000, 0.000, 0.000, 17:58:29.218
124, 49905.99, 69071.42, -187500.02, -187500.02, -166707.27, -187500.02, -187500.02, -187500.02, 0.000, 0.000, 0.000, 17:58:29.218
125, 50411.39, 69414.81, -187500.02, -187500.02, -166777.80, -187500.02, -187500.02, -187500.02, 0.000, 0.000, 0.000, 17:58:29.218
126, 50397.66, 69128.60, -187500.02, -187500.02, -166743.83, -187500.02, -187500.02, -187500.02, 0.000, 0.000, 0.000, 17:58:29.218
127, 50058.92, 68272.30, -187500.02, -187500.02, -166545.25, -187500.02, -187500.02, -187500.02, 0.000, 0.000, 0.000, 17:58:29.218
128, 49513.45, 68055.94, -187500.02, -187500.02, -166577.39, -187500.02, -187500.02, -187500.02, 0.000, 0.000, 0.000, 17:58:29.218
129, 49900.07, 69060.32, -187500.02, -187500.02, -166766.30, -187500.02, -187500.02, -187500.02, 0.000, 0.000, 0.000, 17:58:29.218
130, 50407.12, 69411.04, -187500.02, -187500.02, -166847.72, -187500.02, -187500.02, -187500.02, 0.000, 0.000, 0.000, 17:58:29.218
131, 50388.65, 69121.27, -187500.02, -187500.02, -166785.61, -187500.02, -187500.02, -187500.02, 0.014, -0.008, 1.028, 17:58:29.219
132, 50053.82, 68263.21, -187500.02, -187500.02, -166540.86, -187500.02, -187500.02, -187500.02, 0.000, 0.000, 0.000, 17:58:29.219
133, 49500.26, 68036.59, -187500.02, -187500.02, -166539.27, -187500.02, -187500.02, -187500.02, 0.000, 0.000, 0.000, 17:58:29.219
134, 49882.79, 69044.42, -187500.02, -187500.02, -166699.13, -187500.02, -187500.02, -187500.02, 0.000, 0.000, 0.000, 17:58:29.219
135, 50394.42, 69398.43, -187500.02, -187500.02, -166761.27, -187500.02, -187500.02, -187500.02, 0.000, 0.000, 0.000, 17:58:29.219
136, 50378.30, 69124.87, -187500.02, -187500.02, -166725.28, -187500.02, -187500.02, -187500.02, 0.000, 0.000, 0.000, 17:58:29.219
137, 50041.96, 68269.96, -187500.02, -187500.02, -166485.55, -187500.02, -187500.02, -187500.02, 0.000, 0.000, 0.000, 17:58:29.220
138, 49500.08, 68037.41, -187500.02, -187500.02, -166542.27, -187500.02, -187500.02, -187500.02, 0.000, 0.000, 0.000, 17:58:29.220
139, 49879.46, 69043.40, -187500.02, -187500.02, -166718.23, -187500.02, -187500.02, -187500.02, 0.000, 0.000, 0.000, 17:58:29.220
140, 50407.77, 69420.25, -187500.02, -187500.02, -166824.08, -187500.02, -187500.02, -187500.02, 0.000, 0.000, 0.000, 17:58:29.220
141, 50392.43, 69141.84, -187500.02, -187500.02, -166800.36, -187500.02, -187500.02, -187500.02, 0.012, -0.010, 1.024, 17:58:29.220
142, 50067.04, 68294.28, -187500.02, -187500.02, -166592.50, -187500.02, -187500.02, -187500.02, 0.000, 0.000, 0.000, 17:58:29.220
143, 49512.22, 68048.23, -187500.02, -187500.02, -166644.67, -187500.02, -187500.02, -187500.02, 0.000, 0.000, 0.000, 17:58:29.221
144, 49873.09, 69041.61, -187500.02, -187500.02, -166802.80, -187500.02, -187500.02, -187500.02, 0.000, 0.000, 0.000, 17:58:29.221
145, 50393.04, 69409.12, -187500.02, -187500.02, -166867.70, -187500.02, -187500.02, -187500.02, 0.000, 0.000, 0.000, 17:58:29.221
146, 50380.52, 69132.18, -187500.02, -187500.02, -166810.14, -187500.02, -187500.02, -187500.02, 0.000, 0.000, 0.000, 17:58:29.221
147, 50054.50, 68283.86, -187500.02, -187500.02, -166584.28, -187500.02, -187500.02, -187500.02, 0.000, 0.000, 0.000, 17:58:29.221
148, 49488.13, 68016.58, -187500.02, -187500.02, -166567.47, -187500.02, -187500.02, -187500.02, 0.000, 0.000, 0.000, 17:58:29.221
