%OpenBCI Raw EEG Data
%
%Sample Rate = 250.0 Hz
%First Column = SampleIndex
%Last Column = Timestamp 
%Other Columns = EEG data in microvolts followed by Accel Data (in G) interleaved with Aux Data
0, 61848.59, 30265.51, -187500.02, -187500.02, -187500.02, -160410.00, -187500.02, -187500.02, 0.006, -0.112, 1.030, 15:21:44.602
1, 61855.95, 30294.30, -187500.02, -187500.02, -187500.02, -160405.05, -187500.02, -187500.02, 0.000, 0.000, 0.000, 15:21:44.602
2, 62001.61, 30467.53, -187500.02, -187500.02, -187500.02, -160620.30, -187500.02, -187500.02, 0.000, 0.000, 0.000, 15:21:44.602
3, 62021.57, 30470.41, -187500.02, -187500.02, -187500.02, -160695.89, -187500.02, -187500.02, 0.000, 0.000, 0.000, 15:21:44.602
4, 61938.63, 30372.31, -187500.02, -187500.02, -187500.02, -160573.14, -187500.02, -187500.02, 0.000, 0.000, 0.000, 15:21:44.602
5, 61843.61, 30270.94, -187500.02, -187500.02, -187500.02, -160355.23, -187500.02, -187500.02, 0.000, 0.000, 0.000, 15:21:44.603
6, 61854.50, 30303.02, -187500.02, -187500.02, -187500.02, -160369.95, -187500.02, -187500.02, 0.000, 0.000, 0.000, 15:21:44.603
7, 62017.39, 30481.05, -187500.02, -187500.02, -187500.02, -160643.70, -187500.02, -187500.02, 0.004, -0.104, 1.036, 15:21:44.603
8, 62033.35, 30475.91, -187500.02, -187500.02, -187500.02, -160747.73, -187500.02, -187500.02, 0.000, 0.000, 0.000, 15:21:44.603
9, 61942.34, 30373.40, -187500.02, -187500.02, -187500.02, -160583.06, -187500.02, -187500.02, 0.000, 0.000, 0.000, 15:21:44.603
10, 61855.39, 30278.46, -187500.02, -187500.02, -187500.02, -160387.00, -187500.02, -187500.02, 0.000, 0.000, 0.000, 15:21:44.603
11, 61864.80, 30308.05, -187500.02, -187500.02, -187500.02, -160358.25, -187500.02, -187500.02, 0.000, 0.000, 0.000, 15:21:44.603
12, 62031.88, 30498.57, -187500.02, -187500.02, -187500.02, -160601.19, -187500.02, -187500.02, 0.000, 0.000, 0.000, 15:21:44.604
13, 62051.91, 30501.59, -187500.02, -187500.02, -187500.02, -160757.00, -187500.02, -187500.02, 0.000, 0.000, 0.000, 15:21:44.604
14, 61958.99, 30396.49, -187500.02, -187500.02, -187500.02, -160616.39, -187500.02, -187500.02, 0.000, 0.000, 0.000, 15:21:44.604
15, 61873.27, 30299.53, -187500.02, -187500.02, -187500.02, -160457.73, -187500.02, -187500.02, 0.000, 0.000, 0.000, 15:21:44.604
16, 61878.41, 30321.30, -187500.02, -187500.02, -187500.02, -160438.94, -187500.02, -187500.02, 0.000, 0.000, 0.000, 15:21:44.604
17, 62033.20, 30498.35, -187500.02, -187500.02, -187500.02, -160679.36, -187500.02, -187500.02, 0.000, -0.096, 1.024, 15:21:44.604
18, 62047.73, 30500.45, -187500.02, -187500.02, -187500.02, -160779.16, -187500.02, -187500.02, 0.000, 0.000, 0.000, 15:21:44.604
19, 61960.13, 30398.86, -187500.02, -187500.02, -187500.02, -160638.31, -187500.02, -187500.02, 0.000, 0.000, 0.000, 15:21:44.604
20, 61875.80, 30298.53, -187500.02, -187500.02, -187500.02, -160429.34, -187500.02, -187500.02, 0.000, 0.000, 0.000, 15:21:44.604
21, 61878.88, 30323.52, -187500.02, -187500.02, -187500.02, -160411.92, -187500.02, -187500.02, 0.000, 0.000, 0.000, 15:21:44.605
22, 62030.47, 30502.11, -187500.02, -187500.02, -187500.02, -160656.69, -187500.02, -187500.02, 0.000, 0.000, 0.000, 15:21:44.605
23, 62042.09, 30499.51, -187500.02, -187500.02, -187500.02, -160751.97, -187500.02, -187500.02, 0.000, 0.000, 0.000, 15:21:44.605
24, 61956.13, 30397.48, -187500.02, -187500.02, -187500.02, -160638.20, -187500.02, -187500.02, 0.000, 0.000, 0.000, 15:21:44.605
25, 61867.35, 30295.84, -187500.02, -187500.02, -187500.02, -160429.39, -187500.02, -187500.02, 0.000, 0.000, 0.000, 15:21:44.605
26, 61879.55, 30325.88, -187500.02, -187500.02, -187500.02, -160413.25, -187500.02, -187500.02, 0.002, -0.094, 1.026, 15:21:44.605
27, 62036.93, 30506.67, -187500.02, -187500.02, -187500.02, -160670.77, -187500.02, -187500.02, 0.000, 0.000, 0.000, 15:21:44.605
28, 62050.36, 30505.66, -187500.02, -187500.02, -187500.02, -160766.89, -187500.02, -187500.02, 0.000, 0.000, 0.000, 15:21:44.605
29, 61969.27, 30409.32, -187500.02, -187500.02, -187500.02, -160651.39, -187500.02, -187500.02, 0.000, 0.000, 0.000, 15:21:44.606
30, 61878.59, 30304.27, -187500.02, -187500.02, -187500.02, -160436.53, -187500.02, -187500.02, 0.000, 0.000, 0.000, 15:21:44.606
31, 61885.18, 30326.60, -187500.02, -187500.02, -187500.02, -160414.03, -187500.02, -187500.02, 0.000, 0.000, 0.000, 15:21:44.606
32, 62036.06, 30500.70, -187500.02, -187500.02, -187500.02, -160642.14, -187500.02, -187500.02, 0.000, 0.000, 0.000, 15:21:44.606
33, 62054.09, 30507.54, -187500.02, -187500.02, -187500.02, -160732.70, -187500.02, -187500.02, 0.000, 0.000, 0.000, 15:21:44.606
34, 61967.15, 30409.26, -187500.02, -187500.02, -187500.02, -160628.61, -187500.02, -187500.02, 0.000, 0.000, 0.000, 15:21:44.606
35, 61879.11, 30307.20, -187500.02, -187500.02, -187500.02, -160434.94, -187500.02, -187500.02, 0.000, 0.000, 0.000, 15:21:44.606
36, 61886.84, 30333.06, -187500.02, -187500.02, -187500.02, -160409.48, -187500.02, -187500.02, -0.004, -0.088, 1.024, 15:21:44.606
37, 62040.10, 30508.63, -187500.02, -187500.02, -187500.02, -160644.27, -187500.02, -187500.02, 0.000, 0.000, 0.000, 15:21:44.606
38, 62056.53, 30509.48, -187500.02, -187500.02, -187500.02, -160743.22, -187500.02, -187500.02, 0.000, 0.000, 0.000, 15:21:44.607
39, 61968.71, 30411.58, -187500.02, -187500.02, -187500.02, -160625.64, -187500.02, -187500.02, 0.000, 0.000, 0.000, 15:21:44.607
40, 61879.26, 30312.36, -187500.02, -187500.02, -187500.02, -160439.94, -187500.02, -187500.02, 0.000, 0.000, 0.000, 15:21:44.607
41, 61887.24, 30339.45, -187500.02, -187500.02, -187500.02, -160411.06, -187500.02, -187500.02, 0.000, 0.000, 0.000, 15:21:44.607
42, 62059.21, 30528.48, -187500.02, -187500.02, -187500.02, -160682.08, -187500.02, -187500.02, 0.000, 0.000, 0.000, 15:21:44.607
43, 62097.84, 30549.11, -187500.02, -187500.02, -187500.02, -160817.05, -187500.02, -187500.02, 0.000, 0.000, 0.000, 15:21:44.607
44, 61967.41, 30409.88, -187500.02, -187500.02, -187500.02, -160704.23, -187500.02, -187500.02, 0.000, 0.000, 0.000, 15:21:44.607
45, 61844.68, 30278.99, -187500.02, -187500.02, -187500.02, -160494.14, -187500.02, -187500.02, 0.000, 0.000, 0.000, 15:21:44.607
46, 61850.25, 30301.14, -187500.02, -187500.02, -187500.02, -160471.38, -187500.02, -187500.02, 0.002, -0.088, 1.024, 15:21:44.607
47, 61984.47, 30460.13, -187500.02, -187500.02, -187500.02, -160744.33, -187500.02, -187500.02, 0.000, 0.000, 0.000, 15:21:44.608
48, 61988.67, 30449.04, -187500.02, -187500.02, -187500.02, -160818.45, -187500.02, -187500.02, 0.000, 0.000, 0.000, 15:21:44.608
49, 61886.68, 30334.02, -187500.02, -187500.02, -187500.02, -160692.86, -187500.02, -187500.02, 0.000, 0.000, 0.000, 15:21:44.608
50, 61781.76, 30221.97, -187500.02, -187500.02, -187500.02, -160471.17, -187500.02, -187500.02, 0.000, 0.000, 0.000, 15:21:44.608
51, 61787.11, 30243.74, -187500.02, -187500.02, -187500.02, -160474.59, -187500.02, -187500.02, 0.000, 0.000, 0.000, 15:21:44.608
52, 61933.95, 30405.68, -187500.02, -187500.02, -187500.02, -160706.52, -187500.02, -187500.02, 0.000, 0.000, 0.000, 15:21:44.608
53, 61951.50, 30413.88, -187500.02, -187500.02, -187500.02, -160843.66, -187500.02, -187500.02, 0.000, 0.000, 0.000, 15:21:44.608
54, 61844.35, 30311.22, -187500.02, -187500.02, -187500.02, -160732.50, -187500.02, -187500.02, 0.000, 0.000, 0.000, 15:21:44.608
55, 61744.01, 30194.30, -187500.02, -187500.02, -187500.02, -160506.22, -187500.02, -187500.02, 0.000, 0.000, 0.000, 15:21:44.609
56, 61748.73, 30203.64, -187500.02, -187500.02, -187500.02, -160457.22, -187500.02, -187500.02, 0.000, -0.088, 1.028, 15:21:44.609
57, 61903.07, 30376.85, -187500.02, -187500.02, -187500.02, -160704.09, -187500.02, -187500.02, 0.000, 0.000, 0.000, 15:21:44.609
58, 61913.75, 30375.57, -187500.02, -187500.02, -187500.02, -160795.00, -187500.02, -187500.02, 0.000, 0.000, 0.000, 15:21:44.609
59, 61832.37, 30286.32, -187500.02, -187500.02, -187500.02, -160686.53, -187500.02, -187500.02, 0.000, 0.000, 0.000, 15:21:44.610
60, 61744.81, 30186.03, -187500.02, -187500.02, -187500.02, -160445.11, -187500.02, -187500.02, 0.000, 0.000, 0.000, 15:21:44.610
61, 61760.50, 30217.05, -187500.02, -187500.02, -187500.02, -160421.13, -187500.02, -187500.02, 0.000, 0.000, 0.000, 15:21:44.610
62, 61927.00, 30403.54, -187500.02, -187500.02, -187500.02, -160682.27, -187500.02, -187500.02, 0.000, 0.000, 0.000, 15:21:44.610
63, 61955.14, 30404.79, -187500.02, -187500.02, -187500.02, -160785.39, -187500.02, -187500.02, 0.000, 0.000, 0.000, 15:21:44.611
64, 61858.63, 30305.16, -187500.02, -187500.02, -187500.02, -160672.73, -187500.02, -187500.02, 0.000, 0.000, 0.000, 15:21:44.612
65, 61766.32, 30213.63, -187500.02, -187500.02, -187500.02, -160441.48, -187500.02, -187500.02, 0.000, 0.000, 0.000, 15:21:44.612
66, 61776.40, 30244.61, -187500.02, -187500.02, -187500.02, -160431.66, -187500.02, -187500.02, 0.004, -0.090, 1.034, 15:21:44.612
67, 61927.36, 30423.03, -187500.02, -187500.02, -187500.02, -160679.13, -187500.02, -187500.02, 0.000, 0.000, 0.000, 15:21:44.612
68, 61951.93, 30428.55, -187500.02, -187500.02, -187500.02, -160761.34, -187500.02, -187500.02, 0.000, 0.000, 0.000, 15:21:44.612
69, 61869.43, 30334.91, -187500.02, -187500.02, -187500.02, -160659.84, -187500.02, -187500.02, 0.000, 0.000, 0.000, 15:21:44.613
70, 61778.61, 30225.32, -187500.02, -187500.02, -187500.02, -160408.00, -187500.02, -187500.02, 0.000, 0.000, 0.000, 15:21:44.613
71, 61784.29, 30247.03, -187500.02, -187500.02, -187500.02, -160369.45, -187500.02, -187500.02, 0.000, 0.000, 0.000, 15:21:44.613
72, 61941.13, 30429.87, -187500.02, -187500.02, -187500.02, -160676.22, -187500.02, -187500.02, 0.000, 0.000, 0.000, 15:21:44.613
73, 61964.02, 30443.21, -187500.02, -187500.02, -187500.02, -160833.78, -187500.02, -187500.02, 0.000, 0.000, 0.000, 15:21:44.613
74, 61875.41, 30348.15, -187500.02, -187500.02, -187500.02, -160699.83, -187500.02, -187500.02, 0.000, 0.000, 0.000, 15:21:44.613
75, 61791.71, 30240.08, -187500.02, -187500.02, -187500.02, -160514.00, -187500.02, -187500.02, 0.000, 0.000, 0.000, 15:21:44.613
76, 61797.68, 30251.28, -187500.02, -187500.02, -187500.02, -160465.83, -187500.02, -187500.02, 0.004, -0.088, 1.032, 15:21:44.613
77, 61951.75, 30431.21, -187500.02, -187500.02, -187500.02, -160705.97, -187500.02, -187500.02, 0.000, 0.000, 0.000, 15:21:44.614
78, 61965.85, 30438.34, -187500.02, -187500.02, -187500.02, -160803.42, -187500.02, -187500.02, 0.000, 0.000, 0.000, 15:21:44.614
79, 61876.31, 30334.33, -187500.02, -187500.02, -187500.02, -160666.92, -187500.02, -187500.02, 0.000, 0.000, 0.000, 15:21:44.614
80, 61787.62, 30236.97, -187500.02, -187500.02, -187500.02, -160470.19, -187500.02, -187500.02, 0.000, 0.000, 0.000, 15:21:44.614
81, 61789.74, 30257.27, -187500.02, -187500.02, -187500.02, -160460.47, -187500.02, -187500.02, 0.000, 0.000, 0.000, 15:21:44.614
82, 61944.73, 30439.01, -187500.02, -187500.02, -187500.02, -160693.66, -187500.02, -187500.02, 0.000, 0.000, 0.000, 15:21:44.614
83, 61969.88, 30451.03, -187500.02, -187500.02, -187500.02, -160792.95, -187500.02, -187500.02, 0.000, 0.000, 0.000, 15:21:44.614
84, 61880.71, 30343.88, -187500.02, -187500.02, -187500.02, -160649.77, -187500.02, -187500.02, 0.000, 0.000, 0.000, 15:21:44.614
85, 61792.49, 30239.79, -187500.02, -187500.02, -187500.02, -160398.44, -187500.02, -187500.02, 0.000, 0.000, 0.000, 15:21:44.614
86, 61803.64, 30267.41, -187500.02, -187500.02, -187500.02, -160414.59, -187500.02, -187500.02, 0.002, -0.092, 1.024, 15:21:44.615
87, 61959.79, 30448.19, -187500.02, -187500.02, -187500.02, -160692.70, -187500.02, -187500.02, 0.000, 0.000, 0.000, 15:21:44.615
88, 61986.32, 30459.30, -187500.02, -187500.02, -187500.02, -160833.73, -187500.02, -187500.02, 0.000, 0.000, 0.000, 15:21:44.615
89, 61894.10, 30351.79, -187500.02, -187500.02, -187500.02, -160668.25, -187500.02, -187500.02, 0.000, 0.000, 0.000, 15:21:44.615
90, 61801.59, 30246.56, -187500.02, -187500.02, -187500.02, -160420.50, -187500.02, -187500.02, 0.000, 0.000, 0.000, 15:21:44.615
91, 61798.91, 30261.94, -187500.02, -187500.02, -187500.02, -160412.05, -187500.02, -187500.02, 0.000, 0.000, 0.000, 15:21:44.615
92, 61958.45, 30446.32, -187500.02, -187500.02, -187500.02, -160699.58, -187500.02, -187500.02, 0.000, 0.000, 0.000, 15:21:44.615
93, 61979.20, 30454.32, -187500.02, -187500.02, -187500.02, -160802.25, -187500.02, -187500.02, 0.000, 0.000, 0.000, 15:21:44.615
94, 61887.89, 30351.59, -187500.02, -187500.02, -187500.02, -160662.83, -187500.02, -187500.02, 0.000, 0.000, 0.000, 15:21:44.616
95, 61794.79, 30241.87, -187500.02, -187500.02, -187500.02, -160459.34, -187500.02, -187500.02, 0.000, 0.000, 0.000, 15:21:44.616
96, 61791.73, 30254.45, -187500.02, -187500.02, -187500.02, -160433.02, -187500.02, -187500.02, 0.004, -0.092, 1.026, 15:21:44.616
97, 61949.24, 30440.48, -187500.02, -187500.02, -187500.02, -160653.41, -187500.02, -187500.02, 0.000, 0.000, 0.000, 15:21:44.616
98, 61985.27, 30469.58, -187500.02, -187500.02, -187500.02, -160797.64, -187500.02, -187500.02, 0.000, 0.000, 0.000, 15:21:44.616
99, 61897.97, 30345.78, -187500.02, -187500.02, -187500.02, -160694.91, -187500.02, -187500.02, 0.000, 0.000, 0.000, 15:21:44.616
100, 61797.90, 30228.07, -187500.02, -187500.02, -187500.02, -160482.02, -187500.02, -187500.02, 0.000, 0.000, 0.000, 15:21:44.616
101, 61798.93, 30244.81, -187500.02, -187500.02, -187500.02, -160430.13, -187500.02, -187500.02, 0.000, 0.000, 0.000, 15:21:44.616
102, 61956.17, 30444.82, -187500.02, -187500.02, -187500.02, -160673.36, -187500.02, -187500.02, 0.000, 0.000, 0.000, 15:21:44.617
103, 61985.70, 30473.45, -187500.02, -187500.02, -187500.02, -160808.25, -187500.02, -187500.02, 0.000, 0.000, 0.000, 15:21:44.617
104, 61899.15, 30350.45, -187500.02, -187500.02, -187500.02, -160704.20, -187500.02, -187500.02, 0.000, 0.000, 0.000, 15:21:44.617
105, 61796.85, 30230.29, -187500.02, -187500.02, -187500.02, -160489.70, -187500.02, -187500.02, 0.000, 0.000, 0.000, 15:21:44.617
106, 61794.05, 30254.85, -187500.02, -187500.02, -187500.02, -160443.81, -187500.02, -187500.02, -0.002, -0.092, 1.028, 15:21:44.617
107, 61959.23, 30453.54, -187500.02, -187500.02, -187500.02, -160700.14, -187500.02, -187500.02, 0.000, 0.000, 0.000, 15:21:44.617
108, 61993.07, 30466.79, -187500.02, -187500.02, -187500.02, -160827.33, -187500.02, -187500.02, 0.000, 0.000, 0.000, 15:21:44.617
109, 61899.33, 30357.22, -187500.02, -187500.02, -187500.02, -160694.16, -187500.02, -187500.02, 0.000, 0.000, 0.000, 15:21:44.617
110, 61800.76, 30243.65, -187500.02, -187500.02, -187500.02, -160485.09, -187500.02, -187500.02, 0.000, 0.000, 0.000, 15:21:44.618
111, 61794.26, 30256.06, -187500.02, -187500.02, -187500.02, -160423.19, -187500.02, -187500.02, 0.000, 0.000, 0.000, 15:21:44.618
112, 61959.35, 30454.81, -187500.02, -187500.02, -187500.02, -160649.11, -187500.02, -187500.02, 0.000, 0.000, 0.000, 15:21:44.618
113, 61991.18, 30470.77, -187500.02, -187500.02, -187500.02, -160791.77, -187500.02, -187500.02, 0.000, 0.000, 0.000, 15:21:44.618
114, 61898.68, 30358.54, -187500.02, -187500.02, -187500.02, -160676.83, -187500.02, -187500.02, 0.000, 0.000, 0.000, 15:21:44.618
115, 61797.16, 30243.34, -187500.02, -187500.02, -187500.02, -160478.97, -187500.02, -187500.02, 0.000, 0.000, 0.000, 15:21:44.618
116, 61791.55, 30258.49, -187500.02, -187500.02, -187500.02, -160446.50, -187500.02, -187500.02, 0.002, -0.094, 1.024, 15:21:44.618
117, 61957.45, 30447.46, -187500.02, -187500.02, -187500.02, -160680.42, -187500.02, -187500.02, 0.000, 0.000, 0.000, 15:21:44.618
118, 61991.15, 30465.79, -187500.02, -187500.02, -187500.02, -160817.27, -187500.02, -187500.02, 0.000, 0.000, 0.000, 15:21:44.619
119, 61892.56, 30358.32, -187500.02, -187500.02, -187500.02, -160697.77, -187500.02, -187500.02, 0.000, 0.000, 0.000, 15:21:44.619
120, 61794.39, 30241.93, -187500.02, -187500.02, -187500.02, -160514.70, -187500.02, -187500.02, 0.000, 0.000, 0.000, 15:21:45.084
121, 61783.35, 30244.93, -187500.02, -187500.02, -187500.02, -160439.70, -187500.02, -187500.02, 0.000, 0.000, 0.000, 15:21:45.084
122, 61956.26, 30446.52, -187500.02, -187500.02, -187500.02, -160666.59, -187500.02, -187500.02, 0.000, 0.000, 0.000, 15:21:45.084
123, 61992.11, 30464.91, -187500.02, -187500.02, -187500.02, -160812.59, -187500.02, -187500.02, 0.000, 0.000, 0.000, 15:21:45.084
124, 61896.74, 30357.02, -187500.02, -187500.02, -187500.02, -160708.91, -187500.02, -187500.02, 0.000, 0.000, 0.000, 15:21:45.084
125, 61796.49, 30245.66, -187500.02, -187500.02, -187500.02, -160515.97, -187500.02, -187500.02, 0.000, 0.000, 0.000, 15:21:45.085
126, 61782.48, 30258.76, -187500.02, -187500.02, -187500.02, -160454.47, -187500.02, -187500.02, 0.000, -0.090, 1.022, 15:21:45.085
127, 61966.97, 30475.35, -187500.02, -187500.02, -187500.02, -160693.77, -187500.02, -187500.02, 0.000, 0.000, 0.000, 15:21:45.085
128, 61997.03, 30488.76, -187500.02, -187500.02, -187500.02, -160801.48, -187500.02, -187500.02, 0.000, 0.000, 0.000, 15:21:45.085
129, 61876.42, 30351.30, -187500.02, -187500.02, -187500.02, -160683.22, -187500.02, -187500.02, 0.000, 0.000, 0.000, 15:21:45.085
130, 61769.56, 30231.70, -187500.02, -187500.02, -187500.02, -160472.09, -187500.02, -187500.02, 0.000, 0.000, 0.000, 15:21:45.086
131, 61755.18, 30235.56, -187500.02, -187500.02, -187500.02, -160397.50, -187500.02, -187500.02, 0.000, 0.000, 0.000, 15:21:45.086
132, 61930.96, 30439.23, -187500.02, -187500.02, -187500.02, -160685.17, -187500.02, -187500.02, 0.000, 0.000, 0.000, 15:21:45.086
133, 61970.75, 30461.96, -187500.02, -187500.02, -187500.02, -160837.77, -187500.02, -187500.02, 0.000, 0.000, 0.000, 15:21:45.086
134, 61879.04, 30352.21, -187500.02, -187500.02, -187500.02, -160700.19, -187500.02, -187500.02, 0.000, 0.000, 0.000, 15:21:45.086
135, 61781.63, 30236.79, -187500.02, -187500.02, -187500.02, -160512.44, -187500.02, -187500.02, 0.000, 0.000, 0.000, 15:21:45.086
136, 61767.66, 30243.74, -187500.02, -187500.02, -187500.02, -160476.48, -187500.02, -187500.02, 0.004, -0.088, 1.022, 15:21:45.086
137, 61938.43, 30440.91, -187500.02, -187500.02, -187500.02, -160675.59, -187500.02, -187500.02, 0.000, 0.000, 0.000, 15:21:45.086
138, 61976.29, 30466.39, -187500.02, -187500.02, -187500.02, -160786.73, -187500.02, -187500.02, 0.000, 0.000, 0.000, 15:21:45.087
139, 61883.13, 30362.70, -187500.02, -187500.02, -187500.02, -160676.00, -187500.02, -187500.02, 0.000, 0.000, 0.000, 15:21:45.087
140, 61779.75, 30234.22, -187500.02, -187500.02, -187500.02, -160490.02, -187500.02, -187500.02, 0.000, 0.000, 0.000, 15:21:45.087
141, 61769.51, 30236.90, -187500.02, -187500.02, -187500.02, -160462.20, -187500.02, -187500.02, 0.000, 0.000, 0.000, 15:21:45.087
142, 61944.24, 30441.80, -187500.02, -187500.02, -187500.02, -160718.25, -187500.02, -187500.02, 0.000, 0.000, 0.000, 15:21:45.087
143, 61977.83, 30462.16, -187500.02, -187500.02, -187500.02, -160850.86, -187500.02, -187500.02, 0.000, 0.000, 0.000, 15:21:45.087
144, 61882.41, 30358.23, -187500.02, -187500.02, -187500.02, -160732.59, -187500.02, -187500.02, 0.000, 0.000, 0.000, 15:21:45.087
145, 61778.41, 30241.19, -187500.02, -187500.02, -187500.02, -160528.70, -187500.02, -187500.02, 0.000, 0.000, 0.000, 15:21:45.087
146, 61759.52, 30240.39, -187500.02, -187500.02, -187500.02, -160454.77, -187500.02, -187500.02, 0.002, -0.086, 1.024, 15:21:45.088
147, 61941.18, 30443.72, -187500.02, -187500.02, -187500.02, -160709.08, -187500.02, -187500.02, 0.000, 0.000, 0.000, 15:21:45.088
148, 61982.19, 30462.83, -187500.02, -187500.02, -187500.02, -160822.72, -187500.02, -187500.02, 0.000, 0.000, 0.000, 15:21:45.088
149, 61884.36, 30356.55, -187500.02, -187500.02, -187500.02, -160694.00, -187500.02, -187500.02, 0.000, 0.000, 0.000, 15:21:45.088
150, 61784.49, 30244.93, -187500.02, -187500.02, -187500.02, -160492.81, -187500.02, -187500.02, 0.000, 0.000, 0.000, 15:21:45.088
151, 61768.62, 30248.06, -187500.02, -187500.02, -187500.02, -160459.19, -187500.02, -187500.02, 0.000, 0.000, 0.000, 15:21:45.088
152, 61939.88, 30450.03, -187500.02, -187500.02, -187500.02, -160696.56, -187500.02, -187500.02, 0.000, 0.000, 0.000, 15:21:45.088
153, 61975.48, 30468.62, -187500.02, -187500.02, -187500.02, -160810.05, -187500.02, -187500.02, 0.000, 0.000, 0.000, 15:21:45.088
154, 61885.72, 30353.09, -187500.02, -187500.02, -187500.02, -160711.88, -187500.02, -187500.02, 0.000, 0.000, 0.000, 15:21:45.089
155, 61789.83, 30236.10, -187500.02, -187500.02, -187500.02, -160512.83, -187500.02, -187500.02, 0.000, -0.086, 1.026, 15:21:45.089
156, 61770.18, 30244.95, -187500.02, -187500.02, -187500.02, -160431.00, -187500.02, -187500.02, 0.000, 0.000, 0.000, 15:21:45.089
157, 61943.86, 30452.93, -187500.02, -187500.02, -187500.02, -160684.39, -187500.02, -187500.02, 0.000, 0.000, 0.000, 15:21:45.089
158, 61980.67, 30469.23, -187500.02, -187500.02, -187500.02, -160869.39, -187500.02, -187500.02, 0.000, 0.000, 0.000, 15:21:45.089
159, 61882.77, 30351.32, -187500.02, -187500.02, -187500.02, -160748.80, -187500.02, -187500.02, 0.000, 0.000, 0.000, 15:21:45.089
160, 61781.20, 30224.86, -187500.02, -187500.02, -187500.02, -160547.75, -187500.02, -187500.02, 0.000, 0.000, 0.000, 15:21:45.089
161, 61763.32, 30220.70, -187500.02, -187500.02, -187500.02, -160474.75, -187500.02, -187500.02, 0.000, 0.000, 0.000, 15:21:45.089
162, 61936.66, 30438.56, -187500.02, -187500.02, -187500.02, -160704.13, -187500.02, -187500.02, 0.000, 0.000, 0.000, 15:21:45.089
163, 61981.16, 30465.83, -187500.02, -187500.02, -187500.02, -160839.44, -187500.02, -187500.02, 0.000, 0.000, 0.000, 15:21:45.090
164, 61885.81, 30350.74, -187500.02, -187500.02, -187500.02, -160715.56, -187500.02, -187500.02, 0.000, 0.000, 0.000, 15:21:45.090
165, 61785.65, 30238.71, -187500.02, -187500.02, -187500.02, -160483.42, -187500.02, -187500.02, -0.006, -0.088, 1.026, 15:21:45.090
166, 61775.26, 30254.38, -187500.02, -187500.02, -187500.02, -160435.50, -187500.02, -187500.02, 0.000, 0.000, 0.000, 15:21:45.090
167, 61944.08, 30460.46, -187500.02, -187500.02, -187500.02, -160705.33, -187500.02, -187500.02, 0.000, 0.000, 0.000, 15:21:45.090
168, 61984.11, 30479.58, -187500.02, -187500.02, -187500.02, -160827.48, -187500.02, -187500.02, 0.000, 0.000, 0.000, 15:21:45.090
169, 61886.70, 30373.99, -187500.02, -187500.02, -187500.02, -160727.19, -187500.02, -187500.02, 0.000, 0.000, 0.000, 15:21:45.090
170, 61790.68, 30259.52, -187500.02, -187500.02, -187500.02, -160544.47, -187500.02, -187500.02, 0.000, 0.000, 0.000, 15:21:45.090
171, 61770.56, 30250.27, -187500.02, -187500.02, -187500.02, -160505.53, -187500.02, -187500.02, 0.000, 0.000, 0.000, 15:21:45.091
172, 61939.79, 30446.96, -187500.02, -187500.02, -187500.02, -160732.70, -187500.02, -187500.02, 0.000, 0.000, 0.000, 15:21:45.091
173, 61974.75, 30462.99, -187500.02, -187500.02, -187500.02, -160819.19, -187500.02, -187500.02, 0.000, 0.000, 0.000, 15:21:45.091
174, 61884.45, 30361.54, -187500.02, -187500.02, -187500.02, -160711.63, -187500.02, -187500.02, 0.000, 0.000, 0.000, 15:21:45.091
175, 61781.40, 30244.35, -187500.02, -187500.02, -187500.02, -160481.20, -187500.02, -187500.02, -0.008, -0.090, 1.028, 15:21:45.091
176, 61770.36, 30245.17, -187500.02, -187500.02, -187500.02, -160428.39, -187500.02, -187500.02, 0.000, 0.000, 0.000, 15:21:45.091
177, 61942.49, 30450.41, -187500.02, -187500.02, -187500.02, -160703.09, -187500.02, -187500.02, 0.000, 0.000, 0.000, 15:21:45.091
178, 61979.80, 30474.61, -187500.02, -187500.02, -187500.02, -160823.86, -187500.02, -187500.02, 0.000, 0.000, 0.000, 15:21:45.091
179, 61884.13, 30365.80, -187500.02, -187500.02, -187500.02, -160689.91, -187500.02, -187500.02, 0.000, 0.000, 0.000, 15:21:45.092
180, 61783.10, 30251.25, -187500.02, -187500.02, -187500.02, -160472.63, -187500.02, -187500.02, 0.000, 0.000, 0.000, 15:21:45.092
181, 61769.00, 30252.97, -187500.02, -187500.02, -187500.02, -160418.94, -187500.02, -187500.02, 0.000, 0.000, 0.000, 15:21:45.092
182, 61954.45, 30460.29, -187500.02, -187500.02, -187500.02, -160706.05, -187500.02, -187500.02, 0.000, 0.000, 0.000, 15:21:45.092
183, 61990.75, 30474.93, -187500.02, -187500.02, -187500.02, -160890.33, -187500.02, -187500.02, 0.000, 0.000, 0.000, 15:21:45.092
184, 61886.14, 30359.90, -187500.02, -187500.02, -187500.02, -160771.88, -187500.02, -187500.02, 0.000, 0.000, 0.000, 15:21:45.092
185, 61781.40, 30242.49, -187500.02, -187500.02, -187500.02, -160573.16, -187500.02, -187500.02, 0.000, -0.092, 1.024, 15:21:45.092
186, 61759.41, 30237.69, -187500.02, -187500.02, -187500.02, -160511.14, -187500.02, -187500.02, 0.000, 0.000, 0.000, 15:21:45.092
187, 61932.10, 30440.57, -187500.02, -187500.02, -187500.02, -160730.41, -187500.02, -187500.02, 0.000, 0.000, 0.000, 15:21:45.093
188, 61978.05, 30470.50, -187500.02, -187500.02, -187500.02, -160865.03, -187500.02, -187500.02, 0.000, 0.000, 0.000, 15:21:45.093
189, 61882.23, 30360.37, -187500.02, -187500.02, -187500.02, -160759.80, -187500.02, -187500.02, 0.000, 0.000, 0.000, 15:21:45.093
190, 61779.23, 30244.14, -187500.02, -187500.02, -187500.02, -160548.13, -187500.02, -187500.02, 0.000, 0.000, 0.000, 15:21:45.093
191, 61764.82, 30237.77, -187500.02, -187500.02, -187500.02, -160484.64, -187500.02, -187500.02, 0.000, 0.000, 0.000, 15:21:45.093
192, 61934.71, 30437.38, -187500.02, -187500.02, -187500.02, -160710.05, -187500.02, -187500.02, 0.000, 0.000, 0.000, 15:21:45.093
193, 61978.84, 30461.34, -187500.02, -187500.02, -187500.02, -160824.31, -187500.02, -187500.02, 0.000, 0.000, 0.000, 15:21:45.093
194, 61888.07, 30354.23, -187500.02, -187500.02, -187500.02, -160757.97, -187500.02, -187500.02, 0.000, 0.000, 0.000, 15:21:45.094
195, 61780.96, 30232.86, -187500.02, -187500.02, -187500.02, -160536.95, -187500.02, -187500.02, -0.006, -0.094, 1.026, 15:21:45.094
196, 61755.59, 30232.10, -187500.02, -187500.02, -187500.02, -160489.08, -187500.02, -187500.02, 0.000, 0.000, 0.000, 15:21:45.094
197, 61930.78, 30431.99, -187500.02, -187500.02, -187500.02, -160743.84, -187500.02, -187500.02, 0.000, 0.000, 0.000, 15:21:45.094
198, 61964.13, 30448.10, -187500.02, -187500.02, -187500.02, -160843.77, -187500.02, -187500.02, 0.000, 0.000, 0.000, 15:21:45.094
199, 61857.91, 30333.73, -187500.02, -187500.02, -187500.02, -160704.39, -187500.02, -187500.02, 0.000, 0.000, 0.000, 15:21:45.094
200, 61759.03, 30219.71, -187500.02, -187500.02, -187500.02, -160506.47, -187500.02, -187500.02, 0.000, 0.000, 0.000, 15:21:45.094
201, 61745.30, 30221.86, -187500.02, -187500.02, -187500.02, -160468.91, -187500.02, -187500.02, 0.000, 0.000, 0.000, 15:21:45.094
202, 61920.16, 30430.09, -187500.02, -187500.02, -187500.02, -160679.94, -187500.02, -187500.02, 0.000, 0.000, 0.000, 15:21:45.094
203, 61969.70, 30462.57, -187500.02, -187500.02, -187500.02, -160840.52, -187500.02, -187500.02, 0.000, 0.000, 0.000, 15:21:45.095
204, 61874.45, 30350.85, -187500.02, -187500.02, -187500.02, -160737.33, -187500.02, -187500.02, 0.000, 0.000, 0.000, 15:21:45.095
205, 61774.16, 30232.48, -187500.02, -187500.02, -187500.02, -160501.92, -187500.02, -187500.02, 0.002, -0.094, 1.026, 15:21:45.095
206, 61760.82, 30237.60, -187500.02, -187500.02, -187500.02, -160477.27, -187500.02, -187500.02, 0.000, 0.000, 0.000, 15:21:45.095
207, 61931.56, 30446.20, -187500.02, -187500.02, -187500.02, -160722.31, -187500.02, -187500.02, 0.000, 0.000, 0.000, 15:21:45.095
208, 61973.74, 30471.28, -187500.02, -187500.02, -187500.02, -160837.27, -187500.02, -187500.02, 0.000, 0.000, 0.000, 15:21:45.095
209, 61881.20, 30359.35, -187500.02, -187500.02, -187500.02, -160726.45, -187500.02, -187500.02, 0.000, 0.000, 0.000, 15:21:45.095
210, 61779.19, 30244.28, -187500.02, -187500.02, -187500.02, -160535.08, -187500.02, -187500.02, 0.000, 0.000, 0.000, 15:21:45.095
211, 61757.27, 30236.50, -187500.02, -187500.02, -187500.02, -160450.34, -187500.02, -187500.02, 0.000, 0.000, 0.000, 15:21:45.096
212, 61942.45, 30447.46, -187500.02, -187500.02, -187500.02, -160730.58, -187500.02, -187500.02, 0.000, 0.000, 0.000, 15:21:45.096
213, 61983.71, 30472.22, -187500.02, -187500.02, -187500.02, -160921.20, -187500.02, -187500.02, 0.000, 0.000, 0.000, 15:21:45.096
214, 61883.66, 30355.66, -187500.02, -187500.02, -187500.02, -160796.67, -187500.02, -187500.02, 0.000, 0.000, 0.000, 15:21:45.096
215, 61778.14, 30236.01, -187500.02, -187500.02, -187500.02, -160587.31, -187500.02, -187500.02, -0.004, -0.096, 1.022, 15:21:45.096
216, 61756.01, 30232.88, -187500.02, -187500.02, -187500.02, -160537.36, -187500.02, -187500.02, 0.000, 0.000, 0.000, 15:21:45.096
217, 61929.84, 30438.96, -187500.02, -187500.02, -187500.02, -160795.22, -187500.02, -187500.02, 0.000, 0.000, 0.000, 15:21:45.096
218, 61970.16, 30460.96, -187500.02, -187500.02, -187500.02, -160892.67, -187500.02, -187500.02, 0.000, 0.000, 0.000, 15:21:45.096
219, 61880.76, 30351.63, -187500.02, -187500.02, -187500.02, -160778.91, -187500.02, -187500.02, 0.000, 0.000, 0.000, 15:21:45.096
220, 61780.98, 30233.39, -187500.02, -187500.02, -187500.02, -160577.47, -187500.02, -187500.02, 0.000, 0.000, 0.000, 15:21:45.097
221, 61759.79, 30230.24, -187500.02, -187500.02, -187500.02, -160558.31, -187500.02, -187500.02, 0.000, 0.000, 0.000, 15:21:45.097
222, 61931.23, 30434.74, -187500.02, -187500.02, -187500.02, -160792.95, -187500.02, -187500.02, 0.000, 0.000, 0.000, 15:21:45.097
223, 61975.64, 30467.04, -187500.02, -187500.02, -187500.02, -160929.48, -187500.02, -187500.02, 0.000, 0.000, 0.000, 15:21:45.097
224, 61878.68, 30352.77, -187500.02, -187500.02, -187500.02, -160805.13, -187500.02, -187500.02, 0.000, 0.000, 0.000, 15:21:45.097
225, 61780.18, 30240.34, -187500.02, -187500.02, -187500.02, -160603.16, -187500.02, -187500.02, -0.002, -0.096, 1.024, 15:21:45.097
226, 61755.03, 30234.09, -187500.02, -187500.02, -187500.02, -160536.61, -187500.02, -187500.02, 0.000, 0.000, 0.000, 15:21:45.097
227, 61929.13, 30439.57, -187500.02, -187500.02, -187500.02, -160767.42, -187500.02, -187500.02, 0.000, 0.000, 0.000, 15:21:45.097
228, 61978.70, 30469.56, -187500.02, -187500.02, -187500.02, -160910.25, -187500.02, -187500.02, 0.000, 0.000, 0.000, 15:21:45.098
229, 61882.90, 30353.11, -187500.02, -187500.02, -187500.02, -160798.75, -187500.02, -187500.02, 0.000, 0.000, 0.000, 15:21:45.098
230, 61777.85, 30231.47, -187500.02, -187500.02, -187500.02, -160570.45, -187500.02, -187500.02, 0.000, 0.000, 0.000, 15:21:45.098
231, 61758.49, 30228.86, -187500.02, -187500.02, -187500.02, -160511.31, -187500.02, -187500.02, 0.000, 0.000, 0.000, 15:21:45.098
232, 61934.56, 30434.89, -187500.02, -187500.02, -187500.02, -160716.53, -187500.02, -187500.02, 0.000, 0.000, 0.000, 15:21:45.098
233, 61981.47, 30467.39, -187500.02, -187500.02, -187500.02, -160855.75, -187500.02, -187500.02, 0.000, 0.000, 0.000, 15:21:45.098
234, 61882.99, 30355.08, -187500.02, -187500.02, -187500.02, -160750.88, -187500.02, -187500.02, 0.000, 0.000, 0.000, 15:21:45.098
235, 61784.94, 30239.16, -187500.02, -187500.02, -187500.02, -160577.00, -187500.02, -187500.02, 0.000, -0.092, 1.028, 15:21:45.098
236, 61761.27, 30229.35, -187500.02, -187500.02, -187500.02, -160556.00, -187500.02, -187500.02, 0.000, 0.000, 0.000, 15:21:45.099
237, 61929.66, 30432.66, -187500.02, -187500.02, -187500.02, -160778.16, -187500.02, -187500.02, 0.000, 0.000, 0.000, 15:21:45.099
238, 61979.15, 30462.86, -187500.02, -187500.02, -187500.02, -160884.30, -187500.02, -187500.02, 0.000, 0.000, 0.000, 15:21:45.099
239, 61889.16, 30353.94, -187500.02, -187500.02, -187500.02, -160786.94, -187500.02, -187500.02, 0.000, 0.000, 0.000, 15:21:45.099
240, 61782.95, 30240.26, -187500.02, -187500.02, -187500.02, -160557.14, -187500.02, -187500.02, 0.000, 0.000, 0.000, 15:21:45.564
241, 61759.05, 30237.84, -187500.02, -187500.02, -187500.02, -160520.34, -187500.02, -187500.02, 0.000, 0.000, 0.000, 15:21:45.564
242, 61932.46, 30435.39, -187500.02, -187500.02, -187500.02, -160782.11, -187500.02, -187500.02, 0.000, 0.000, 0.000, 15:21:45.565
243, 61983.60, 30466.50, -187500.02, -187500.02, -187500.02, -160972.92, -187500.02, -187500.02, 0.000, 0.000, 0.000, 15:21:45.565
244, 61881.88, 30349.15, -187500.02, -187500.02, -187500.02, -160825.89, -187500.02, -187500.02, 0.000, 0.000, 0.000, 15:21:45.565
245, 61780.00, 30235.27, -187500.02, -187500.02, -187500.02, -160592.19, -187500.02, -187500.02, 0.002, -0.094, 1.028, 15:21:45.565
246, 61759.07, 30231.94, -187500.02, -187500.02, -187500.02, -160542.45, -187500.02, -187500.02, 0.000, 0.000, 0.000, 15:21:45.565
247, 61935.14, 30435.21, -187500.02, -187500.02, -187500.02, -160793.30, -187500.02, -187500.02, 0.000, 0.000, 0.000, 15:21:45.565
248, 61986.10, 30469.29, -187500.02, -187500.02, -187500.02, -160933.78, -187500.02, -187500.02, 0.000, 0.000, 0.000, 15:21:45.566
249, 61891.06, 30360.55, -187500.02, -187500.02, -187500.02, -160846.39, -187500.02, -187500.02, 0.000, 0.000, 0.000, 15:21:45.566
250, 61783.24, 30238.06, -187500.02, -187500.02, -187500.02, -160638.31, -187500.02, -187500.02, 0.000, 0.000, 0.000, 15:21:45.566
251, 61752.28, 30224.45, -187500.02, -187500.02, -187500.02, -160567.75, -187500.02, -187500.02, 0.000, 0.000, 0.000, 15:21:45.566
252, 61928.66, 30433.13, -187500.02, -187500.02, -187500.02, -160787.22, -187500.02, -187500.02, 0.000, 0.000, 0.000, 15:21:45.566
253, 61990.13, 30478.41, -187500.02, -187500.02, -187500.02, -160901.06, -187500.02, -187500.02, 0.000, 0.000, 0.000, 15:21:45.566
254, 61894.57, 30370.86, -187500.02, -187500.02, -187500.02, -160825.25, -187500.02, -187500.02, 0.000, 0.000, 0.000, 15:21:45.567
255, 61778.01, 30244.39, -187500.02, -187500.02, -187500.02, -160622.89, -187500.02, -187500.02, 0.008, -0.088, 1.030, 15:21:45.567
0, 61758.27, 30239.90, -187500.02, -187500.02, -187500.02, -160525.47, -187500.02, -187500.02, 0.000, 0.000, 0.000, 15:21:45.567
1, 61937.84, 30459.79, -187500.02, -187500.02, -187500.02, -160783.00, -187500.02, -187500.02, 0.000, 0.000, 0.000, 15:21:45.567
2, 61991.73, 30504.21, -187500.02, -187500.02, -187500.02, -160911.56, -187500.02, -187500.02, 0.000, 0.000, 0.000, 15:21:45.567
3, 61898.19, 30398.46, -187500.02, -187500.02, -187500.02, -160780.03, -187500.02, -187500.02, 0.000, 0.000, 0.000, 15:21:45.567
4, 61794.61, 30280.04, -187500.02, -187500.02, -187500.02, -160557.94, -187500.02, -187500.02, 0.000, 0.000, 0.000, 15:21:45.568
5, 61768.95, 30266.76, -187500.02, -187500.02, -187500.02, -160524.84, -187500.02, -187500.02, 0.000, 0.000, 0.000, 15:21:45.568
6, 61932.52, 30462.92, -187500.02, -187500.02, -187500.02, -160776.22, -187500.02, -187500.02, 0.000, 0.000, 0.000, 15:21:45.568
7, 61986.37, 30500.09, -187500.02, -187500.02, -187500.02, -160895.97, -187500.02, -187500.02, 0.000, 0.000, 0.000, 15:21:45.568
8, 61901.19, 30395.87, -187500.02, -187500.02, -187500.02, -160804.25, -187500.02, -187500.02, 0.000, 0.000, 0.000, 15:21:45.568
9, 61797.70, 30277.18, -187500.02, -187500.02, -187500.02, -160592.86, -187500.02, -187500.02, 0.000, -0.090, 1.034, 15:21:45.568
10, 61770.38, 30267.64, -187500.02, -187500.02, -187500.02, -160516.66, -187500.02, -187500.02, 0.000, 0.000, 0.000, 15:21:45.569
11, 61945.62, 30473.45, -187500.02, -187500.02, -187500.02, -160763.00, -187500.02, -187500.02, 0.000, 0.000, 0.000, 15:21:45.569
12, 61993.86, 30508.41, -187500.02, -187500.02, -187500.02, -160919.75, -187500.02, -187500.02, 0.000, 0.000, 0.000, 15:21:45.569
13, 61898.77, 30398.77, -187500.02, -187500.02, -187500.02, -160812.17, -187500.02, -187500.02, 0.000, 0.000, 0.000, 15:21:45.569
14, 61799.42, 30278.12, -187500.02, -187500.02, -187500.02, -160606.33, -187500.02, -187500.02, 0.000, 0.000, 0.000, 15:21:45.569
15, 61772.57, 30266.81, -187500.02, -187500.02, -187500.02, -160509.08, -187500.02, -187500.02, 0.000, 0.000, 0.000, 15:21:45.570
16, 61945.55, 30470.61, -187500.02, -187500.02, -187500.02, -160730.03, -187500.02, -187500.02, 0.000, 0.000, 0.000, 15:21:45.570
17, 62002.13, 30510.94, -187500.02, -187500.02, -187500.02, -160905.75, -187500.02, -187500.02, 0.000, 0.000, 0.000, 15:21:45.570
18, 61909.64, 30407.20, -187500.02, -187500.02, -187500.02, -160827.25, -187500.02, -187500.02, 0.000, 0.000, 0.000, 15:21:45.570
19, 61807.85, 30288.76, -187500.02, -187500.02, -187500.02, -160616.41, -187500.02, -187500.02, 0.002, -0.096, 1.036, 15:21:45.570
20, 61777.56, 30277.87, -187500.02, -187500.02, -187500.02, -160552.73, -187500.02, -187500.02, 0.000, 0.000, 0.000, 15:21:45.570
21, 61948.39, 30480.13, -187500.02, -187500.02, -187500.02, -160812.09, -187500.02, -187500.02, 0.000, 0.000, 0.000, 15:21:45.570
22, 61994.15, 30509.93, -187500.02, -187500.02, -187500.02, -160942.75, -187500.02, -187500.02, 0.000, 0.000, 0.000, 15:21:45.570
23, 61903.91, 30396.83, -187500.02, -187500.02, -187500.02, -160820.22, -187500.02, -187500.02, 0.000, 0.000, 0.000, 15:21:45.571
24, 61803.02, 30279.64, -187500.02, -187500.02, -187500.02, -160603.53, -187500.02, -187500.02, 0.000, 0.000, 0.000, 15:21:45.571
25, 61773.54, 30271.10, -187500.02, -187500.02, -187500.02, -160562.70, -187500.02, -187500.02, 0.000, 0.000, 0.000, 15:21:45.571
26, 61949.24, 30477.99, -187500.02, -187500.02, -187500.02, -160814.50, -187500.02, -187500.02, 0.000, 0.000, 0.000, 15:21:45.571
27, 62004.45, 30515.63, -187500.02, -187500.02, -187500.02, -160971.58, -187500.02, -187500.02, 0.000, 0.000, 0.000, 15:21:45.571
28, 61909.46, 30402.91, -187500.02, -187500.02, -187500.02, -160863.91, -187500.02, -187500.02, -0.002, -0.094, 1.034, 15:21:45.571
29, 61804.83, 30284.82, -187500.02, -187500.02, -187500.02, -160625.39, -187500.02, -187500.02, 0.000, 0.000, 0.000, 15:21:45.571
30, 61776.62, 30273.40, -187500.02, -187500.02, -187500.02, -160554.09, -187500.02, -187500.02, 0.000, 0.000, 0.000, 15:21:45.571
31, 61949.85, 30481.05, -187500.02, -187500.02, -187500.02, -160789.41, -187500.02, -187500.02, 0.000, 0.000, 0.000, 15:21:45.572
32, 62000.79, 30516.68, -187500.02, -187500.02, -187500.02, -160911.25, -187500.02, -187500.02, 0.000, 0.000, 0.000, 15:21:45.572
33, 61904.88, 30405.75, -187500.02, -187500.02, -187500.02, -160804.05, -187500.02, -187500.02, 0.000, 0.000, 0.000, 15:21:45.572
34, 61802.41, 30290.14, -187500.02, -187500.02, -187500.02, -160602.47, -187500.02, -187500.02, 0.000, 0.000, 0.000, 15:21:45.572
35, 61778.88, 30281.20, -187500.02, -187500.02, -187500.02, -160536.39, -187500.02, -187500.02, 0.000, 0.000, 0.000, 15:21:45.572
36, 61955.46, 30488.52, -187500.02, -187500.02, -187500.02, -160787.52, -187500.02, -187500.02, 0.000, 0.000, 0.000, 15:21:45.573
37, 62011.25, 30524.73, -187500.02, -187500.02, -187500.02, -160930.78, -187500.02, -187500.02, 0.000, 0.000, 0.000, 15:21:45.573
38, 61913.57, 30415.56, -187500.02, -187500.02, -187500.02, -160845.31, -187500.02, -187500.02, 0.002, -0.090, 1.034, 15:21:45.573
39, 61805.28, 30292.49, -187500.02, -187500.02, -187500.02, -160584.06, -187500.02, -187500.02, 0.000, 0.000, 0.000, 15:21:45.573
40, 61776.69, 30276.80, -187500.02, -187500.02, -187500.02, -160502.91, -187500.02, -187500.02, 0.000, 0.000, 0.000, 15:21:45.573
41, 61942.76, 30481.41, -187500.02, -187500.02, -187500.02, -160757.09, -187500.02, -187500.02, 0.000, 0.000, 0.000, 15:21:45.573
42, 61992.98, 30513.57, -187500.02, -187500.02, -187500.02, -160872.00, -187500.02, -187500.02, 0.000, 0.000, 0.000, 15:21:45.573
43, 61904.32, 30404.03, -187500.02, -187500.02, -187500.02, -160767.64, -187500.02, -187500.02, 0.000, 0.000, 0.000, 15:21:45.573
44, 61795.04, 30285.74, -187500.02, -187500.02, -187500.02, -160549.13, -187500.02, -187500.02, 0.000, 0.000, 0.000, 15:21:45.573
45, 61769.00, 30277.69, -187500.02, -187500.02, -187500.02, -160459.17, -187500.02, -187500.02, 0.000, 0.000, 0.000, 15:21:45.574
46, 61953.42, 30487.91, -187500.02, -187500.02, -187500.02, -160745.52, -187500.02, -187500.02, 0.000, 0.000, 0.000, 15:21:45.574
47, 62003.98, 30517.64, -187500.02, -187500.02, -187500.02, -160917.13, -187500.02, -187500.02, 0.000, 0.000, 0.000, 15:21:45.574
48, 61906.86, 30403.00, -187500.02, -187500.02, -187500.02, -160816.02, -187500.02, -187500.02, 0.002, -0.090, 1.032, 15:21:45.574
49, 61804.27, 30284.91, -187500.02, -187500.02, -187500.02, -160624.91, -187500.02, -187500.02, 0.000, 0.000, 0.000, 15:21:45.574
50, 61771.46, 30266.52, -187500.02, -187500.02, -187500.02, -160556.28, -187500.02, -187500.02, 0.000, 0.000, 0.000, 15:21:45.574
51, 61944.91, 30476.45, -187500.02, -187500.02, -187500.02, -160788.72, -187500.02, -187500.02, 0.000, 0.000, 0.000, 15:21:45.574
52, 61998.06, 30517.39, -187500.02, -187500.02, -187500.02, -160944.72, -187500.02, -187500.02, 0.000, 0.000, 0.000, 15:21:45.574
53, 61905.86, 30404.43, -187500.02, -187500.02, -187500.02, -160842.59, -187500.02, -187500.02, 0.000, 0.000, 0.000, 15:21:45.575
54, 61799.60, 30286.95, -187500.02, -187500.02, -187500.02, -160621.78, -187500.02, -187500.02, 0.000, 0.000, 0.000, 15:21:45.575
55, 61769.80, 30275.64, -187500.02, -187500.02, -187500.02, -160514.95, -187500.02, -187500.02, 0.000, 0.000, 0.000, 15:21:45.575
56, 61945.04, 30482.28, -187500.02, -187500.02, -187500.02, -160772.19, -187500.02, -187500.02, 0.000, 0.000, 0.000, 15:21:45.575
57, 62000.63, 30526.29, -187500.02, -187500.02, -187500.02, -160946.80, -187500.02, -187500.02, 0.000, 0.000, 0.000, 15:21:45.575
58, 61907.76, 30416.19, -187500.02, -187500.02, -187500.02, -160864.52, -187500.02, -187500.02, 0.006, -0.088, 1.030, 15:21:45.575
59, 61795.06, 30291.11, -187500.02, -187500.02, -187500.02, -160630.47, -187500.02, -187500.02, 0.000, 0.000, 0.000, 15:21:45.575
60, 61763.59, 30276.46, -187500.02, -187500.02, -187500.02, -160549.80, -187500.02, -187500.02, 0.000, 0.000, 0.000, 15:21:45.575
61, 61941.35, 30483.51, -187500.02, -187500.02, -187500.02, -160808.69, -187500.02, -187500.02, 0.000, 0.000, 0.000, 15:21:45.576
62, 61991.69, 30519.70, -187500.02, -187500.02, -187500.02, -160967.64, -187500.02, -187500.02, 0.000, 0.000, 0.000, 15:21:45.576
63, 61899.85, 30407.76, -187500.02, -187500.02, -187500.02, -160824.64, -187500.02, -187500.02, 0.000, 0.000, 0.000, 15:21:45.576
64, 61810.51, 30298.37, -187500.02, -187500.02, -187500.02, -160629.31, -187500.02, -187500.02, 0.000, 0.000, 0.000, 15:21:45.576
65, 61776.87, 30281.16, -187500.02, -187500.02, -187500.02, -160558.92, -187500.02, -187500.02, 0.000, 0.000, 0.000, 15:21:45.576
66, 61945.29, 30485.48, -187500.02, -187500.02, -187500.02, -160806.73, -187500.02, -187500.02, 0.000, 0.000, 0.000, 15:21:45.576
67, 61995.98, 30522.71, -187500.02, -187500.02, -187500.02, -160958.30, -187500.02, -187500.02, 0.000, 0.000, 0.000, 15:21:45.576
68, 61904.27, 30411.13, -187500.02, -187500.02, -187500.02, -160828.02, -187500.02, -187500.02, 0.002, -0.088, 1.026, 15:21:45.576
69, 61808.36, 30296.29, -187500.02, -187500.02, -187500.02, -160627.39, -187500.02, -187500.02, 0.000, 0.000, 0.000, 15:21:45.577
70, 61775.17, 30280.64, -187500.02, -187500.02, -187500.02, -160559.33, -187500.02, -187500.02, 0.000, 0.000, 0.000, 15:21:45.577
71, 61946.88, 30488.47, -187500.02, -187500.02, -187500.02, -160836.67, -187500.02, -187500.02, 0.000, 0.000, 0.000, 15:21:45.577
72, 62001.39, 30524.30, -187500.02, -187500.02, -187500.02, -160990.47, -187500.02, -187500.02, 0.000, 0.000, 0.000, 15:21:45.577
73, 61917.70, 30415.13, -187500.02, -187500.02, -187500.02, -160855.19, -187500.02, -187500.02, 0.000, 0.000, 0.000, 15:21:45.577
74, 61826.13, 30307.00, -187500.02, -187500.02, -187500.02, -160671.03, -187500.02, -187500.02, 0.000, 0.000, 0.000, 15:21:45.577
75, 61762.96, 30276.42, -187500.02, -187500.02, -187500.02, -160600.66, -187500.02, -187500.02, 0.000, 0.000, 0.000, 15:21:45.577
76, 61928.37, 30482.71, -187500.02, -187500.02, -187500.02, -160837.53, -187500.02, -187500.02, 0.000, 0.000, 0.000, 15:21:45.577
77, 61996.50, 30532.57, -187500.02, -187500.02, -187500.02, -160950.33, -187500.02, -187500.02, 0.000, 0.000, 0.000, 15:21:45.578
78, 61918.09, 30433.13, -187500.02, -187500.02, -187500.02, -160831.66, -187500.02, -187500.02, 0.000, -0.090, 1.030, 15:21:45.578
79, 61819.76, 30322.51, -187500.02, -187500.02, -187500.02, -160639.59, -187500.02, -187500.02, 0.000, 0.000, 0.000, 15:21:45.578
80, 61796.38, 30317.82, -187500.02, -187500.02, -187500.02, -160542.38, -187500.02, -187500.02, 0.000, 0.000, 0.000, 15:21:45.578
81, 61971.17, 30528.71, -187500.02, -187500.02, -187500.02, -160769.55, -187500.02, -187500.02, 0.000, 0.000, 0.000, 15:21:45.578
82, 62039.39, 30586.33, -187500.02, -187500.02, -187500.02, -160924.70, -187500.02, -187500.02, 0.000, 0.000, 0.000, 15:21:45.578
83, 61950.56, 30482.95, -187500.02, -187500.02, -187500.02, -160888.20, -187500.02, -187500.02, 0.000, 0.000, 0.000, 15:21:45.578
84, 61846.65, 30365.94, -187500.02, -187500.02, -187500.02, -160655.91, -187500.02, -187500.02, 0.000, 0.000, 0.000, 15:21:45.578
85, 61826.27, 30367.77, -187500.02, -187500.02, -187500.02, -160546.86, -187500.02, -187500.02, 0.000, 0.000, 0.000, 15:21:45.579
86, 61989.07, 30566.10, -187500.02, -187500.02, -187500.02, -160820.34, -187500.02, -187500.02, 0.000, 0.000, 0.000, 15:21:45.579
87, 62042.88, 30608.79, -187500.02, -187500.02, -187500.02, -160995.30, -187500.02, -187500.02, 0.000, 0.000, 0.000, 15:21:45.579
88, 61953.40, 30506.15, -187500.02, -187500.02, -187500.02, -160879.45, -187500.02, -187500.02, -0.004, -0.092, 1.028, 15:21:45.579
89, 61849.27, 30385.92, -187500.02, -187500.02, -187500.02, -160624.38, -187500.02, -187500.02, 0.000, 0.000, 0.000, 15:21:45.579
90, 61811.80, 30359.01, -187500.02, -187500.02, -187500.02, -160556.89, -187500.02, -187500.02, 0.000, 0.000, 0.000, 15:21:45.579
91, 61980.04, 30556.46, -187500.02, -187500.02, -187500.02, -160791.20, -187500.02, -187500.02, 0.000, 0.000, 0.000, 15:21:45.579
92, 62034.27, 30600.50, -187500.02, -187500.02, -187500.02, -160940.78, -187500.02, -187500.02, 0.000, 0.000, 0.000, 15:21:45.579
93, 61938.67, 30491.60, -187500.02, -187500.02, -187500.02, -160820.02, -187500.02, -187500.02, 0.000, 0.000, 0.000, 15:21:45.580
94, 61841.95, 30379.55, -187500.02, -187500.02, -187500.02, -160637.22, -187500.02, -187500.02, 0.000, 0.000, 0.000, 15:21:45.580
95, 61805.28, 30357.80, -187500.02, -187500.02, -187500.02, -160578.17, -187500.02, -187500.02, 0.000, 0.000, 0.000, 15:21:45.580
96, 61979.73, 30559.82, -187500.02, -187500.02, -187500.02, -160836.83, -187500.02, -187500.02, 0.000, 0.000, 0.000, 15:21:45.580
97, 62027.43, 30593.75, -187500.02, -187500.02, -187500.02, -160920.06, -187500.02, -187500.02, 0.000, 0.000, 0.000, 15:21:45.580
98, 61937.55, 30490.15, -187500.02, -187500.02, -187500.02, -160807.42, -187500.02, -187500.02, 0.000, -0.088, 1.026, 15:21:45.580
99, 61836.41, 30379.84, -187500.02, -187500.02, -187500.02, -160619.11, -187500.02, -187500.02, 0.000, 0.000, 0.000, 15:21:45.580
100, 61804.02, 30360.22, -187500.02, -187500.02, -187500.02, -160560.64, -187500.02, -187500.02, 0.000, 0.000, 0.000, 15:21:45.580
101, 61973.32, 30557.61, -187500.02, -187500.02, -187500.02, -160791.92, -187500.02, -187500.02, 0.000, 0.000, 0.000, 15:21:45.580
102, 62024.21, 30598.15, -187500.02, -187500.02, -187500.02, -160915.14, -187500.02, -187500.02, 0.000, 0.000, 0.000, 15:21:45.581
103, 61938.78, 30494.89, -187500.02, -187500.02, -187500.02, -160833.45, -187500.02, -187500.02, 0.000, 0.000, 0.000, 15:21:45.581
104, 61840.37, 30382.66, -187500.02, -187500.02, -187500.02, -160647.88, -187500.02, -187500.02, 0.000, 0.000, 0.000, 15:21:46.046
105, 61803.91, 30360.60, -187500.02, -187500.02, -187500.02, -160563.64, -187500.02, -187500.02, 0.000, 0.000, 0.000, 15:21:46.046
106, 61974.86, 30564.87, -187500.02, -187500.02, -187500.02, -160796.30, -187500.02, -187500.02, 0.000, 0.000, 0.000, 15:21:46.046
107, 62036.82, 30616.37, -187500.02, -187500.02, -187500.02, -160957.56, -187500.02, -187500.02, 0.000, 0.000, 0.000, 15:21:46.047
108, 61949.73, 30511.72, -187500.02, -187500.02, -187500.02, -160847.19, -187500.02, -187500.02, -0.004, -0.092, 1.028, 15:21:46.047
109, 61849.22, 30398.13, -187500.02, -187500.02, -187500.02, -160654.34, -187500.02, -187500.02, 0.000, 0.000, 0.000, 15:21:46.047
110, 61810.77, 30372.91, -187500.02, -187500.02, -187500.02, -160560.28, -187500.02, -187500.02, 0.000, 0.000, 0.000, 15:21:46.047
111, 61983.20, 30574.91, -187500.02, -187500.02, -187500.02, -160774.95, -187500.02, -187500.02, 0.000, 0.000, 0.000, 15:21:46.047
112, 62045.13, 30618.83, -187500.02, -187500.02, -187500.02, -160936.38, -187500.02, -187500.02, 0.000, 0.000, 0.000, 15:21:46.047
113, 61956.71, 30514.80, -187500.02, -187500.02, -187500.02, -160837.41, -187500.02, -187500.02, 0.000, 0.000, 0.000, 15:21:46.048
114, 61861.85, 30402.89, -187500.02, -187500.02, -187500.02, -160681.25, -187500.02, -187500.02, 0.000, 0.000, 0.000, 15:21:46.048
115, 61822.73, 30374.86, -187500.02, -187500.02, -187500.02, -160629.91, -187500.02, -187500.02, 0.000, 0.000, 0.000, 15:21:46.048
116, 61981.32, 30570.81, -187500.02, -187500.02, -187500.02, -160828.94, -187500.02, -187500.02, 0.000, 0.000, 0.000, 15:21:46.048
117, 62033.89, 30616.10, -187500.02, -187500.02, -187500.02, -160936.16, -187500.02, -187500.02, 0.000, 0.000, 0.000, 15:21:46.048
118, 61953.09, 30511.20, -187500.02, -187500.02, -187500.02, -160844.25, -187500.02, -187500.02, -0.002, -0.090, 1.022, 15:21:46.049
119, 61861.42, 30401.86, -187500.02, -187500.02, -187500.02, -160685.75, -187500.02, -187500.02, 0.000, 0.000, 0.000, 15:21:46.049
120, 61823.07, 30375.66, -187500.02, -187500.02, -187500.02, -160592.27, -187500.02, -187500.02, 0.000, 0.000, 0.000, 15:21:46.049
121, 61987.44, 30570.10, -187500.02, -187500.02, -187500.02, -160779.58, -187500.02, -187500.02, 0.000, 0.000, 0.000, 15:21:46.049
122, 62041.82, 30618.96, -187500.02, -187500.02, -187500.02, -160944.98, -187500.02, -187500.02, 0.000, 0.000, 0.000, 15:21:46.049
123, 61950.47, 30507.09, -187500.02, -187500.02, -187500.02, -160852.69, -187500.02, -187500.02, 0.000, 0.000, 0.000, 15:21:46.049
124, 61854.07, 30392.54, -187500.02, -187500.02, -187500.02, -160655.14, -187500.02, -187500.02, 0.000, 0.000, 0.000, 15:21:46.050
125, 61820.77, 30377.88, -187500.02, -187500.02, -187500.02, -160598.16, -187500.02, -187500.02, 0.000, 0.000, 0.000, 15:21:46.050
126, 61987.09, 30577.70, -187500.02, -187500.02, -187500.02, -160834.23, -187500.02, -187500.02, 0.000, 0.000, 0.000, 15:21:46.050
127, 62040.77, 30618.83, -187500.02, -187500.02, -187500.02, -160951.42, -187500.02, -187500.02, 0.000, 0.000, 0.000, 15:21:46.050
128, 61955.55, 30515.34, -187500.02, -187500.02, -187500.02, -160866.38, -187500.02, -187500.02, 0.002, -0.092, 1.028, 15:21:46.050
129, 61854.56, 30400.07, -187500.02, -187500.02, -187500.02, -160640.02, -187500.02, -187500.02, 0.000, 0.000, 0.000, 15:21:46.050
130, 61820.56, 30379.44, -187500.02, -187500.02, -187500.02, -160541.42, -187500.02, -187500.02, 0.000, 0.000, 0.000, 15:21:46.051
131, 61986.10, 30575.35, -187500.02, -187500.02, -187500.02, -160798.36, -187500.02, -187500.02, 0.000, 0.000, 0.000, 15:21:46.051
132, 62046.90, 30621.80, -187500.02, -187500.02, -187500.02, -160981.89, -187500.02, -187500.02, 0.000, 0.000, 0.000, 15:21:46.051
133, 61956.87, 30515.12, -187500.02, -187500.02, -187500.02, -160888.44, -187500.02, -187500.02, 0.000, 0.000, 0.000, 15:21:46.051
134, 61852.21, 30398.44, -187500.02, -187500.02, -187500.02, -160674.64, -187500.02, -187500.02, 0.000, 0.000, 0.000, 15:21:46.051
135, 61810.82, 30370.01, -187500.02, -187500.02, -187500.02, -160570.02, -187500.02, -187500.02, 0.000, 0.000, 0.000, 15:21:46.051
136, 61983.33, 30572.80, -187500.02, -187500.02, -187500.02, -160815.91, -187500.02, -187500.02, 0.000, 0.000, 0.000, 15:21:46.052
137, 62047.05, 30618.83, -187500.02, -187500.02, -187500.02, -160925.31, -187500.02, -187500.02, 0.000, 0.000, 0.000, 15:21:46.052
138, 61958.77, 30514.13, -187500.02, -187500.02, -187500.02, -160827.28, -187500.02, -187500.02, 0.004, -0.090, 1.028, 15:21:46.052
139, 61854.92, 30395.53, -187500.02, -187500.02, -187500.02, -160633.53, -187500.02, -187500.02, 0.000, 0.000, 0.000, 15:21:46.052
140, 61823.00, 30375.42, -187500.02, -187500.02, -187500.02, -160543.33, -187500.02, -187500.02, 0.000, 0.000, 0.000, 15:21:46.052
141, 61992.70, 30582.30, -187500.02, -187500.02, -187500.02, -160804.36, -187500.02, -187500.02, 0.000, 0.000, 0.000, 15:21:46.052
142, 62056.73, 30631.48, -187500.02, -187500.02, -187500.02, -161013.95, -187500.02, -187500.02, 0.000, 0.000, 0.000, 15:21:46.053
143, 61961.25, 30511.81, -187500.02, -187500.02, -187500.02, -160923.41, -187500.02, -187500.02, 0.000, 0.000, 0.000, 15:21:46.053
144, 61859.64, 30402.64, -187500.02, -187500.02, -187500.02, -160733.17, -187500.02, -187500.02, 0.000, 0.000, 0.000, 15:21:46.053
145, 61817.28, 30368.78, -187500.02, -187500.02, -187500.02, -160614.89, -187500.02, -187500.02, 0.000, 0.000, 0.000, 15:21:46.053
146, 61987.93, 30571.02, -187500.02, -187500.02, -187500.02, -160827.44, -187500.02, -187500.02, 0.000, 0.000, 0.000, 15:21:46.053
147, 62056.80, 30626.25, -187500.02, -187500.02, -187500.02, -161027.69, -187500.02, -187500.02, 0.000, 0.000, 0.000, 15:21:46.054
148, 61961.31, 30511.87, -187500.02, -187500.02, -187500.02, -160929.14, -187500.02, -187500.02, -0.004, -0.092, 1.030, 15:21:46.054
149, 61860.71, 30397.57, -187500.02, -187500.02, -187500.02, -160679.22, -187500.02, -187500.02, 0.000, 0.000, 0.000, 15:21:46.054
150, 61827.05, 30377.41, -187500.02, -187500.02, -187500.02, -160603.48, -187500.02, -187500.02, 0.000, 0.000, 0.000, 15:21:46.054
151, 61992.92, 30575.11, -187500.02, -187500.02, -187500.02, -160864.03, -187500.02, -187500.02, 0.000, 0.000, 0.000, 15:21:46.054
152, 62054.95, 30623.81, -187500.02, -187500.02, -187500.02, -161029.47, -187500.02, -187500.02, 0.000, 0.000, 0.000, 15:21:46.055
153, 61958.25, 30503.56, -187500.02, -187500.02, -187500.02, -160916.17, -187500.02, -187500.02, 0.000, 0.000, 0.000, 15:21:46.055
154, 61858.20, 30392.47, -187500.02, -187500.02, -187500.02, -160693.44, -187500.02, -187500.02, 0.000, 0.000, 0.000, 15:21:46.055
155, 61823.05, 30370.41, -187500.02, -187500.02, -187500.02, -160608.81, -187500.02, -187500.02, 0.000, 0.000, 0.000, 15:21:46.055
156, 61990.64, 30569.38, -187500.02, -187500.02, -187500.02, -160810.42, -187500.02, -187500.02, 0.000, 0.000, 0.000, 15:21:46.055
157, 62052.29, 30623.10, -187500.02, -187500.02, -187500.02, -161016.23, -187500.02, -187500.02, 0.000, -0.092, 1.032, 15:21:46.055
158, 61958.99, 30512.79, -187500.02, -187500.02, -187500.02, -160940.36, -187500.02, -187500.02, 0.000, 0.000, 0.000, 15:21:46.056
159, 61856.98, 30390.64, -187500.02, -187500.02, -187500.02, -160734.27, -187500.02, -187500.02, 0.000, 0.000, 0.000, 15:21:46.056
160, 61810.53, 30356.89, -187500.02, -187500.02, -187500.02, -160615.55, -187500.02, -187500.02, 0.000, 0.000, 0.000, 15:21:46.056
161, 61978.01, 30560.06, -187500.02, -187500.02, -187500.02, -160833.17, -187500.02, -187500.02, 0.000, 0.000, 0.000, 15:21:46.056
162, 62038.18, 30609.39, -187500.02, -187500.02, -187500.02, -160970.13, -187500.02, -187500.02, 0.000, 0.000, 0.000, 15:21:46.056
163, 61950.81, 30504.34, -187500.02, -187500.02, -187500.02, -160869.14, -187500.02, -187500.02, 0.000, 0.000, 0.000, 15:21:46.056
164, 61854.25, 30385.05, -187500.02, -187500.02, -187500.02, -160673.56, -187500.02, -187500.02, 0.000, 0.000, 0.000, 15:21:46.057
165, 61808.74, 30347.99, -187500.02, -187500.02, -187500.02, -160577.56, -187500.02, -187500.02, 0.000, 0.000, 0.000, 15:21:46.057
166, 61979.11, 30568.78, -187500.02, -187500.02, -187500.02, -160803.72, -187500.02, -187500.02, 0.000, 0.000, 0.000, 15:21:46.057
167, 62047.79, 30623.25, -187500.02, -187500.02, -187500.02, -160972.41, -187500.02, -187500.02, 0.000, -0.090, 1.030, 15:21:46.057
168, 61952.66, 30507.52, -187500.02, -187500.02, -187500.02, -160865.03, -187500.02, -187500.02, 0.000, 0.000, 0.000, 15:21:46.057
169, 61852.21, 30386.88, -187500.02, -187500.02, -187500.02, -160654.23, -187500.02, -187500.02, 0.000, 0.000, 0.000, 15:21:46.058
170, 61817.46, 30366.54, -187500.02, -187500.02, -187500.02, -160561.20, -187500.02, -187500.02, 0.000, 0.000, 0.000, 15:21:46.058
171, 61982.35, 30566.81, -187500.02, -187500.02, -187500.02, -160814.05, -187500.02, -187500.02, 0.000, 0.000, 0.000, 15:21:46.058
172, 62037.78, 30610.56, -187500.02, -187500.02, -187500.02, -161009.95, -187500.02, -187500.02, 0.000, 0.000, 0.000, 15:21:46.058
173, 61948.02, 30518.87, -187500.02, -187500.02, -187500.02, -160917.42, -187500.02, -187500.02, 0.000, 0.000, 0.000, 15:21:46.058
174, 61855.97, 30402.04, -187500.02, -187500.02, -187500.02, -160711.81, -187500.02, -187500.02, 0.000, 0.000, 0.000, 15:21:46.058
175, 61811.07, 30361.18, -187500.02, -187500.02, -187500.02, -160597.80, -187500.02, -187500.02, 0.000, 0.000, 0.000, 15:21:46.059
176, 61982.30, 30563.19, -187500.02, -187500.02, -187500.02, -160838.44, -187500.02, -187500.02, 0.000, 0.000, 0.000, 15:21:46.059
177, 62046.32, 30625.87, -187500.02, -187500.02, -187500.02, -161013.16, -187500.02, -187500.02, 0.000, -0.088, 1.020, 15:21:46.059
178, 61959.35, 30527.97, -187500.02, -187500.02, -187500.02, -160952.61, -187500.02, -187500.02, 0.000, 0.000, 0.000, 15:21:46.059
179, 61849.96, 30389.52, -187500.02, -187500.02, -187500.02, -160762.38, -187500.02, -187500.02, 0.000, 0.000, 0.000, 15:21:46.059
180, 61802.32, 30356.60, -187500.02, -187500.02, -187500.02, -160635.55, -187500.02, -187500.02, 0.000, 0.000, 0.000, 15:21:46.060
181, 61966.12, 30567.11, -187500.02, -187500.02, -187500.02, -160826.86, -187500.02, -187500.02, 0.000, 0.000, 0.000, 15:21:46.060
182, 62031.97, 30618.25, -187500.02, -187500.02, -187500.02, -160955.91, -187500.02, -187500.02, 0.000, 0.000, 0.000, 15:21:46.060
183, 61955.55, 30517.44, -187500.02, -187500.02, -187500.02, -160906.33, -187500.02, -187500.02, 0.000, 0.000, 0.000, 15:21:46.060
184, 61853.82, 30407.83, -187500.02, -187500.02, -187500.02, -160703.20, -187500.02, -187500.02, 0.000, 0.000, 0.000, 15:21:46.060
185, 61812.05, 30373.00, -187500.02, -187500.02, -187500.02, -160625.42, -187500.02, -187500.02, 0.000, 0.000, 0.000, 15:21:46.060
186, 61980.67, 30569.43, -187500.02, -187500.02, -187500.02, -160863.88, -187500.02, -187500.02, 0.000, 0.000, 0.000, 15:21:46.061
187, 62045.36, 30620.35, -187500.02, -187500.02, -187500.02, -161025.42, -187500.02, -187500.02, 0.004, -0.094, 1.022, 15:21:46.061
188, 61950.32, 30510.02, -187500.02, -187500.02, -187500.02, -160908.80, -187500.02, -187500.02, 0.000, 0.000, 0.000, 15:21:46.061
189, 61852.39, 30398.42, -187500.02, -187500.02, -187500.02, -160719.61, -187500.02, -187500.02, 0.000, 0.000, 0.000, 15:21:46.061
190, 61805.36, 30352.55, -187500.02, -187500.02, -187500.02, -160631.80, -187500.02, -187500.02, 0.000, 0.000, 0.000, 15:21:46.061
191, 61964.02, 30539.95, -187500.02, -187500.02, -187500.02, -160843.97, -187500.02, -187500.02, 0.000, 0.000, 0.000, 15:21:46.062
192, 62031.88, 30609.69, -187500.02, -187500.02, -187500.02, -160991.66, -187500.02, -187500.02, 0.000, 0.000, 0.000, 15:21:46.062
193, 61945.31, 30497.26, -187500.02, -187500.02, -187500.02, -160906.69, -187500.02, -187500.02, 0.000, 0.000, 0.000, 15:21:46.062
194, 61840.55, 30366.54, -187500.02, -187500.02, -187500.02, -160720.28, -187500.02, -187500.02, 0.000, 0.000, 0.000, 15:21:46.062
195, 61802.91, 30351.77, -187500.02, -187500.02, -187500.02, -160604.25, -187500.02, -187500.02, 0.000, 0.000, 0.000, 15:21:46.062
196, 61976.22, 30573.41, -187500.02, -187500.02, -187500.02, -160836.69, -187500.02, -187500.02, 0.000, 0.000, 0.000, 15:21:46.062
197, 62047.28, 30621.78, -187500.02, -187500.02, -187500.02, -160998.69, -187500.02, -187500.02, 0.000, -0.092, 1.020, 15:21:46.062
198, 61957.27, 30515.47, -187500.02, -187500.02, -187500.02, -160907.75, -187500.02, -187500.02, 0.000, 0.000, 0.000, 15:21:46.063
199, 61860.17, 30398.84, -187500.02, -187500.02, -187500.02, -160697.77, -187500.02, -187500.02, 0.000, 0.000, 0.000, 15:21:46.063
200, 61815.69, 30368.60, -187500.02, -187500.02, -187500.02, -160590.33, -187500.02, -187500.02, 0.000, 0.000, 0.000, 15:21:46.063
201, 61980.85, 30570.70, -187500.02, -187500.02, -187500.02, -160829.72, -187500.02, -187500.02, 0.000, 0.000, 0.000, 15:21:46.063
202, 62048.24, 30622.18, -187500.02, -187500.02, -187500.02, -161029.61, -187500.02, -187500.02, 0.000, 0.000, 0.000, 15:21:46.063
203, 61957.27, 30510.00, -187500.02, -187500.02, -187500.02, -160946.03, -187500.02, -187500.02, 0.000, 0.000, 0.000, 15:21:46.063
204, 61852.95, 30386.28, -187500.02, -187500.02, -187500.02, -160732.55, -187500.02, -187500.02, 0.000, 0.000, 0.000, 15:21:46.063
205, 61809.79, 30352.21, -187500.02, -187500.02, -187500.02, -160641.52, -187500.02, -187500.02, 0.000, 0.000, 0.000, 15:21:46.063
206, 61970.05, 30533.46, -187500.02, -187500.02, -187500.02, -160870.44, -187500.02, -187500.02, 0.000, 0.000, 0.000, 15:21:46.064
207, 62038.85, 30600.32, -187500.02, -187500.02, -187500.02, -161041.00, -187500.02, -187500.02, 0.000, -0.098, 1.022, 15:21:46.064
208, 61951.90, 30509.19, -187500.02, -187500.02, -187500.02, -160944.09, -187500.02, -187500.02, 0.000, 0.000, 0.000, 15:21:46.064
209, 61848.97, 30389.10, -187500.02, -187500.02, -187500.02, -160731.70, -187500.02, -187500.02, 0.000, 0.000, 0.000, 15:21:46.064
210, 61804.63, 30358.63, -187500.02, -187500.02, -187500.02, -160653.78, -187500.02, -187500.02, 0.000, 0.000, 0.000, 15:21:46.064
211, 61964.51, 30546.21, -187500.02, -187500.02, -187500.02, -160894.42, -187500.02, -187500.02, 0.000, 0.000, 0.000, 15:21:46.064
212, 62030.20, 30597.03, -187500.02, -187500.02, -187500.02, -161059.53, -187500.02, -187500.02, 0.000, 0.000, 0.000, 15:21:46.065
213, 61929.93, 30493.66, -187500.02, -187500.02, -187500.02, -160983.56, -187500.02, -187500.02, 0.000, 0.000, 0.000, 15:21:46.065
214, 61817.86, 30362.54, -187500.02, -187500.02, -187500.02, -160823.34, -187500.02, -187500.02, 0.000, 0.000, 0.000, 15:21:46.065
215, 61765.22, 30316.88, -187500.02, -187500.02, -187500.02, -160695.53, -187500.02, -187500.02, 0.000, 0.000, 0.000, 15:21:46.065
216, 61919.65, 30509.13, -187500.02, -187500.02, -187500.02, -160911.13, -187500.02, -187500.02, 0.000, 0.000, 0.000, 15:21:46.065
217, 61973.23, 30545.67, -187500.02, -187500.02, -187500.02, -161082.56, -187500.02, -187500.02, 0.004, -0.098, 1.022, 15:21:46.065
218, 61869.16, 30431.21, -187500.02, -187500.02, -187500.02, -160981.91, -187500.02, -187500.02, 0.000, 0.000, 0.000, 15:21:46.065
219, 61760.89, 30310.66, -187500.02, -187500.02, -187500.02, -160754.61, -187500.02, -187500.02, 0.000, 0.000, 0.000, 15:21:46.065
220, 61698.19, 30260.77, -187500.02, -187500.02, -187500.02, -160654.88, -187500.02, -187500.02, 0.000, 0.000, 0.000, 15:21:46.066
221, 61813.59, 30424.57, -187500.02, -187500.02, -187500.02, -160868.83, -187500.02, -187500.02, 0.000, 0.000, 0.000, 15:21:46.066
222, 61851.05, 30451.32, -187500.02, -187500.02, -187500.02, -161062.55, -187500.02, -187500.02, 0.000, 0.000, 0.000, 15:21:46.066
223, 61724.47, 30305.23, -187500.02, -187500.02, -187500.02, -160984.77, -187500.02, -187500.02, 0.000, 0.000, 0.000, 15:21:46.066
224, 61595.44, 30164.66, -187500.02, -187500.02, -187500.02, -160740.42, -187500.02, -187500.02, 0.000, 0.000, 0.000, 15:21:46.525
225, 61534.20, 30111.76, -187500.02, -187500.02, -187500.02, -160641.52, -187500.02, -187500.02, 0.000, 0.000, 0.000, 15:21:46.525
226, 61677.42, 30286.97, -187500.02, -187500.02, -187500.02, -160877.25, -187500.02, -187500.02, 0.000, 0.000, 0.000, 15:21:46.525
227, 61727.25, 30323.56, -187500.02, -187500.02, -187500.02, -161063.05, -187500.02, -187500.02, 0.000, -0.094, 1.024, 15:21:46.526
228, 61639.38, 30217.05, -187500.02, -187500.02, -187500.02, -160958.80, -187500.02, -187500.02, 0.000, 0.000, 0.000, 15:21:46.526
229, 61536.38, 30089.63, -187500.02, -187500.02, -187500.02, -160730.06, -187500.02, -187500.02, 0.000, 0.000, 0.000, 15:21:46.526
230, 61486.65, 30049.57, -187500.02, -187500.02, -187500.02, -160646.70, -187500.02, -187500.02, 0.000, 0.000, 0.000, 15:21:46.526
231, 61645.24, 30245.75, -187500.02, -187500.02, -187500.02, -160890.83, -187500.02, -187500.02, 0.000, 0.000, 0.000, 15:21:46.526
232, 61713.63, 30303.18, -187500.02, -187500.02, -187500.02, -161087.52, -187500.02, -187500.02, 0.000, 0.000, 0.000, 15:21:46.526
233, 61630.60, 30205.01, -187500.02, -187500.02, -187500.02, -161022.13, -187500.02, -187500.02, 0.000, 0.000, 0.000, 15:21:46.526
234, 61541.48, 30091.19, -187500.02, -187500.02, -187500.02, -160838.20, -187500.02, -187500.02, 0.000, 0.000, 0.000, 15:21:46.526
235, 61499.88, 30051.76, -187500.02, -187500.02, -187500.02, -160709.50, -187500.02, -187500.02, 0.000, 0.000, 0.000, 15:21:46.526
236, 61683.30, 30256.17, -187500.02, -187500.02, -187500.02, -160921.67, -187500.02, -187500.02, 0.000, 0.000, 0.000, 15:21:46.527
237, 61760.01, 30332.77, -187500.02, -187500.02, -187500.02, -161070.78, -187500.02, -187500.02, -0.004, -0.092, 1.020, 15:21:46.527
238, 61678.27, 30239.16, -187500.02, -187500.02, -187500.02, -160988.20, -187500.02, -187500.02, 0.000, 0.000, 0.000, 15:21:46.527
239, 61591.97, 30140.68, -187500.02, -187500.02, -187500.02, -160795.78, -187500.02, -187500.02, 0.000, 0.000, 0.000, 15:21:46.527
240, 61564.28, 30124.07, -187500.02, -187500.02, -187500.02, -160720.45, -187500.02, -187500.02, 0.000, 0.000, 0.000, 15:21:46.527
241, 61730.11, 30316.86, -187500.02, -187500.02, -187500.02, -160932.58, -187500.02, -187500.02, 0.000, 0.000, 0.000, 15:21:46.527
242, 61806.24, 30383.20, -187500.02, -187500.02, -187500.02, -161096.30, -187500.02, -187500.02, 0.000, 0.000, 0.000, 15:21:46.527
243, 61736.99, 30293.72, -187500.02, -187500.02, -187500.02, -161011.05, -187500.02, -187500.02, 0.000, 0.000, 0.000, 15:21:46.527
244, 61652.41, 30191.08, -187500.02, -187500.02, -187500.02, -160795.89, -187500.02, -187500.02, 0.000, 0.000, 0.000, 15:21:46.527
245, 61616.74, 30163.52, -187500.02, -187500.02, -187500.02, -160688.42, -187500.02, -187500.02, 0.000, 0.000, 0.000, 15:21:46.527
246, 61790.46, 30367.91, -187500.02, -187500.02, -187500.02, -160925.05, -187500.02, -187500.02, 0.000, 0.000, 0.000, 15:21:46.527
247, 61870.48, 30437.29, -187500.02, -187500.02, -187500.02, -161073.02, -187500.02, -187500.02, -0.002, -0.090, 1.018, 15:21:46.527
248, 61791.51, 30339.01, -187500.02, -187500.02, -187500.02, -160952.48, -187500.02, -187500.02, 0.000, 0.000, 0.000, 15:21:46.528
249, 61713.90, 30232.01, -187500.02, -187500.02, -187500.02, -160762.84, -187500.02, -187500.02, 0.000, 0.000, 0.000, 15:21:46.528
250, 61678.05, 30219.51, -187500.02, -187500.02, -187500.02, -160655.28, -187500.02, -187500.02, 0.000, 0.000, 0.000, 15:21:46.528
251, 61842.22, 30419.72, -187500.02, -187500.02, -187500.02, -160860.94, -187500.02, -187500.02, 0.000, 0.000, 0.000, 15:21:46.528
252, 61926.55, 30488.18, -187500.02, -187500.02, -187500.02, -161002.56, -187500.02, -187500.02, 0.000, 0.000, 0.000, 15:21:46.528
253, 61849.58, 30397.28, -187500.02, -187500.02, -187500.02, -160893.66, -187500.02, -187500.02, 0.000, 0.000, 0.000, 15:21:46.528
254, 61765.04, 30297.43, -187500.02, -187500.02, -187500.02, -160723.97, -187500.02, -187500.02, 0.000, 0.000, 0.000, 15:21:46.528
255, 61724.63, 30263.61, -187500.02, -187500.02, -187500.02, -160637.83, -187500.02, -187500.02, 0.000, 0.000, 0.000, 15:21:46.528
0, 61892.63, 30468.91, -187500.02, -187500.02, -187500.02, -160867.69, -187500.02, -187500.02, 0.000, 0.000, 0.000, 15:21:46.529
1, 61972.58, 30536.64, -187500.02, -187500.02, -187500.02, -161026.52, -187500.02, -187500.02, 0.000, -0.090, 1.024, 15:21:46.529
2, 61899.91, 30439.37, -187500.02, -187500.02, -187500.02, -160950.86, -187500.02, -187500.02, 0.000, 0.000, 0.000, 15:21:46.529
3, 61795.98, 30320.23, -187500.02, -187500.02, -187500.02, -160733.94, -187500.02, -187500.02, 0.000, 0.000, 0.000, 15:21:46.529
4, 61755.23, 30308.21, -187500.02, -187500.02, -187500.02, -160609.38, -187500.02, -187500.02, 0.000, 0.000, 0.000, 15:21:46.529
5, 61930.36, 30515.09, -187500.02, -187500.02, -187500.02, -160845.73, -187500.02, -187500.02, 0.000, 0.000, 0.000, 15:21:46.529
6, 62009.91, 30580.22, -187500.02, -187500.02, -187500.02, -161067.09, -187500.02, -187500.02, 0.000, 0.000, 0.000, 15:21:46.529
7, 61921.50, 30473.50, -187500.02, -187500.02, -187500.02, -161003.52, -187500.02, -187500.02, 0.000, 0.000, 0.000, 15:21:46.529
8, 61825.39, 30365.92, -187500.02, -187500.02, -187500.02, -160818.38, -187500.02, -187500.02, 0.000, 0.000, 0.000, 15:21:46.530
9, 61777.80, 30326.55, -187500.02, -187500.02, -187500.02, -160708.28, -187500.02, -187500.02, 0.000, 0.000, 0.000, 15:21:46.530
10, 61942.89, 30517.24, -187500.02, -187500.02, -187500.02, -160890.28, -187500.02, -187500.02, 0.000, 0.000, 0.000, 15:21:46.530
11, 62025.86, 30595.36, -187500.02, -187500.02, -187500.02, -161058.70, -187500.02, -187500.02, -0.002, -0.084, 1.020, 15:21:46.530
12, 61940.21, 30493.43, -187500.02, -187500.02, -187500.02, -160971.25, -187500.02, -187500.02, 0.000, 0.000, 0.000, 15:21:46.530
13, 61845.31, 30380.69, -187500.02, -187500.02, -187500.02, -160750.59, -187500.02, -187500.02, 0.000, 0.000, 0.000, 15:21:46.530
14, 61800.05, 30342.92, -187500.02, -187500.02, -187500.02, -160655.59, -187500.02, -187500.02, 0.000, 0.000, 0.000, 15:21:46.530
15, 61962.45, 30543.68, -187500.02, -187500.02, -187500.02, -160903.14, -187500.02, -187500.02, 0.000, 0.000, 0.000, 15:21:46.530
16, 62043.16, 30605.06, -187500.02, -187500.02, -187500.02, -161065.17, -187500.02, -187500.02, 0.000, 0.000, 0.000, 15:21:46.531
17, 61959.44, 30495.62, -187500.02, -187500.02, -187500.02, -160971.38, -187500.02, -187500.02, 0.000, 0.000, 0.000, 15:21:46.531
18, 61863.46, 30395.78, -187500.02, -187500.02, -187500.02, -160750.03, -187500.02, -187500.02, 0.000, 0.000, 0.000, 15:21:46.531
19, 61813.55, 30358.09, -187500.02, -187500.02, -187500.02, -160651.58, -187500.02, -187500.02, 0.000, 0.000, 0.000, 15:21:46.531
20, 61968.55, 30549.38, -187500.02, -187500.02, -187500.02, -160861.94, -187500.02, -187500.02, 0.000, 0.000, 0.000, 15:21:46.531
21, 62042.61, 30611.50, -187500.02, -187500.02, -187500.02, -161029.36, -187500.02, -187500.02, -0.004, -0.088, 1.024, 15:21:46.531
22, 61957.85, 30504.52, -187500.02, -187500.02, -187500.02, -160948.11, -187500.02, -187500.02, 0.000, 0.000, 0.000, 15:21:46.531
23, 61860.48, 30402.82, -187500.02, -187500.02, -187500.02, -160748.75, -187500.02, -187500.02, 0.000, 0.000, 0.000, 15:21:46.531
24, 61810.86, 30358.65, -187500.02, -187500.02, -187500.02, -160653.98, -187500.02, -187500.02, 0.000, 0.000, 0.000, 15:21:46.532
25, 61970.81, 30546.63, -187500.02, -187500.02, -187500.02, -160878.34, -187500.02, -187500.02, 0.000, 0.000, 0.000, 15:21:46.532
26, 62054.88, 30615.32, -187500.02, -187500.02, -187500.02, -161056.98, -187500.02, -187500.02, 0.000, 0.000, 0.000, 15:21:46.532
27, 61969.72, 30519.47, -187500.02, -187500.02, -187500.02, -160956.14, -187500.02, -187500.02, 0.000, 0.000, 0.000, 15:21:46.532
28, 61863.64, 30400.23, -187500.02, -187500.02, -187500.02, -160753.05, -187500.02, -187500.02, 0.000, 0.000, 0.000, 15:21:46.532
29, 61821.70, 30378.57, -187500.02, -187500.02, -187500.02, -160679.33, -187500.02, -187500.02, 0.000, 0.000, 0.000, 15:21:46.532
30, 61979.44, 30560.13, -187500.02, -187500.02, -187500.02, -160883.97, -187500.02, -187500.02, -0.004, -0.090, 1.024, 15:21:46.532
31, 62052.00, 30617.73, -187500.02, -187500.02, -187500.02, -160987.72, -187500.02, -187500.02, 0.000, 0.000, 0.000, 15:21:46.532
32, 61971.77, 30516.81, -187500.02, -187500.02, -187500.02, -160913.17, -187500.02, -187500.02, 0.000, 0.000, 0.000, 15:21:46.533
33, 61874.41, 30415.92, -187500.02, -187500.02, -187500.02, -160715.88, -187500.02, -187500.02, 0.000, 0.000, 0.000, 15:21:46.533
34, 61823.87, 30370.97, -187500.02, -187500.02, -187500.02, -160588.66, -187500.02, -187500.02, 0.000, 0.000, 0.000, 15:21:46.533
35, 61989.07, 30571.51, -187500.02, -187500.02, -187500.02, -160858.02, -187500.02, -187500.02, 0.000, 0.000, 0.000, 15:21:46.533
36, 62060.06, 30631.23, -187500.02, -187500.02, -187500.02, -161046.13, -187500.02, -187500.02, 0.000, 0.000, 0.000, 15:21:46.533
37, 61975.46, 30534.61, -187500.02, -187500.02, -187500.02, -160997.86, -187500.02, -187500.02, 0.000, 0.000, 0.000, 15:21:46.533
38, 61876.31, 30413.03, -187500.02, -187500.02, -187500.02, -160816.84, -187500.02, -187500.02, 0.000, 0.000, 0.000, 15:21:46.533
39, 61823.00, 30377.61, -187500.02, -187500.02, -187500.02, -160683.80, -187500.02, -187500.02, 0.000, 0.000, 0.000, 15:21:46.533
40, 61978.12, 30550.61, -187500.02, -187500.02, -187500.02, -160894.09, -187500.02, -187500.02, 0.002, -0.094, 1.024, 15:21:46.534
41, 62054.01, 30630.63, -187500.02, -187500.02, -187500.02, -161049.77, -187500.02, -187500.02, 0.000, 0.000, 0.000, 15:21:46.534
42, 61963.55, 30518.02, -187500.02, -187500.02, -187500.02, -160993.58, -187500.02, -187500.02, 0.000, 0.000, 0.000, 15:21:46.534
43, 61865.02, 30403.71, -187500.02, -187500.02, -187500.02, -160808.44, -187500.02, -187500.02, 0.000, 0.000, 0.000, 15:21:46.534
44, 61816.56, 30366.83, -187500.02, -187500.02, -187500.02, -160732.95, -187500.02, -187500.02, 0.000, 0.000, 0.000, 15:21:46.534
45, 61974.12, 30562.93, -187500.02, -187500.02, -187500.02, -160913.20, -187500.02, -187500.02, 0.000, 0.000, 0.000, 15:21:46.534
46, 62049.85, 30624.21, -187500.02, -187500.02, -187500.02, -161062.00, -187500.02, -187500.02, 0.000, 0.000, 0.000, 15:21:46.534
47, 61961.29, 30518.69, -187500.02, -187500.02, -187500.02, -160971.31, -187500.02, -187500.02, 0.000, 0.000, 0.000, 15:21:46.534
48, 61866.03, 30405.57, -187500.02, -187500.02, -187500.02, -160758.95, -187500.02, -187500.02, 0.000, 0.000, 0.000, 15:21:46.535
49, 61818.17, 30367.68, -187500.02, -187500.02, -187500.02, -160652.44, -187500.02, -187500.02, 0.000, 0.000, 0.000, 15:21:46.535
50, 61974.46, 30555.64, -187500.02, -187500.02, -187500.02, -160873.86, -187500.02, -187500.02, -0.002, -0.096, 1.020, 15:21:46.535
51, 62055.79, 30624.68, -187500.02, -187500.02, -187500.02, -161048.31, -187500.02, -187500.02, 0.000, 0.000, 0.000, 15:21:46.535
52, 61969.98, 30516.63, -187500.02, -187500.02, -187500.02, -160986.28, -187500.02, -187500.02, 0.000, 0.000, 0.000, 15:21:46.535
53, 61874.79, 30409.17, -187500.02, -187500.02, -187500.02, -160808.45, -187500.02, -187500.02, 0.000, 0.000, 0.000, 15:21:46.535
54, 61824.50, 30362.50, -187500.02, -187500.02, -187500.02, -160657.67, -187500.02, -187500.02, 0.000, 0.000, 0.000, 15:21:46.535
55, 61983.20, 30554.59, -187500.02, -187500.02, -187500.02, -160881.75, -187500.02, -187500.02, 0.000, 0.000, 0.000, 15:21:46.535
56, 62058.14, 30621.58, -187500.02, -187500.02, -187500.02, -161065.06, -187500.02, -187500.02, 0.000, 0.000, 0.000, 15:21:46.536
57, 61969.56, 30517.91, -187500.02, -187500.02, -187500.02, -160978.64, -187500.02, -187500.02, 0.000, 0.000, 0.000, 15:21:46.536
58, 61870.27, 30405.86, -187500.02, -187500.02, -187500.02, -160763.03, -187500.02, -187500.02, 0.000, 0.000, 0.000, 15:21:46.536
59, 61816.14, 30359.37, -187500.02, -187500.02, -187500.02, -160647.22, -187500.02, -187500.02, 0.000, 0.000, 0.000, 15:21:46.536
60, 61977.86, 30555.53, -187500.02, -187500.02, -187500.02, -160879.84, -187500.02, -187500.02, 0.000, -0.098, 1.024, 15:21:46.536
61, 62055.95, 30615.21, -187500.02, -187500.02, -187500.02, -161053.88, -187500.02, -187500.02, 0.000, 0.000, 0.000, 15:21:46.536
62, 61968.82, 30513.79, -187500.02, -187500.02, -187500.02, -160957.59, -187500.02, -187500.02, 0.000, 0.000, 0.000, 15:21:46.536
63, 61867.52, 30401.57, -187500.02, -187500.02, -187500.02, -160741.83, -187500.02, -187500.02, 0.000, 0.000, 0.000, 15:21:46.536
64, 61823.78, 30361.16, -187500.02, -187500.02, -187500.02, -160619.09, -187500.02, -187500.02, 0.000, 0.000, 0.000, 15:21:46.537
65, 61990.84, 30564.00, -187500.02, -187500.02, -187500.02, -160869.92, -187500.02, -187500.02, 0.000, 0.000, 0.000, 15:21:46.537
66, 62069.47, 30629.02, -187500.02, -187500.02, -187500.02, -161054.81, -187500.02, -187500.02, 0.000, 0.000, 0.000, 15:21:46.537
67, 61979.06, 30523.38, -187500.02, -187500.02, -187500.02, -161011.25, -187500.02, -187500.02, 0.000, 0.000, 0.000, 15:21:46.537
68, 61876.80, 30407.78, -187500.02, -187500.02, -187500.02, -160780.25, -187500.02, -187500.02, 0.000, 0.000, 0.000, 15:21:46.537
69, 61824.72, 30362.99, -187500.02, -187500.02, -187500.02, -160671.39, -187500.02, -187500.02, 0.000, 0.000, 0.000, 15:21:46.537
70, 61986.23, 30562.43, -187500.02, -187500.02, -187500.02, -160899.89, -187500.02, -187500.02, 0.000, -0.090, 1.028, 15:21:46.537
71, 62069.94, 30629.55, -187500.02, -187500.02, -187500.02, -161092.48, -187500.02, -187500.02, 0.000, 0.000, 0.000, 15:21:46.538
72, 61983.20, 30523.45, -187500.02, -187500.02, -187500.02, -161007.61, -187500.02, -187500.02, 0.000, 0.000, 0.000, 15:21:46.538
73, 61882.32, 30406.87, -187500.02, -187500.02, -187500.02, -160813.31, -187500.02, -187500.02, 0.000, 0.000, 0.000, 15:21:46.538
74, 61822.06, 30361.92, -187500.02, -187500.02, -187500.02, -160698.47, -187500.02, -187500.02, 0.000, 0.000, 0.000, 15:21:46.538
75, 61977.96, 30553.07, -187500.02, -187500.02, -187500.02, -160903.05, -187500.02, -187500.02, 0.000, 0.000, 0.000, 15:21:46.538
76, 62055.23, 30620.91, -187500.02, -187500.02, -187500.02, -161085.23, -187500.02, -187500.02, 0.000, 0.000, 0.000, 15:21:46.538
77, 61965.49, 30510.38, -187500.02, -187500.02, -187500.02, -160984.23, -187500.02, -187500.02, 0.000, 0.000, 0.000, 15:21:46.538
78, 61866.96, 30399.67, -187500.02, -187500.02, -187500.02, -160820.14, -187500.02, -187500.02, 0.000, 0.000, 0.000, 15:21:46.538
79, 61813.05, 30356.19, -187500.02, -187500.02, -187500.02, -160671.31, -187500.02, -187500.02, 0.000, 0.000, 0.000, 15:21:46.539
80, 61976.42, 30553.65, -187500.02, -187500.02, -187500.02, -160893.34, -187500.02, -187500.02, 0.002, -0.090, 1.022, 15:21:46.539
81, 62057.40, 30624.50, -187500.02, -187500.02, -187500.02, -161100.08, -187500.02, -187500.02, 0.000, 0.000, 0.000, 15:21:46.539
82, 61973.52, 30523.50, -187500.02, -187500.02, -187500.02, -161014.50, -187500.02, -187500.02, 0.000, 0.000, 0.000, 15:21:46.539
83, 61875.50, 30410.49, -187500.02, -187500.02, -187500.02, -160821.05, -187500.02, -187500.02, 0.000, 0.000, 0.000, 15:21:46.539
84, 61821.64, 30360.26, -187500.02, -187500.02, -187500.02, -160682.61, -187500.02, -187500.02, 0.000, 0.000, 0.000, 15:21:46.539
85, 61976.94, 30547.17, -187500.02, -187500.02, -187500.02, -160889.95, -187500.02, -187500.02, 0.000, 0.000, 0.000, 15:21:46.539
86, 62055.70, 30627.88, -187500.02, -187500.02, -187500.02, -161013.17, -187500.02, -187500.02, 0.000, 0.000, 0.000, 15:21:46.539
87, 61970.84, 30520.03, -187500.02, -187500.02, -187500.02, -160916.50, -187500.02, -187500.02, 0.000, 0.000, 0.000, 15:21:46.539
88, 61876.93, 30410.06, -187500.02, -187500.02, -187500.02, -160752.89, -187500.02, -187500.02, 0.000, 0.000, 0.000, 15:21:46.540
89, 61826.00, 30364.29, -187500.02, -187500.02, -187500.02, -160669.39, -187500.02, -187500.02, 0.000, 0.000, 0.000, 15:21:47.007
90, 61986.70, 30563.53, -187500.02, -187500.02, -187500.02, -160929.88, -187500.02, -187500.02, 0.000, -0.092, 1.024, 15:21:47.007
91, 62059.48, 30632.55, -187500.02, -187500.02, -187500.02, -161095.08, -187500.02, -187500.02, 0.000, 0.000, 0.000, 15:21:47.007
92, 61969.67, 30528.17, -187500.02, -187500.02, -187500.02, -161010.11, -187500.02, -187500.02, 0.000, 0.000, 0.000, 15:21:47.007
93, 61870.34, 30408.56, -187500.02, -187500.02, -187500.02, -160799.47, -187500.02, -187500.02, 0.000, 0.000, 0.000, 15:21:47.008
94, 61820.41, 30365.65, -187500.02, -187500.02, -187500.02, -160658.02, -187500.02, -187500.02, 0.000, 0.000, 0.000, 15:21:47.008
95, 61986.17, 30562.72, -187500.02, -187500.02, -187500.02, -160898.83, -187500.02, -187500.02, 0.000, 0.000, 0.000, 15:21:47.008
96, 62074.23, 30637.96, -187500.02, -187500.02, -187500.02, -161146.59, -187500.02, -187500.02, 0.000, 0.000, 0.000, 15:21:47.008
97, 61984.05, 30527.86, -187500.02, -187500.02, -187500.02, -161067.47, -187500.02, -187500.02, 0.000, 0.000, 0.000, 15:21:47.008
98, 61884.29, 30420.01, -187500.02, -187500.02, -187500.02, -160866.58, -187500.02, -187500.02, 0.000, 0.000, 0.000, 15:21:47.008
99, 61827.47, 30373.47, -187500.02, -187500.02, -187500.02, -160736.63, -187500.02, -187500.02, 0.000, 0.000, 0.000, 15:21:47.008
100, 61987.44, 30570.37, -187500.02, -187500.02, -187500.02, -160925.31, -187500.02, -187500.02, 0.000, -0.092, 1.018, 15:21:47.008
101, 62070.70, 30644.08, -187500.02, -187500.02, -187500.02, -161112.39, -187500.02, -187500.02, 0.000, 0.000, 0.000, 15:21:47.009
102, 61987.26, 30538.25, -187500.02, -187500.02, -187500.02, -161062.63, -187500.02, -187500.02, 0.000, 0.000, 0.000, 15:21:47.009
103, 61882.39, 30421.60, -187500.02, -187500.02, -187500.02, -160855.94, -187500.02, -187500.02, 0.000, 0.000, 0.000, 15:21:47.009
104, 61827.34, 30374.72, -187500.02, -187500.02, -187500.02, -160722.92, -187500.02, -187500.02, 0.000, 0.000, 0.000, 15:21:47.009
105, 61985.52, 30570.32, -187500.02, -187500.02, -187500.02, -160945.36, -187500.02, -187500.02, 0.000, 0.000, 0.000, 15:21:47.009
106, 62058.81, 30628.01, -187500.02, -187500.02, -187500.02, -161128.22, -187500.02, -187500.02, 0.000, 0.000, 0.000, 15:21:47.009
107, 61979.80, 30532.84, -187500.02, -187500.02, -187500.02, -161083.23, -187500.02, -187500.02, 0.000, 0.000, 0.000, 15:21:47.009
108, 61881.20, 30422.42, -187500.02, -187500.02, -187500.02, -160903.44, -187500.02, -187500.02, 0.000, 0.000, 0.000, 15:21:47.009
109, 61816.83, 30365.65, -187500.02, -187500.02, -187500.02, -160741.72, -187500.02, -187500.02, 0.000, 0.000, 0.000, 15:21:47.010
110, 61977.14, 30557.05, -187500.02, -187500.02, -187500.02, -160920.89, -187500.02, -187500.02, 0.008, -0.090, 1.024, 15:21:47.010
111, 62065.25, 30635.50, -187500.02, -187500.02, -187500.02, -161116.31, -187500.02, -187500.02, 0.000, 0.000, 0.000, 15:21:47.010
112, 61978.66, 30528.08, -187500.02, -187500.02, -187500.02, -161045.70, -187500.02, -187500.02, 0.000, 0.000, 0.000, 15:21:47.010
113, 61879.35, 30416.45, -187500.02, -187500.02, -187500.02, -160813.17, -187500.02, -187500.02, 0.000, 0.000, 0.000, 15:21:47.010
114, 61825.46, 30374.28, -187500.02, -187500.02, -187500.02, -160701.13, -187500.02, -187500.02, 0.000, 0.000, 0.000, 15:21:47.010
115, 61980.47, 30564.22, -187500.02, -187500.02, -187500.02, -160927.33, -187500.02, -187500.02, 0.000, 0.000, 0.000, 15:21:47.010
116, 62061.56, 30631.03, -187500.02, -187500.02, -187500.02, -161110.16, -187500.02, -187500.02, 0.000, 0.000, 0.000, 15:21:47.010
117, 61979.91, 30529.53, -187500.02, -187500.02, -187500.02, -161028.91, -187500.02, -187500.02, 0.000, 0.000, 0.000, 15:21:47.011
118, 61884.56, 30420.61, -187500.02, -187500.02, -187500.02, -160832.16, -187500.02, -187500.02, 0.000, 0.000, 0.000, 15:21:47.011
119, 61832.93, 30377.41, -187500.02, -187500.02, -187500.02, -160727.13, -187500.02, -187500.02, 0.000, 0.000, 0.000, 15:21:47.011
120, 61993.99, 30568.78, -187500.02, -187500.02, -187500.02, -160966.63, -187500.02, -187500.02, 0.004, -0.088, 1.020, 15:21:47.011
121, 62081.16, 30641.07, -187500.02, -187500.02, -187500.02, -161152.47, -187500.02, -187500.02, 0.000, 0.000, 0.000, 15:21:47.011
122, 61996.76, 30539.77, -187500.02, -187500.02, -187500.02, -161090.38, -187500.02, -187500.02, 0.000, 0.000, 0.000, 15:21:47.011
123, 61895.06, 30425.08, -187500.02, -187500.02, -187500.02, -160884.36, -187500.02, -187500.02, 0.000, 0.000, 0.000, 15:21:47.011
124, 61836.90, 30374.77, -187500.02, -187500.02, -187500.02, -160760.72, -187500.02, -187500.02, 0.000, 0.000, 0.000, 15:21:47.011
125, 61987.18, 30561.00, -187500.02, -187500.02, -187500.02, -160995.63, -187500.02, -187500.02, 0.000, 0.000, 0.000, 15:21:47.011
126, 62066.93, 30626.22, -187500.02, -187500.02, -187500.02, -161166.17, -187500.02, -187500.02, 0.000, 0.000, 0.000, 15:21:47.012
127, 61977.72, 30523.83, -187500.02, -187500.02, -187500.02, -161066.64, -187500.02, -187500.02, 0.000, 0.000, 0.000, 15:21:47.012
128, 61877.58, 30415.09, -187500.02, -187500.02, -187500.02, -160861.34, -187500.02, -187500.02, 0.000, 0.000, 0.000, 15:21:47.012
129, 61819.22, 30366.70, -187500.02, -187500.02, -187500.02, -160727.70, -187500.02, -187500.02, 0.000, 0.000, 0.000, 15:21:47.012
130, 61976.65, 30556.04, -187500.02, -187500.02, -187500.02, -160952.11, -187500.02, -187500.02, -0.002, -0.088, 1.020, 15:21:47.012
131, 62061.92, 30622.18, -187500.02, -187500.02, -187500.02, -161131.80, -187500.02, -187500.02, 0.000, 0.000, 0.000, 15:21:47.012
132, 61982.41, 30532.64, -187500.02, -187500.02, -187500.02, -161065.17, -187500.02, -187500.02, 0.000, 0.000, 0.000, 15:21:47.013
133, 61886.48, 30421.86, -187500.02, -187500.02, -187500.02, -160880.16, -187500.02, -187500.02, 0.000, 0.000, 0.000, 15:21:47.013
134, 61826.18, 30371.28, -187500.02, -187500.02, -187500.02, -160775.33, -187500.02, -187500.02, 0.000, 0.000, 0.000, 15:21:47.013
135, 61983.48, 30563.55, -187500.02, -187500.02, -187500.02, -160979.69, -187500.02, -187500.02, 0.000, 0.000, 0.000, 15:21:47.013
136, 62068.91, 30639.23, -187500.02, -187500.02, -187500.02, -161128.52, -187500.02, -187500.02, 0.000, 0.000, 0.000, 15:21:47.013
137, 61988.56, 30540.55, -187500.02, -187500.02, -187500.02, -161059.67, -187500.02, -187500.02, 0.000, 0.000, 0.000, 15:21:47.014
138, 61890.50, 30425.21, -187500.02, -187500.02, -187500.02, -160869.55, -187500.02, -187500.02, 0.000, 0.000, 0.000, 15:21:47.014
139, 61826.89, 30375.04, -187500.02, -187500.02, -187500.02, -160748.84, -187500.02, -187500.02, 0.000, 0.000, 0.000, 15:21:47.014
140, 61986.84, 30574.53, -187500.02, -187500.02, -187500.02, -160993.55, -187500.02, -187500.02, 0.002, -0.090, 1.018, 15:21:47.014
141, 62065.74, 30640.84, -187500.02, -187500.02, -187500.02, -161180.03, -187500.02, -187500.02, 0.000, 0.000, 0.000, 15:21:47.014
142, 61978.86, 30532.24, -187500.02, -187500.02, -187500.02, -161070.47, -187500.02, -187500.02, 0.000, 0.000, 0.000, 15:21:47.014
143, 61879.28, 30419.96, -187500.02, -187500.02, -187500.02, -160877.55, -187500.02, -187500.02, 0.000, 0.000, 0.000, 15:21:47.015
144, 61820.59, 30368.02, -187500.02, -187500.02, -187500.02, -160756.42, -187500.02, -187500.02, 0.000, 0.000, 0.000, 15:21:47.015
145, 61979.04, 30558.28, -187500.02, -187500.02, -187500.02, -161000.53, -187500.02, -187500.02, 0.000, 0.000, 0.000, 15:21:47.015
146, 62059.91, 30627.52, -187500.02, -187500.02, -187500.02, -161174.05, -187500.02, -187500.02, 0.000, 0.000, 0.000, 15:21:47.015
147, 61974.81, 30521.28, -187500.02, -187500.02, -187500.02, -161083.86, -187500.02, -187500.02, 0.000, 0.000, 0.000, 15:21:47.015
148, 61878.43, 30415.22, -187500.02, -187500.02, -187500.02, -160876.42, -187500.02, -187500.02, 0.000, 0.000, 0.000, 15:21:47.015
149, 61822.15, 30359.39, -187500.02, -187500.02, -187500.02, -160750.48, -187500.02, -187500.02, 0.000, 0.000, 0.000, 15:21:47.016
150, 61985.03, 30556.94, -187500.02, -187500.02, -187500.02, -160973.34, -187500.02, -187500.02, 0.006, -0.088, 1.028, 15:21:47.016
151, 62073.88, 30636.44, -187500.02, -187500.02, -187500.02, -161180.45, -187500.02, -187500.02, 0.000, 0.000, 0.000, 15:21:47.016
152, 61988.83, 30534.31, -187500.02, -187500.02, -187500.02, -161095.00, -187500.02, -187500.02, 0.000, 0.000, 0.000, 15:21:47.016
153, 61894.19, 30428.19, -187500.02, -187500.02, -187500.02, -160923.48, -187500.02, -187500.02, 0.000, 0.000, 0.000, 15:21:47.016
154, 61833.66, 30375.44, -187500.02, -187500.02, -187500.02, -160806.06, -187500.02, -187500.02, 0.000, 0.000, 0.000, 15:21:47.016
155, 61983.57, 30564.78, -187500.02, -187500.02, -187500.02, -160993.47, -187500.02, -187500.02, 0.000, 0.000, 0.000, 15:21:47.016
156, 62069.36, 30643.08, -187500.02, -187500.02, -187500.02, -161195.56, -187500.02, -187500.02, 0.000, 0.000, 0.000, 15:21:47.017
157, 61981.47, 30534.78, -187500.02, -187500.02, -187500.02, -161102.41, -187500.02, -187500.02, 0.000, 0.000, 0.000, 15:21:47.017
158, 61884.63, 30429.91, -187500.02, -187500.02, -187500.02, -160914.52, -187500.02, -187500.02, 0.000, 0.000, 0.000, 15:21:47.017
159, 61824.66, 30370.99, -187500.02, -187500.02, -187500.02, -160812.17, -187500.02, -187500.02, 0.004, -0.090, 1.028, 15:21:47.017
160, 61976.65, 30559.93, -187500.02, -187500.02, -187500.02, -161036.00, -187500.02, -187500.02, 0.000, 0.000, 0.000, 15:21:47.017
161, 62057.58, 30628.95, -187500.02, -187500.02, -187500.02, -161176.86, -187500.02, -187500.02, 0.000, 0.000, 0.000, 15:21:47.018
162, 61975.46, 30525.73, -187500.02, -187500.02, -187500.02, -161089.31, -187500.02, -187500.02, 0.000, 0.000, 0.000, 15:21:47.018
163, 61881.56, 30418.67, -187500.02, -187500.02, -187500.02, -160915.14, -187500.02, -187500.02, 0.000, 0.000, 0.000, 15:21:47.018
164, 61819.85, 30363.95, -187500.02, -187500.02, -187500.02, -160798.31, -187500.02, -187500.02, 0.000, 0.000, 0.000, 15:21:47.018
165, 61967.59, 30554.16, -187500.02, -187500.02, -187500.02, -161025.78, -187500.02, -187500.02, 0.000, 0.000, 0.000, 15:21:47.018
166, 62049.47, 30629.40, -187500.02, -187500.02, -187500.02, -161180.56, -187500.02, -187500.02, 0.000, 0.000, 0.000, 15:21:47.018
167, 61970.72, 30532.53, -187500.02, -187500.02, -187500.02, -161129.45, -187500.02, -187500.02, 0.000, 0.000, 0.000, 15:21:47.019
168, 61870.61, 30416.28, -187500.02, -187500.02, -187500.02, -160919.52, -187500.02, -187500.02, 0.000, 0.000, 0.000, 15:21:47.019
169, 61812.16, 30363.68, -187500.02, -187500.02, -187500.02, -160761.08, -187500.02, -187500.02, -0.002, -0.090, 1.024, 15:21:47.019
170, 61964.84, 30554.95, -187500.02, -187500.02, -187500.02, -160974.59, -187500.02, -187500.02, 0.000, 0.000, 0.000, 15:21:47.019
171, 62051.21, 30631.59, -187500.02, -187500.02, -187500.02, -161134.38, -187500.02, -187500.02, 0.000, 0.000, 0.000, 15:21:47.019
172, 61972.54, 30529.49, -187500.02, -187500.02, -187500.02, -161082.05, -187500.02, -187500.02, 0.000, 0.000, 0.000, 15:21:47.019
173, 61873.74, 30415.25, -187500.02, -187500.02, -187500.02, -160916.78, -187500.02, -187500.02, 0.000, 0.000, 0.000, 15:21:47.020
174, 61807.73, 30359.21, -187500.02, -187500.02, -187500.02, -160777.52, -187500.02, -187500.02, 0.000, 0.000, 0.000, 15:21:47.020
175, 61954.56, 30542.83, -187500.02, -187500.02, -187500.02, -160968.77, -187500.02, -187500.02, 0.000, 0.000, 0.000, 15:21:47.020
176, 62046.74, 30619.56, -187500.02, -187500.02, -187500.02, -161152.70, -187500.02, -187500.02, 0.000, 0.000, 0.000, 15:21:47.020
177, 61969.00, 30520.19, -187500.02, -187500.02, -187500.02, -161101.38, -187500.02, -187500.02, 0.000, 0.000, 0.000, 15:21:47.020
178, 61871.06, 30410.22, -187500.02, -187500.02, -187500.02, -160865.05, -187500.02, -187500.02, 0.000, 0.000, 0.000, 15:21:47.021
179, 61813.37, 30359.86, -187500.02, -187500.02, -187500.02, -160716.66, -187500.02, -187500.02, 0.006, -0.090, 1.030, 15:21:47.021
180, 61974.46, 30561.88, -187500.02, -187500.02, -187500.02, -160961.67, -187500.02, -187500.02, 0.000, 0.000, 0.000, 15:21:47.021
181, 62074.03, 30645.02, -187500.02, -187500.02, -187500.02, -161192.19, -187500.02, -187500.02, 0.000, 0.000, 0.000, 15:21:47.021
182, 61984.43, 30539.59, -187500.02, -187500.02, -187500.02, -161112.86, -187500.02, -187500.02, 0.000, 0.000, 0.000, 15:21:47.021
183, 61875.75, 30423.65, -187500.02, -187500.02, -187500.02, -160923.80, -187500.02, -187500.02, 0.000, 0.000, 0.000, 15:21:47.021
184, 61809.68, 30359.72, -187500.02, -187500.02, -187500.02, -160778.47, -187500.02, -187500.02, 0.000, 0.000, 0.000, 15:21:47.022
185, 61964.20, 30548.33, -187500.02, -187500.02, -187500.02, -160981.70, -187500.02, -187500.02, 0.000, 0.000, 0.000, 15:21:47.022
186, 62050.25, 30626.65, -187500.02, -187500.02, -187500.02, -161156.88, -187500.02, -187500.02, 0.000, 0.000, 0.000, 15:21:47.022
187, 61973.96, 30527.23, -187500.02, -187500.02, -187500.02, -161106.77, -187500.02, -187500.02, 0.000, 0.000, 0.000, 15:21:47.022
188, 61880.07, 30414.29, -187500.02, -187500.02, -187500.02, -160929.73, -187500.02, -187500.02, 0.000, 0.000, 0.000, 15:21:47.022
189, 61812.05, 30355.57, -187500.02, -187500.02, -187500.02, -160805.47, -187500.02, -187500.02, 0.004, -0.092, 1.028, 15:21:47.022
190, 61956.82, 30539.95, -187500.02, -187500.02, -187500.02, -160954.75, -187500.02, -187500.02, 0.000, 0.000, 0.000, 15:21:47.022
191, 62046.63, 30622.58, -187500.02, -187500.02, -187500.02, -161118.86, -187500.02, -187500.02, 0.000, 0.000, 0.000, 15:21:47.023
192, 61961.52, 30519.12, -187500.02, -187500.02, -187500.02, -161029.89, -187500.02, -187500.02, 0.000, 0.000, 0.000, 15:21:47.023
193, 61862.47, 30406.73, -187500.02, -187500.02, -187500.02, -160868.42, -187500.02, -187500.02, 0.000, 0.000, 0.000, 15:21:47.023
194, 61805.16, 30353.38, -187500.02, -187500.02, -187500.02, -160776.06, -187500.02, -187500.02, 0.000, 0.000, 0.000, 15:21:47.023
195, 61954.29, 30539.61, -187500.02, -187500.02, -187500.02, -160983.34, -187500.02, -187500.02, 0.000, 0.000, 0.000, 15:21:47.023
196, 62040.98, 30619.90, -187500.02, -187500.02, -187500.02, -161152.39, -187500.02, -187500.02, 0.000, 0.000, 0.000, 15:21:47.023
197, 61959.50, 30518.91, -187500.02, -187500.02, -187500.02, -161124.13, -187500.02, -187500.02, 0.000, 0.000, 0.000, 15:21:47.023
198, 61860.06, 30404.59, -187500.02, -187500.02, -187500.02, -160907.09, -187500.02, -187500.02, 0.000, 0.000, 0.000, 15:21:47.023
199, 61799.80, 30348.33, -187500.02, -187500.02, -187500.02, -160767.36, -187500.02, -187500.02, 0.000, -0.090, 1.030, 15:21:47.024
200, 61958.32, 30544.11, -187500.02, -187500.02, -187500.02, -160969.70, -187500.02, -187500.02, 0.000, 0.000, 0.000, 15:21:47.024
201, 62048.39, 30625.55, -187500.02, -187500.02, -187500.02, -161213.27, -187500.02, -187500.02, 0.000, 0.000, 0.000, 15:21:47.024
202, 61962.07, 30518.71, -187500.02, -187500.02, -187500.02, -161139.89, -187500.02, -187500.02, 0.000, 0.000, 0.000, 15:21:47.024
203, 61865.36, 30410.44, -187500.02, -187500.02, -187500.02, -160921.45, -187500.02, -187500.02, 0.000, 0.000, 0.000, 15:21:47.024
204, 61802.50, 30348.91, -187500.02, -187500.02, -187500.02, -160767.91, -187500.02, -187500.02, 0.000, 0.000, 0.000, 15:21:47.024
205, 61951.86, 30534.67, -187500.02, -187500.02, -187500.02, -160977.22, -187500.02, -187500.02, 0.000, 0.000, 0.000, 15:21:47.024
206, 62037.71, 30613.69, -187500.02, -187500.02, -187500.02, -161172.13, -187500.02, -187500.02, 0.000, 0.000, 0.000, 15:21:47.024
207, 61954.52, 30511.76, -187500.02, -187500.02, -187500.02, -161085.58, -187500.02, -187500.02, 0.000, 0.000, 0.000, 15:21:47.024
208, 61862.05, 30402.46, -187500.02, -187500.02, -187500.02, -160923.41, -187500.02, -187500.02, 0.000, 0.000, 0.000, 15:21:47.025
209, 61804.89, 30346.31, -187500.02, -187500.02, -187500.02, -160811.77, -187500.02, -187500.02, 0.000, -0.092, 1.030, 15:21:47.487
210, 61952.11, 30537.00, -187500.02, -187500.02, -187500.02, -160971.20, -187500.02, -187500.02, 0.000, 0.000, 0.000, 15:21:47.487
211, 62040.82, 30618.89, -187500.02, -187500.02, -187500.02, -161153.88, -187500.02, -187500.02, 0.000, 0.000, 0.000, 15:21:47.487
212, 61959.10, 30519.94, -187500.02, -187500.02, -187500.02, -161069.64, -187500.02, -187500.02, 0.000, 0.000, 0.000, 15:21:47.488
213, 61859.12, 30409.10, -187500.02, -187500.02, -187500.02, -160878.38, -187500.02, -187500.02, 0.000, 0.000, 0.000, 15:21:47.488
214, 61800.87, 30356.02, -187500.02, -187500.02, -187500.02, -160751.91, -187500.02, -187500.02, 0.000, 0.000, 0.000, 15:21:47.488
215, 61956.66, 30547.21, -187500.02, -187500.02, -187500.02, -160976.39, -187500.02, -187500.02, 0.000, 0.000, 0.000, 15:21:47.488
216, 62050.52, 30630.40, -187500.02, -187500.02, -187500.02, -161214.59, -187500.02, -187500.02, 0.000, 0.000, 0.000, 15:21:47.488
217, 61965.98, 30528.82, -187500.02, -187500.02, -187500.02, -161176.09, -187500.02, -187500.02, 0.000, 0.000, 0.000, 15:21:47.488
218, 61862.12, 30411.20, -187500.02, -187500.02, -187500.02, -160943.84, -187500.02, -187500.02, 0.000, 0.000, 0.000, 15:21:47.488
219, 61799.87, 30350.63, -187500.02, -187500.02, -187500.02, -160800.44, -187500.02, -187500.02, -0.002, -0.096, 1.030, 15:21:47.488
220, 61956.66, 30540.48, -187500.02, -187500.02, -187500.02, -161004.45, -187500.02, -187500.02, 0.000, 0.000, 0.000, 15:21:47.488
221, 62048.46, 30631.30, -187500.02, -187500.02, -187500.02, -161198.03, -187500.02, -187500.02, 0.000, 0.000, 0.000, 15:21:47.489
222, 61969.16, 30530.11, -187500.02, -187500.02, -187500.02, -161114.98, -187500.02, -187500.02, 0.000, 0.000, 0.000, 15:21:47.489
223, 61877.81, 30421.39, -187500.02, -187500.02, -187500.02, -160928.91, -187500.02, -187500.02, 0.000, 0.000, 0.000, 15:21:47.489
224, 61808.92, 30362.21, -187500.02, -187500.02, -187500.02, -160784.50, -187500.02, -187500.02, 0.000, 0.000, 0.000, 15:21:47.489
225, 61953.96, 30548.20, -187500.02, -187500.02, -187500.02, -160995.19, -187500.02, -187500.02, 0.000, 0.000, 0.000, 15:21:47.489
226, 62044.55, 30630.47, -187500.02, -187500.02, -187500.02, -161193.64, -187500.02, -187500.02, 0.000, 0.000, 0.000, 15:21:47.490
227, 61957.27, 30522.94, -187500.02, -187500.02, -187500.02, -161117.72, -187500.02, -187500.02, 0.000, 0.000, 0.000, 15:21:47.491
228, 61858.14, 30412.36, -187500.02, -187500.02, -187500.02, -160902.83, -187500.02, -187500.02, 0.000, 0.000, 0.000, 15:21:47.491
229, 61796.76, 30355.03, -187500.02, -187500.02, -187500.02, -160759.02, -187500.02, -187500.02, -0.002, -0.096, 1.024, 15:21:47.491
230, 61953.38, 30547.14, -187500.02, -187500.02, -187500.02, -160978.86, -187500.02, -187500.02, 0.000, 0.000, 0.000, 15:21:47.491
231, 62048.11, 30628.86, -187500.02, -187500.02, -187500.02, -161199.36, -187500.02, -187500.02, 0.000, 0.000, 0.000, 15:21:47.491
232, 61964.73, 30532.62, -187500.02, -187500.02, -187500.02, -161120.06, -187500.02, -187500.02, 0.000, 0.000, 0.000, 15:21:47.491
233, 61864.71, 30421.48, -187500.02, -187500.02, -187500.02, -160915.67, -187500.02, -187500.02, 0.000, 0.000, 0.000, 15:21:47.491
234, 61798.57, 30362.90, -187500.02, -187500.02, -187500.02, -160779.42, -187500.02, -187500.02, 0.000, 0.000, 0.000, 15:21:47.491
235, 61951.90, 30550.43, -187500.02, -187500.02, -187500.02, -161012.58, -187500.02, -187500.02, 0.000, 0.000, 0.000, 15:21:47.492
236, 62041.24, 30633.20, -187500.02, -187500.02, -187500.02, -161185.06, -187500.02, -187500.02, 0.000, 0.000, 0.000, 15:21:47.492
237, 61960.53, 30531.92, -187500.02, -187500.02, -187500.02, -161118.13, -187500.02, -187500.02, 0.000, 0.000, 0.000, 15:21:47.492
238, 61860.77, 30416.45, -187500.02, -187500.02, -187500.02, -160916.14, -187500.02, -187500.02, 0.000, 0.000, 0.000, 15:21:47.492
239, 61797.99, 30363.86, -187500.02, -187500.02, -187500.02, -160765.41, -187500.02, -187500.02, 0.004, -0.092, 1.022, 15:21:47.492
240, 61954.77, 30553.98, -187500.02, -187500.02, -187500.02, -160967.92, -187500.02, -187500.02, 0.000, 0.000, 0.000, 15:21:47.492
241, 62055.14, 30643.19, -187500.02, -187500.02, -187500.02, -161196.53, -187500.02, -187500.02, 0.000, 0.000, 0.000, 15:21:47.492
242, 61973.74, 30542.36, -187500.02, -187500.02, -187500.02, -161146.33, -187500.02, -187500.02, 0.000, 0.000, 0.000, 15:21:47.492
243, 61871.66, 30426.94, -187500.02, -187500.02, -187500.02, -160945.09, -187500.02, -187500.02, 0.000, 0.000, 0.000, 15:21:47.493
244, 61804.76, 30367.48, -187500.02, -187500.02, -187500.02, -160828.03, -187500.02, -187500.02, 0.000, 0.000, 0.000, 15:21:47.493
245, 61952.51, 30549.58, -187500.02, -187500.02, -187500.02, -161021.09, -187500.02, -187500.02, 0.000, 0.000, 0.000, 15:21:47.493
246, 62048.11, 30640.57, -187500.02, -187500.02, -187500.02, -161212.23, -187500.02, -187500.02, 0.000, 0.000, 0.000, 15:21:47.493
247, 61965.31, 30536.97, -187500.02, -187500.02, -187500.02, -161139.47, -187500.02, -187500.02, 0.000, 0.000, 0.000, 15:21:47.493
248, 61871.53, 30430.69, -187500.02, -187500.02, -187500.02, -160961.92, -187500.02, -187500.02, 0.000, 0.000, 0.000, 15:21:47.493
249, 61802.21, 30365.11, -187500.02, -187500.02, -187500.02, -160843.84, -187500.02, -187500.02, 0.004, -0.090, 1.030, 15:21:47.493
250, 61948.39, 30545.02, -187500.02, -187500.02, -187500.02, -161041.94, -187500.02, -187500.02, 0.000, 0.000, 0.000, 15:21:47.493
251, 62046.00, 30638.14, -187500.02, -187500.02, -187500.02, -161219.94, -187500.02, -187500.02, 0.000, 0.000, 0.000, 15:21:47.494
252, 61961.09, 30526.07, -187500.02, -187500.02, -187500.02, -161107.66, -187500.02, -187500.02, 0.000, 0.000, 0.000, 15:21:47.494
253, 61867.32, 30422.38, -187500.02, -187500.02, -187500.02, -160895.09, -187500.02, -187500.02, 0.000, 0.000, 0.000, 15:21:47.494
254, 61807.04, 30372.26, -187500.02, -187500.02, -187500.02, -160767.16, -187500.02, -187500.02, 0.000, 0.000, 0.000, 15:21:47.494
255, 61955.64, 30555.95, -187500.02, -187500.02, -187500.02, -160971.02, -187500.02, -187500.02, 0.000, 0.000, 0.000, 15:21:47.494
0, 62049.29, 30640.42, -187500.02, -187500.02, -187500.02, -161195.88, -187500.02, -187500.02, 0.000, 0.000, 0.000, 15:21:47.494
1, 61962.81, 30527.77, -187500.02, -187500.02, -187500.02, -161136.63, -187500.02, -187500.02, 0.000, 0.000, 0.000, 15:21:47.494
2, 61870.23, 30423.25, -187500.02, -187500.02, -187500.02, -160932.95, -187500.02, -187500.02, 0.000, 0.000, 0.000, 15:21:47.494
3, 61804.16, 30377.96, -187500.02, -187500.02, -187500.02, -160786.94, -187500.02, -187500.02, 0.002, -0.092, 1.036, 15:21:47.495
4, 61955.28, 30563.82, -187500.02, -187500.02, -187500.02, -161005.20, -187500.02, -187500.02, 0.000, 0.000, 0.000, 15:21:47.495
5, 62052.66, 30642.65, -187500.02, -187500.02, -187500.02, -161202.16, -187500.02, -187500.02, 0.000, 0.000, 0.000, 15:21:47.495
6, 61983.84, 30567.39, -187500.02, -187500.02, -187500.02, -161138.23, -187500.02, -187500.02, 0.000, 0.000, 0.000, 15:21:47.495
7, 61887.15, 30447.08, -187500.02, -187500.02, -187500.02, -160969.22, -187500.02, -187500.02, 0.000, 0.000, 0.000, 15:21:47.495
8, 61815.67, 30379.35, -187500.02, -187500.02, -187500.02, -160844.09, -187500.02, -187500.02, 0.000, 0.000, 0.000, 15:21:47.495
9, 61958.45, 30573.86, -187500.02, -187500.02, -187500.02, -161023.38, -187500.02, -187500.02, 0.000, 0.000, 0.000, 15:21:47.495
10, 62052.15, 30647.46, -187500.02, -187500.02, -187500.02, -161197.72, -187500.02, -187500.02, 0.000, 0.000, 0.000, 15:21:47.495
11, 61968.91, 30537.13, -187500.02, -187500.02, -187500.02, -161116.33, -187500.02, -187500.02, 0.000, 0.000, 0.000, 15:21:47.496
12, 61877.45, 30451.43, -187500.02, -187500.02, -187500.02, -160923.55, -187500.02, -187500.02, 0.000, 0.000, 0.000, 15:21:47.496
13, 61813.99, 30388.71, -187500.02, -187500.02, -187500.02, -160784.36, -187500.02, -187500.02, 0.000, -0.094, 1.024, 15:21:47.496
14, 61966.25, 30569.83, -187500.02, -187500.02, -187500.02, -160997.48, -187500.02, -187500.02, 0.000, 0.000, 0.000, 15:21:47.496
15, 62061.72, 30655.15, -187500.02, -187500.02, -187500.02, -161224.16, -187500.02, -187500.02, 0.000, 0.000, 0.000, 15:21:47.496
16, 61975.84, 30548.04, -187500.02, -187500.02, -187500.02, -161159.63, -187500.02, -187500.02, 0.000, 0.000, 0.000, 15:21:47.496
17, 61875.39, 30428.46, -187500.02, -187500.02, -187500.02, -160943.95, -187500.02, -187500.02, 0.000, 0.000, 0.000, 15:21:47.496
18, 61813.37, 30380.54, -187500.02, -187500.02, -187500.02, -160844.13, -187500.02, -187500.02, 0.000, 0.000, 0.000, 15:21:47.496
19, 61959.75, 30562.23, -187500.02, -187500.02, -187500.02, -161038.97, -187500.02, -187500.02, 0.000, 0.000, 0.000, 15:21:47.496
20, 62057.70, 30660.65, -187500.02, -187500.02, -187500.02, -161258.05, -187500.02, -187500.02, 0.000, 0.000, 0.000, 15:21:47.497
21, 61977.99, 30562.28, -187500.02, -187500.02, -187500.02, -161185.55, -187500.02, -187500.02, 0.000, 0.000, 0.000, 15:21:47.497
22, 61879.13, 30451.43, -187500.02, -187500.02, -187500.02, -160966.00, -187500.02, -187500.02, 0.000, 0.000, 0.000, 15:21:47.497
23, 61811.94, 30385.36, -187500.02, -187500.02, -187500.02, -160798.98, -187500.02, -187500.02, -0.002, -0.092, 1.024, 15:21:47.497
24, 61963.08, 30569.79, -187500.02, -187500.02, -187500.02, -161001.95, -187500.02, -187500.02, 0.000, 0.000, 0.000, 15:21:47.497
25, 62059.19, 30658.39, -187500.02, -187500.02, -187500.02, -161193.59, -187500.02, -187500.02, 0.000, 0.000, 0.000, 15:21:47.497
26, 61979.93, 30559.42, -187500.02, -187500.02, -187500.02, -161155.33, -187500.02, -187500.02, 0.000, 0.000, 0.000, 15:21:47.497
27, 61881.50, 30450.70, -187500.02, -187500.02, -187500.02, -160959.84, -187500.02, -187500.02, 0.000, 0.000, 0.000, 15:21:47.497
28, 61811.94, 30387.11, -187500.02, -187500.02, -187500.02, -160805.02, -187500.02, -187500.02, 0.000, 0.000, 0.000, 15:21:47.498
29, 61956.11, 30569.88, -187500.02, -187500.02, -187500.02, -160969.56, -187500.02, -187500.02, 0.000, 0.000, 0.000, 15:21:47.498
30, 62048.02, 30652.13, -187500.02, -187500.02, -187500.02, -161145.77, -187500.02, -187500.02, 0.000, 0.000, 0.000, 15:21:47.498
31, 61972.07, 30548.22, -187500.02, -187500.02, -187500.02, -161110.30, -187500.02, -187500.02, 0.000, 0.000, 0.000, 15:21:47.498
32, 61869.40, 30445.62, -187500.02, -187500.02, -187500.02, -160919.09, -187500.02, -187500.02, 0.002, -0.092, 1.026, 15:21:47.498
33, 61802.06, 30388.22, -187500.02, -187500.02, -187500.02, -160793.06, -187500.02, -187500.02, 0.000, 0.000, 0.000, 15:21:47.498
34, 61947.84, 30569.52, -187500.02, -187500.02, -187500.02, -161000.33, -187500.02, -187500.02, 0.000, 0.000, 0.000, 15:21:47.498
35, 62050.70, 30662.41, -187500.02, -187500.02, -187500.02, -161227.98, -187500.02, -187500.02, 0.000, 0.000, 0.000, 15:21:47.498
36, 61962.90, 30547.73, -187500.02, -187500.02, -187500.02, -161145.44, -187500.02, -187500.02, 0.000, 0.000, 0.000, 15:21:47.498
37, 61867.48, 30434.76, -187500.02, -187500.02, -187500.02, -160960.25, -187500.02, -187500.02, 0.000, 0.000, 0.000, 15:21:47.499
38, 61805.72, 30383.53, -187500.02, -187500.02, -187500.02, -160812.91, -187500.02, -187500.02, 0.000, 0.000, 0.000, 15:21:47.499
39, 61953.04, 30565.65, -187500.02, -187500.02, -187500.02, -160993.64, -187500.02, -187500.02, 0.000, 0.000, 0.000, 15:21:47.499
40, 62044.91, 30646.63, -187500.02, -187500.02, -187500.02, -161165.66, -187500.02, -187500.02, 0.000, 0.000, 0.000, 15:21:47.499
41, 61966.88, 30553.69, -187500.02, -187500.02, -187500.02, -161094.19, -187500.02, -187500.02, 0.000, 0.000, 0.000, 15:21:47.499
42, 61872.00, 30444.39, -187500.02, -187500.02, -187500.02, -160903.30, -187500.02, -187500.02, 0.004, -0.088, 1.030, 15:21:47.499
43, 61804.52, 30381.18, -187500.02, -187500.02, -187500.02, -160779.83, -187500.02, -187500.02, 0.000, 0.000, 0.000, 15:21:47.499
44, 61950.56, 30563.30, -187500.02, -187500.02, -187500.02, -160971.47, -187500.02, -187500.02, 0.000, 0.000, 0.000, 15:21:47.499
45, 62055.48, 30657.65, -187500.02, -187500.02, -187500.02, -161210.59, -187500.02, -187500.02, 0.000, 0.000, 0.000, 15:21:47.500
46, 61973.70, 30555.73, -187500.02, -187500.02, -187500.02, -161170.13, -187500.02, -187500.02, 0.000, 0.000, 0.000, 15:21:47.500
47, 61879.06, 30443.01, -187500.02, -187500.02, -187500.02, -160988.28, -187500.02, -187500.02, 0.000, 0.000, 0.000, 15:21:47.500
48, 61810.57, 30376.56, -187500.02, -187500.02, -187500.02, -160831.45, -187500.02, -187500.02, 0.000, 0.000, 0.000, 15:21:47.500
49, 61951.57, 30567.89, -187500.02, -187500.02, -187500.02, -161033.45, -187500.02, -187500.02, 0.000, 0.000, 0.000, 15:21:47.500
50, 62049.89, 30654.72, -187500.02, -187500.02, -187500.02, -161247.58, -187500.02, -187500.02, 0.000, 0.000, 0.000, 15:21:47.500
51, 61971.50, 30553.29, -187500.02, -187500.02, -187500.02, -161182.38, -187500.02, -187500.02, 0.000, 0.000, 0.000, 15:21:47.500
52, 61874.19, 30441.24, -187500.02, -187500.02, -187500.02, -161007.50, -187500.02, -187500.02, 0.000, -0.086, 1.030, 15:21:47.500
53, 61805.39, 30380.18, -187500.02, -187500.02, -187500.02, -160862.30, -187500.02, -187500.02, 0.000, 0.000, 0.000, 15:21:47.501
54, 61950.92, 30560.47, -187500.02, -187500.02, -187500.02, -161039.83, -187500.02, -187500.02, 0.000, 0.000, 0.000, 15:21:47.501
55, 62049.16, 30647.59, -187500.02, -187500.02, -187500.02, -161253.03, -187500.02, -187500.02, 0.000, 0.000, 0.000, 15:21:47.501
56, 61971.15, 30539.16, -187500.02, -187500.02, -187500.02, -161177.55, -187500.02, -187500.02, 0.000, 0.000, 0.000, 15:21:47.501
57, 61869.70, 30434.78, -187500.02, -187500.02, -187500.02, -160994.52, -187500.02, -187500.02, 0.000, 0.000, 0.000, 15:21:47.501
58, 61800.52, 30371.48, -187500.02, -187500.02, -187500.02, -160833.48, -187500.02, -187500.02, 0.000, 0.000, 0.000, 15:21:47.501
59, 61944.53, 30551.35, -187500.02, -187500.02, -187500.02, -160996.61, -187500.02, -187500.02, 0.000, 0.000, 0.000, 15:21:47.502
60, 62051.30, 30652.91, -187500.02, -187500.02, -187500.02, -161221.67, -187500.02, -187500.02, 0.000, 0.000, 0.000, 15:21:47.502
61, 61969.14, 30549.54, -187500.02, -187500.02, -187500.02, -161200.34, -187500.02, -187500.02, 0.000, 0.000, 0.000, 15:21:47.502
62, 61870.95, 30436.97, -187500.02, -187500.02, -187500.02, -160982.73, -187500.02, -187500.02, 0.002, -0.086, 1.030, 15:21:47.502
63, 61805.59, 30372.80, -187500.02, -187500.02, -187500.02, -160850.59, -187500.02, -187500.02, 0.000, 0.000, 0.000, 15:21:47.502
64, 61950.27, 30559.04, -187500.02, -187500.02, -187500.02, -161048.36, -187500.02, -187500.02, 0.000, 0.000, 0.000, 15:21:47.502
65, 62046.61, 30648.13, -187500.02, -187500.02, -187500.02, -161238.69, -187500.02, -187500.02, 0.000, 0.000, 0.000, 15:21:47.502
66, 61974.21, 30559.82, -187500.02, -187500.02, -187500.02, -161188.28, -187500.02, -187500.02, 0.000, 0.000, 0.000, 15:21:47.503
67, 61877.98, 30443.95, -187500.02, -187500.02, -187500.02, -160998.88, -187500.02, -187500.02, 0.000, 0.000, 0.000, 15:21:47.503
68, 61809.37, 30372.87, -187500.02, -187500.02, -187500.02, -160827.28, -187500.02, -187500.02, 0.000, 0.000, 0.000, 15:21:47.503
69, 61957.34, 30559.55, -187500.02, -187500.02, -187500.02, -161035.38, -187500.02, -187500.02, 0.000, 0.000, 0.000, 15:21:47.503
70, 62052.20, 30653.03, -187500.02, -187500.02, -187500.02, -161231.80, -187500.02, -187500.02, 0.000, 0.000, 0.000, 15:21:47.503
71, 61970.37, 30556.78, -187500.02, -187500.02, -187500.02, -161157.59, -187500.02, -187500.02, 0.000, 0.000, 0.000, 15:21:47.503
72, 61876.93, 30449.36, -187500.02, -187500.02, -187500.02, -161006.42, -187500.02, -187500.02, 0.002, -0.088, 1.036, 15:21:47.503
73, 61808.43, 30379.78, -187500.02, -187500.02, -187500.02, -160881.61, -187500.02, -187500.02, 0.000, 0.000, 0.000, 15:21:47.967
74, 61951.72, 30557.47, -187500.02, -187500.02, -187500.02, -161083.41, -187500.02, -187500.02, 0.000, 0.000, 0.000, 15:21:47.967
75, 62047.55, 30648.40, -187500.02, -187500.02, -187500.02, -161269.23, -187500.02, -187500.02, 0.000, 0.000, 0.000, 15:21:47.967
76, 61970.16, 30554.45, -187500.02, -187500.02, -187500.02, -161212.08, -187500.02, -187500.02, 0.000, 0.000, 0.000, 15:21:47.967
77, 61869.02, 30443.72, -187500.02, -187500.02, -187500.02, -161024.05, -187500.02, -187500.02, 0.000, 0.000, 0.000, 15:21:47.967
78, 61792.58, 30370.90, -187500.02, -187500.02, -187500.02, -160864.03, -187500.02, -187500.02, 0.000, 0.000, 0.000, 15:21:47.968
79, 61939.81, 30552.93, -187500.02, -187500.02, -187500.02, -161072.05, -187500.02, -187500.02, 0.000, 0.000, 0.000, 15:21:47.968
80, 62043.90, 30643.30, -187500.02, -187500.02, -187500.02, -161302.39, -187500.02, -187500.02, 0.000, 0.000, 0.000, 15:21:47.968
81, 61969.05, 30551.44, -187500.02, -187500.02, -187500.02, -161259.61, -187500.02, -187500.02, 0.000, 0.000, 0.000, 15:21:47.968
82, 61877.92, 30443.83, -187500.02, -187500.02, -187500.02, -161088.08, -187500.02, -187500.02, -0.002, -0.092, 1.030, 15:21:47.968
83, 61800.25, 30369.45, -187500.02, -187500.02, -187500.02, -160916.23, -187500.02, -187500.02, 0.000, 0.000, 0.000, 15:21:47.968
84, 61941.53, 30554.83, -187500.02, -187500.02, -187500.02, -161097.83, -187500.02, -187500.02, 0.000, 0.000, 0.000, 15:21:47.969
85, 62046.27, 30650.01, -187500.02, -187500.02, -187500.02, -161336.77, -187500.02, -187500.02, 0.000, 0.000, 0.000, 15:21:47.969
86, 61962.54, 30545.71, -187500.02, -187500.02, -187500.02, -161267.55, -187500.02, -187500.02, 0.000, 0.000, 0.000, 15:21:47.969
87, 61862.50, 30432.70, -187500.02, -187500.02, -187500.02, -161046.95, -187500.02, -187500.02, 0.000, 0.000, 0.000, 15:21:47.969
88, 61794.82, 30370.57, -187500.02, -187500.02, -187500.02, -160898.17, -187500.02, -187500.02, 0.000, 0.000, 0.000, 15:21:47.969
89, 61939.45, 30547.70, -187500.02, -187500.02, -187500.02, -161083.00, -187500.02, -187500.02, 0.000, 0.000, 0.000, 15:21:47.970
90, 62041.58, 30635.63, -187500.02, -187500.02, -187500.02, -161266.58, -187500.02, -187500.02, 0.000, 0.000, 0.000, 15:21:47.970
91, 61964.71, 30553.67, -187500.02, -187500.02, -187500.02, -161174.84, -187500.02, -187500.02, 0.000, 0.000, 0.000, 15:21:47.970
92, 61864.42, 30445.31, -187500.02, -187500.02, -187500.02, -161003.31, -187500.02, -187500.02, -0.004, -0.096, 1.028, 15:21:47.970
93, 61793.43, 30374.70, -187500.02, -187500.02, -187500.02, -160875.58, -187500.02, -187500.02, 0.000, 0.000, 0.000, 15:21:47.970
94, 61935.27, 30549.58, -187500.02, -187500.02, -187500.02, -161079.55, -187500.02, -187500.02, 0.000, 0.000, 0.000, 15:21:47.971
95, 62036.46, 30642.65, -187500.02, -187500.02, -187500.02, -161266.28, -187500.02, -187500.02, 0.000, 0.000, 0.000, 15:21:47.971
96, 61964.13, 30550.16, -187500.02, -187500.02, -187500.02, -161206.91, -187500.02, -187500.02, 0.000, 0.000, 0.000, 15:21:47.971
97, 61867.19, 30433.58, -187500.02, -187500.02, -187500.02, -161048.14, -187500.02, -187500.02, 0.000, 0.000, 0.000, 15:21:47.971
98, 61793.81, 30366.70, -187500.02, -187500.02, -187500.02, -160879.06, -187500.02, -187500.02, 0.000, 0.000, 0.000, 15:21:47.971
99, 61940.41, 30551.79, -187500.02, -187500.02, -187500.02, -161083.03, -187500.02, -187500.02, 0.000, 0.000, 0.000, 15:21:47.971
100, 62046.96, 30651.13, -187500.02, -187500.02, -187500.02, -161294.30, -187500.02, -187500.02, 0.000, 0.000, 0.000, 15:21:47.972
101, 61966.23, 30553.54, -187500.02, -187500.02, -187500.02, -161226.19, -187500.02, -187500.02, 0.000, 0.000, 0.000, 15:21:47.972
102, 61870.61, 30442.61, -187500.02, -187500.02, -187500.02, -161031.73, -187500.02, -187500.02, -0.006, -0.092, 1.034, 15:21:47.972
103, 61799.44, 30367.66, -187500.02, -187500.02, -187500.02, -160899.19, -187500.02, -187500.02, 0.000, 0.000, 0.000, 15:21:47.972
104, 61936.88, 30539.77, -187500.02, -187500.02, -187500.02, -161061.91, -187500.02, -187500.02, 0.000, 0.000, 0.000, 15:21:47.973
105, 62045.11, 30633.65, -187500.02, -187500.02, -187500.02, -161243.06, -187500.02, -187500.02, 0.000, 0.000, 0.000, 15:21:47.973
106, 61975.21, 30539.37, -187500.02, -187500.02, -187500.02, -161206.00, -187500.02, -187500.02, 0.000, 0.000, 0.000, 15:21:47.973
107, 61874.16, 30423.21, -187500.02, -187500.02, -187500.02, -161044.33, -187500.02, -187500.02, 0.000, 0.000, 0.000, 15:21:47.973
108, 61788.45, 30349.22, -187500.02, -187500.02, -187500.02, -160885.95, -187500.02, -187500.02, 0.000, 0.000, 0.000, 15:21:47.973
109, 61925.08, 30542.12, -187500.02, -187500.02, -187500.02, -161067.42, -187500.02, -187500.02, 0.000, 0.000, 0.000, 15:21:47.973
110, 62034.38, 30638.74, -187500.02, -187500.02, -187500.02, -161280.69, -187500.02, -187500.02, 0.000, 0.000, 0.000, 15:21:47.974
111, 61961.85, 30544.62, -187500.02, -187500.02, -187500.02, -161228.95, -187500.02, -187500.02, 0.000, 0.000, 0.000, 15:21:47.974
112, 61866.70, 30434.63, -187500.02, -187500.02, -187500.02, -161033.27, -187500.02, -187500.02, -0.004, -0.090, 1.028, 15:21:47.974
113, 61795.29, 30373.54, -187500.02, -187500.02, -187500.02, -160867.91, -187500.02, -187500.02, 0.000, 0.000, 0.000, 15:21:47.974
114, 61943.48, 30556.71, -187500.02, -187500.02, -187500.02, -161095.83, -187500.02, -187500.02, 0.000, 0.000, 0.000, 15:21:47.974
115, 62045.49, 30656.67, -187500.02, -187500.02, -187500.02, -161308.42, -187500.02, -187500.02, 0.000, 0.000, 0.000, 15:21:47.974
116, 61969.27, 30557.43, -187500.02, -187500.02, -187500.02, -161253.19, -187500.02, -187500.02, 0.000, 0.000, 0.000, 15:21:47.975
117, 61874.50, 30445.51, -187500.02, -187500.02, -187500.02, -161101.13, -187500.02, -187500.02, 0.000, 0.000, 0.000, 15:21:47.975
118, 61797.61, 30379.44, -187500.02, -187500.02, -187500.02, -160950.97, -187500.02, -187500.02, 0.000, 0.000, 0.000, 15:21:47.975
119, 61936.82, 30553.27, -187500.02, -187500.02, -187500.02, -161114.92, -187500.02, -187500.02, 0.000, 0.000, 0.000, 15:21:47.975
120, 62045.64, 30652.71, -187500.02, -187500.02, -187500.02, -161316.17, -187500.02, -187500.02, 0.000, 0.000, 0.000, 15:21:47.975
121, 61974.23, 30561.32, -187500.02, -187500.02, -187500.02, -161269.59, -187500.02, -187500.02, 0.000, 0.000, 0.000, 15:21:47.976
122, 61871.23, 30445.33, -187500.02, -187500.02, -187500.02, -161085.44, -187500.02, -187500.02, -0.004, -0.086, 1.030, 15:21:47.976
123, 61792.78, 30366.70, -187500.02, -187500.02, -187500.02, -160937.56, -187500.02, -187500.02, 0.000, 0.000, 0.000, 15:21:47.976
124, 61935.30, 30546.12, -187500.02, -187500.02, -187500.02, -161110.27, -187500.02, -187500.02, 0.000, 0.000, 0.000, 15:21:47.976
125, 62041.45, 30647.77, -187500.02, -187500.02, -187500.02, -161332.56, -187500.02, -187500.02, 0.000, 0.000, 0.000, 15:21:47.976
126, 61967.64, 30553.43, -187500.02, -187500.02, -187500.02, -161296.38, -187500.02, -187500.02, 0.000, 0.000, 0.000, 15:21:47.976
127, 61865.34, 30437.38, -187500.02, -187500.02, -187500.02, -161098.61, -187500.02, -187500.02, 0.000, 0.000, 0.000, 15:21:47.977
128, 61793.07, 30367.53, -187500.02, -187500.02, -187500.02, -160939.06, -187500.02, -187500.02, 0.000, 0.000, 0.000, 15:21:47.977
129, 61939.03, 30553.07, -187500.02, -187500.02, -187500.02, -161120.44, -187500.02, -187500.02, 0.000, 0.000, 0.000, 15:21:47.977
130, 62043.90, 30649.47, -187500.02, -187500.02, -187500.02, -161324.31, -187500.02, -187500.02, 0.000, 0.000, 0.000, 15:21:47.977
131, 61964.98, 30555.26, -187500.02, -187500.02, -187500.02, -161263.97, -187500.02, -187500.02, 0.000, 0.000, 0.000, 15:21:47.977
132, 61871.50, 30449.18, -187500.02, -187500.02, -187500.02, -161087.92, -187500.02, -187500.02, 0.000, -0.086, 1.030, 15:21:47.977
133, 61793.86, 30376.06, -187500.02, -187500.02, -187500.02, -160934.31, -187500.02, -187500.02, 0.000, 0.000, 0.000, 15:21:47.977
134, 61930.94, 30552.67, -187500.02, -187500.02, -187500.02, -161128.38, -187500.02, -187500.02, 0.000, 0.000, 0.000, 15:21:47.977
135, 62040.33, 30651.19, -187500.02, -187500.02, -187500.02, -161351.30, -187500.02, -187500.02, 0.000, 0.000, 0.000, 15:21:47.978
136, 61962.41, 30554.36, -187500.02, -187500.02, -187500.02, -161280.02, -187500.02, -187500.02, 0.000, 0.000, 0.000, 15:21:47.978
137, 61866.12, 30447.23, -187500.02, -187500.02, -187500.02, -161080.95, -187500.02, -187500.02, 0.000, 0.000, 0.000, 15:21:47.978
138, 61796.54, 30375.80, -187500.02, -187500.02, -187500.02, -160919.70, -187500.02, -187500.02, 0.000, 0.000, 0.000, 15:21:47.978
139, 61945.85, 30559.93, -187500.02, -187500.02, -187500.02, -161127.27, -187500.02, -187500.02, 0.000, 0.000, 0.000, 15:21:47.978
140, 62049.58, 30658.21, -187500.02, -187500.02, -187500.02, -161372.59, -187500.02, -187500.02, 0.000, 0.000, 0.000, 15:21:47.978
141, 61966.36, 30563.97, -187500.02, -187500.02, -187500.02, -161300.08, -187500.02, -187500.02, 0.000, 0.000, 0.000, 15:21:47.978
142, 61864.60, 30450.12, -187500.02, -187500.02, -187500.02, -161099.50, -187500.02, -187500.02, 0.006, -0.082, 1.028, 15:21:47.978
143, 61790.48, 30373.18, -187500.02, -187500.02, -187500.02, -160934.34, -187500.02, -187500.02, 0.000, 0.000, 0.000, 15:21:47.979
144, 61929.33, 30549.20, -187500.02, -187500.02, -187500.02, -161093.89, -187500.02, -187500.02, 0.000, 0.000, 0.000, 15:21:47.979
145, 62033.96, 30650.46, -187500.02, -187500.02, -187500.02, -161327.67, -187500.02, -187500.02, 0.000, 0.000, 0.000, 15:21:47.979
146, 61959.35, 30540.95, -187500.02, -187500.02, -187500.02, -161262.22, -187500.02, -187500.02, 0.000, 0.000, 0.000, 15:21:47.979
147, 61866.70, 30435.79, -187500.02, -187500.02, -187500.02, -161081.13, -187500.02, -187500.02, 0.000, 0.000, 0.000, 15:21:47.979
