%OpenBCI Raw EEG Data
%
%Sample Rate = 250.0 Hz
%First Column = SampleIndex
%Last Column = Timestamp 
%Other Columns = EEG data in microvolts followed by Accel Data (in G) interleaved with Aux Data
0, -1380.11, 27422.48, -170060.94, -163296.08, -138657.19, -86797.61, -106891.91, 187500.00, 0.008, -0.096, 1.032, 13:45:25.772
1, 4615.39, 33280.11, -178792.33, -175205.70, -155839.69, -103581.53, -124052.78, 187500.00, 0.000, 0.000, 0.000, 13:45:25.772
2, 8066.12, 36760.97, -185067.25, -184950.59, -179162.69, -126365.12, -147382.56, 187500.00, 0.000, 0.000, 0.000, 13:45:25.772
3, 6912.43, 35666.21, -185404.05, -185408.55, -182874.70, -130014.82, -151130.89, 187500.00, 0.000, 0.000, 0.000, 13:45:25.773
4, 2144.90, 30980.90, -181548.44, -179390.11, -165024.80, -112666.27, -133390.78, 187500.00, 0.000, 0.000, 0.000, 13:45:25.773
5, -1395.02, 27407.33, -169845.11, -163095.95, -138381.92, -86605.01, -106709.30, 187500.00, 0.000, 0.000, 0.000, 13:45:25.773
6, 4595.14, 33260.82, -178638.17, -175019.30, -155490.67, -103316.80, -123799.45, 187500.00, 0.000, 0.000, 0.000, 13:45:25.773
7, 8081.41, 36782.66, -185042.28, -184919.89, -178975.08, -126259.32, -147289.63, 187500.00, 0.004, -0.104, 1.000, 13:45:25.773
8, 6940.51, 35694.04, -185391.11, -185396.19, -182784.83, -130005.43, -151135.20, 187500.00, 0.000, 0.000, 0.000, 13:45:25.773
9, 2189.38, 31022.34, -181566.03, -179429.19, -165058.47, -112771.50, -133511.80, 187500.00, 0.000, 0.000, 0.000, 13:45:25.773
10, -1389.07, 27412.76, -169820.55, -163097.72, -138329.31, -86626.02, -106741.91, 187500.00, 0.000, 0.000, 0.000, 13:45:25.774
11, 4582.96, 33251.39, -178563.36, -174939.19, -155304.55, -103209.78, -123696.61, 187500.00, 0.000, 0.000, 0.000, 13:45:25.774
12, 8092.69, 36792.00, -185024.81, -184900.19, -178866.91, -126228.41, -147263.44, 187500.00, 0.000, 0.000, 0.000, 13:45:25.774
13, 6956.24, 35711.96, -185380.48, -185386.03, -182738.72, -130035.85, -151172.64, 187500.00, 0.000, 0.000, 0.000, 13:45:25.774
14, 2223.44, 31060.47, -181589.52, -179476.39, -165118.52, -112903.87, -133652.05, 187500.00, 0.000, 0.000, 0.000, 13:45:25.774
15, -1388.27, 27415.02, -169824.80, -163125.33, -138310.16, -86678.72, -106800.70, 187500.00, 0.000, 0.000, 0.000, 13:45:25.774
16, 4558.17, 33226.96, -178498.36, -174862.61, -155121.02, -103100.48, -123591.66, 187500.00, 0.000, 0.000, 0.000, 13:45:25.774
17, 8098.57, 36798.59, -185005.41, -184877.84, -178753.38, -126190.14, -147232.41, 187500.00, 0.012, -0.102, 1.006, 13:45:25.774
18, 6976.56, 35731.43, -185369.11, -185375.33, -182681.92, -130059.72, -151202.97, 187500.00, 0.000, 0.000, 0.000, 13:45:25.775
19, 2255.58, 31092.93, -181615.70, -179525.61, -165183.16, -113043.97, -133801.30, 187500.00, 0.000, 0.000, 0.000, 13:45:25.775
20, -1389.70, 27424.88, -169804.56, -163124.34, -138265.19, -86712.05, -106838.32, 187500.00, 0.000, 0.000, 0.000, 13:45:25.775
21, 4541.20, 33214.54, -178422.95, -174769.02, -154944.91, -103005.69, -123497.98, 187500.00, 0.000, 0.000, 0.000, 13:45:25.775
22, 8097.79, 36799.44, -184987.70, -184856.20, -178650.02, -126166.56, -147212.89, 187500.00, 0.000, 0.000, 0.000, 13:45:25.775
23, 6982.22, 35737.78, -185359.25, -185366.03, -182637.66, -130094.46, -151246.69, 187500.00, 0.000, 0.000, 0.000, 13:45:25.775
24, 2280.08, 31113.40, -181639.98, -179575.66, -165248.13, -113182.62, -133951.97, 187500.00, 0.000, 0.000, 0.000, 13:45:25.775
25, -1397.34, 27409.52, -169803.22, -163154.25, -138236.73, -86758.45, -106895.23, 187500.00, 0.000, 0.000, 0.000, 13:45:25.775
26, 4513.91, 33185.50, -178359.67, -174702.22, -154769.70, -102909.82, -123406.28, 187500.00, 0.000, 0.000, 0.000, 13:45:25.776
27, 8098.84, 36801.12, -184974.30, -184840.67, -178558.22, -126149.87, -147199.16, 187500.00, 0.008, -0.098, 1.016, 13:45:25.776
28, 6991.54, 35747.59, -185349.52, -185356.89, -182611.42, -130139.92, -151295.72, 187500.00, 0.000, 0.000, 0.000, 13:45:25.776
29, 2303.53, 31138.62, -181673.39, -179636.69, -165342.42, -113344.09, -134120.14, 187500.00, 0.000, 0.000, 0.000, 13:45:25.776
30, -1405.30, 27401.63, -169824.66, -163205.41, -138242.39, -86829.73, -106972.83, 187500.00, 0.000, 0.000, 0.000, 13:45:25.776
31, 4488.01, 33160.33, -178301.84, -174637.80, -154617.00, -102824.75, -123325.88, 187500.00, 0.000, 0.000, 0.000, 13:45:25.776
32, 8100.81, 36798.82, -184961.73, -184825.31, -178491.45, -126150.31, -147205.83, 187500.00, 0.000, 0.000, 0.000, 13:45:25.776
33, 7009.93, 35768.47, -185343.94, -185352.14, -182606.42, -130202.93, -151364.56, 187500.00, 0.000, 0.000, 0.000, 13:45:25.777
34, 2343.31, 31185.00, -181708.20, -179710.13, -165443.67, -113509.38, -134294.66, 187500.00, 0.000, 0.000, 0.000, 13:45:25.777
35, -1404.45, 27406.97, -169841.22, -163259.28, -138249.02, -86903.34, -107055.04, 187500.00, 0.000, 0.000, 0.000, 13:45:25.777
36, 4467.29, 33141.29, -178247.75, -174586.81, -154494.09, -102771.33, -123279.45, 187500.00, 0.004, -0.098, 1.018, 13:45:25.777
37, 8110.38, 36811.63, -184945.50, -184808.06, -178437.59, -126162.45, -147229.97, 187500.00, 0.000, 0.000, 0.000, 13:45:25.777
38, 7025.64, 35782.95, -185336.86, -185345.33, -182609.03, -130268.45, -151445.25, 187500.00, 0.000, 0.000, 0.000, 13:45:25.777
39, 2373.17, 31211.37, -181742.14, -179768.97, -165554.27, -113681.39, -134482.59, 187500.00, 0.000, 0.000, 0.000, 13:45:25.777
40, -1404.05, 27406.72, -169868.88, -163312.72, -138262.66, -86980.27, -107145.72, 187500.00, 0.000, 0.000, 0.000, 13:45:25.777
41, 4447.68, 33120.84, -178199.30, -174530.03, -154350.25, -102690.08, -123210.66, 187500.00, 0.000, 0.000, 0.000, 13:45:25.777
42, 8112.77, 36810.59, -184934.42, -184794.25, -178378.02, -126159.79, -147242.88, 187500.00, 0.000, 0.000, 0.000, 13:45:25.778
43, 7042.43, 35794.77, -185330.16, -185339.23, -182616.97, -130331.70, -151525.42, 187500.00, 0.000, 0.000, 0.000, 13:45:25.778
44, 2408.49, 31245.90, -181780.20, -179841.14, -165679.17, -113859.96, -134679.92, 187500.00, 0.000, 0.000, 0.000, 13:45:25.778
45, -1400.49, 27410.01, -169908.08, -163390.63, -138305.48, -87080.02, -107258.22, 187500.00, 0.000, 0.000, 0.000, 13:45:25.778
46, 4431.64, 33102.38, -178148.83, -174473.31, -154223.05, -102628.10, -123151.36, 187500.00, 0.004, -0.092, 1.024, 13:45:25.778
47, 8116.54, 36819.74, -184922.09, -184779.61, -178334.27, -126181.90, -147265.64, 187500.00, 0.000, 0.000, 0.000, 13:45:25.778
48, 7049.74, 35810.36, -185326.98, -185336.55, -182638.73, -130418.24, -151611.08, 187500.00, 0.000, 0.000, 0.000, 13:45:25.778
49, 2428.11, 31267.59, -181817.95, -179908.45, -165810.95, -114056.57, -134879.08, 187500.00, 0.000, 0.000, 0.000, 13:45:25.778
50, -1418.69, 27398.19, -169948.16, -163461.88, -138336.84, -87180.90, -107362.64, 187500.00, 0.000, 0.000, 0.000, 13:45:25.779
51, 4390.98, 33070.59, -178114.31, -174440.89, -154116.33, -102592.07, -123119.23, 187500.00, 0.000, 0.000, 0.000, 13:45:25.779
52, 8103.80, 36813.48, -184910.95, -184767.16, -178297.78, -126214.87, -147306.78, 187500.00, 0.000, 0.000, 0.000, 13:45:25.779
53, 7045.25, 35808.68, -185319.41, -185329.45, -182663.59, -130509.35, -151715.70, 187500.00, 0.000, 0.000, 0.000, 13:45:25.779
54, 2441.84, 31284.89, -181857.20, -179970.67, -165930.63, -114242.60, -135080.97, 187500.00, 0.000, 0.000, 0.000, 13:45:25.779
55, -1432.50, 27386.68, -170009.08, -163547.19, -138379.25, -87293.91, -107486.79, 187500.00, 0.000, 0.000, 0.000, 13:45:25.779
56, 4361.92, 33038.65, -178073.19, -174395.28, -153991.88, -102540.70, -123074.09, 187500.00, 0.004, -0.098, 1.020, 13:45:25.779
57, 8111.38, 36815.69, -184900.13, -184754.42, -178247.20, -126235.18, -147336.56, 187500.00, 0.000, 0.000, 0.000, 13:45:25.779
58, 7066.12, 35826.54, -185314.64, -185325.28, -182672.69, -130587.23, -151803.70, 187500.00, 0.000, 0.000, 0.000, 13:45:25.780
59, 2477.47, 31317.52, -181898.52, -180039.81, -166053.50, -114428.73, -135280.33, 187500.00, 0.000, 0.000, 0.000, 13:45:25.780
60, -1430.56, 27384.37, -170055.69, -163623.91, -138415.63, -87391.65, -107599.98, 187500.00, 0.000, 0.000, 0.000, 13:45:25.780
61, 4346.79, 33021.66, -178032.80, -174360.23, -153891.67, -102504.76, -123051.69, 187500.00, 0.000, 0.000, 0.000, 13:45:25.780
62, 8117.50, 36817.90, -184889.05, -184742.58, -178223.80, -126274.70, -147388.78, 187500.00, 0.000, 0.000, 0.000, 13:45:25.780
63, 7082.87, 35835.95, -185309.81, -185320.81, -182715.27, -130689.35, -151919.86, 187500.00, 0.000, 0.000, 0.000, 13:45:25.780
64, 2510.84, 31348.75, -181942.36, -180121.23, -166205.05, -114639.14, -135507.02, 187500.00, 0.000, 0.000, 0.000, 13:45:25.781
65, -1423.09, 27398.77, -170120.53, -163719.28, -138474.59, -87512.46, -107734.66, 187500.00, 0.000, 0.000, 0.000, 13:45:25.781
66, 4326.87, 33001.48, -177993.33, -174307.19, -153766.27, -102445.22, -123002.05, 187500.00, 0.004, -0.096, 1.024, 13:45:25.781
67, 8111.09, 36804.40, -184875.83, -184725.81, -178188.80, -126306.82, -147433.53, 187500.00, 0.000, 0.000, 0.000, 13:45:25.781
68, 7076.41, 35822.29, -185306.81, -185318.19, -182753.27, -130792.97, -152037.59, 187500.00, 0.000, 0.000, 0.000, 13:45:25.781
69, 2528.88, 31354.04, -181988.95, -180193.23, -166353.91, -114851.26, -135736.58, 187500.00, 0.000, 0.000, 0.000, 13:45:25.782
70, -1446.92, 27361.87, -170173.34, -163793.80, -138521.09, -87624.52, -107862.12, 187500.00, 0.000, 0.000, 0.000, 13:45:25.782
71, 4281.70, 32948.30, -177957.45, -174273.11, -153674.83, -102422.28, -122992.02, 187500.00, 0.000, 0.000, 0.000, 13:45:25.782
72, 8105.84, 36798.59, -184865.50, -184715.06, -178163.45, -126344.04, -147487.56, 187500.00, 0.000, 0.000, 0.000, 13:45:25.782
73, 7087.56, 35838.36, -185302.33, -185314.13, -182784.78, -130882.06, -152147.17, 187500.00, 0.000, 0.000, 0.000, 13:45:25.782
74, 2552.08, 31385.16, -182021.80, -180256.95, -166488.75, -115040.11, -135951.22, 187500.00, 0.000, 0.000, 0.000, 13:45:25.782
75, -1450.02, 27363.12, -170226.72, -163878.31, -138574.23, -87732.78, -107996.90, 187500.00, 0.000, 0.000, 0.000, 13:45:25.782
76, 4251.21, 32920.86, -177922.47, -174215.86, -153549.53, -102355.95, -122946.86, 187500.00, 0.006, -0.100, 1.032, 13:45:25.782
77, 8108.90, 36802.10, -184855.33, -184699.59, -178118.00, -126355.34, -147518.64, 187500.00, 0.000, 0.000, 0.000, 13:45:25.782
78, 7106.20, 35858.39, -185297.11, -185309.39, -182806.91, -130957.75, -152240.34, 187500.00, 0.000, 0.000, 0.000, 13:45:25.783
79, 2593.76, 31424.41, -182061.86, -180326.64, -166629.03, -115232.16, -136158.31, 187500.00, 0.000, 0.000, 0.000, 13:45:25.783
80, -1447.41, 27360.75, -170272.95, -163962.88, -138627.44, -87838.13, -108110.66, 187500.00, 0.000, 0.000, 0.000, 13:45:25.783
81, 4230.83, 32896.80, -177879.28, -174177.08, -153441.97, -102304.91, -122899.81, 187500.00, 0.000, 0.000, 0.000, 13:45:25.783
82, 8111.38, 36801.99, -184844.22, -184686.84, -178086.72, -126379.75, -147549.36, 187500.00, 0.000, 0.000, 0.000, 13:45:25.783
83, 7115.79, 35862.50, -185290.41, -185302.91, -182838.84, -131041.32, -152334.16, 187500.00, 0.000, 0.000, 0.000, 13:45:25.783
84, 2613.95, 31440.57, -182100.55, -180395.11, -166773.20, -115429.23, -136370.58, 187500.00, 0.000, 0.000, 0.000, 13:45:25.783
85, -1457.80, 27350.69, -170322.83, -164051.92, -138676.75, -87949.75, -108238.19, 187500.00, 0.000, 0.000, 0.000, 13:45:25.783
86, 4200.61, 32867.25, -177833.53, -174137.00, -153324.94, -102252.25, -122861.79, 187500.00, 0.008, -0.098, 1.030, 13:45:25.784
87, 8107.94, 36796.96, -184830.28, -184671.53, -178039.42, -126394.41, -147580.83, 187500.00, 0.000, 0.000, 0.000, 13:45:25.784
88, 7120.35, 35866.21, -185286.19, -185298.95, -182851.97, -131115.13, -152425.89, 187500.00, 0.000, 0.000, 0.000, 13:45:25.784
89, 2633.12, 31462.72, -182134.44, -180454.52, -166885.61, -115598.46, -136561.47, 187500.00, 0.000, 0.000, 0.000, 13:45:25.784
90, -1465.20, 27345.68, -170360.39, -164124.52, -138710.83, -88042.55, -108348.38, 187500.00, 0.000, 0.000, 0.000, 13:45:25.784
91, 4169.47, 32839.36, -177786.23, -174089.89, -153198.11, -102191.44, -122810.52, 187500.00, 0.000, 0.000, 0.000, 13:45:25.784
92, 8103.65, 36799.22, -184817.30, -184656.47, -177985.30, -126407.85, -147603.53, 187500.00, 0.000, 0.000, 0.000, 13:45:25.784
93, 7133.92, 35884.23, -185279.45, -185292.47, -182868.36, -131196.64, -152518.55, 187500.00, 0.000, 0.000, 0.000, 13:45:25.784
94, 2664.98, 31491.35, -182174.64, -180532.08, -167029.27, -115807.47, -136782.88, 187500.00, 0.000, 0.000, 0.000, 13:45:25.785
95, -1467.93, 27344.52, -170414.20, -164216.94, -138762.95, -88162.48, -108477.84, 187500.00, 0.000, 0.000, 0.000, 13:45:25.785
96, 4143.41, 32813.10, -177738.25, -174040.91, -153070.95, -102133.14, -122758.62, 187500.00, 0.008, -0.096, 1.026, 13:45:25.785
97, 8107.94, 36799.84, -184807.23, -184644.33, -177944.56, -126429.91, -147636.00, 187500.00, 0.000, 0.000, 0.000, 13:45:25.785
98, 7142.08, 35892.52, -185276.86, -185290.13, -182896.63, -131285.42, -152617.50, 187500.00, 0.000, 0.000, 0.000, 13:45:25.785
99, 2694.91, 31523.98, -182216.25, -180597.31, -167159.11, -115995.55, -136984.52, 187500.00, 0.000, 0.000, 0.000, 13:45:25.785
100, -1468.51, 27343.63, -170476.17, -164304.52, -138821.00, -88278.93, -108609.23, 187500.00, 0.000, 0.000, 0.000, 13:45:25.785
101, 4118.55, 32790.14, -177710.22, -174002.67, -152963.20, -102086.59, -122723.81, 187500.00, 0.000, 0.000, 0.000, 13:45:25.785
102, 8105.37, 36795.22, -184797.95, -184632.59, -177903.55, -126448.10, -147665.13, 187500.00, 0.000, 0.000, 0.000, 13:45:25.785
103, 7148.78, 35896.16, -185270.27, -185283.80, -182908.45, -131352.86, -152696.72, 187500.00, 0.000, 0.000, 0.000, 13:45:25.786
104, 2722.08, 31549.84, -182249.09, -180652.38, -167272.11, -116160.60, -137165.03, 187500.00, 0.000, 0.000, 0.000, 13:45:25.786
105, -1469.83, 27339.38, -170518.34, -164366.78, -138851.77, -88364.35, -108707.75, 187500.00, 0.000, 0.000, 0.000, 13:45:25.786
106, 4088.47, 32755.97, -177665.03, -173946.88, -152823.41, -102004.69, -122648.78, 187500.00, 0.012, -0.092, 1.020, 13:45:25.786
107, 8103.31, 36789.83, -184782.53, -184614.03, -177833.13, -126436.59, -147661.52, 187500.00, 0.000, 0.000, 0.000, 13:45:25.786
108, 7158.39, 35901.71, -185263.56, -185277.27, -182902.28, -131405.88, -152759.34, 187500.00, 0.000, 0.000, 0.000, 13:45:25.786
109, 2739.23, 31566.43, -182278.38, -180708.42, -167384.66, -116328.48, -137342.77, 187500.00, 0.000, 0.000, 0.000, 13:45:25.786
110, -1484.85, 27328.78, -170547.88, -164431.72, -138890.38, -88459.62, -108810.92, 187500.00, 0.000, 0.000, 0.000, 13:45:25.786
111, 4053.27, 32719.29, -177606.08, -173886.94, -152689.39, -101932.69, -122581.50, 187500.00, 0.000, 0.000, 0.000, 13:45:25.786
112, 8097.81, 36781.05, -184769.66, -184598.92, -177773.00, -126435.52, -147670.06, 187500.00, 0.000, 0.000, 0.000, 13:45:25.787
113, 7165.88, 35908.43, -185259.39, -185273.20, -182904.23, -131463.66, -152830.94, 187500.00, 0.000, 0.000, 0.000, 13:45:25.787
114, 2772.64, 31597.12, -182303.84, -180758.03, -167489.42, -116485.42, -137518.66, 187500.00, 0.000, 0.000, 0.000, 13:45:25.787
115, -1482.64, 27328.09, -170573.52, -164490.42, -138914.36, -88536.66, -108907.42, 187500.00, 0.000, 0.000, 0.000, 13:45:25.787
116, 4025.59, 32693.65, -177560.27, -173841.89, -152562.91, -101862.46, -122527.37, 187500.00, 0.006, -0.096, 1.024, 13:45:25.787
117, 8093.92, 36780.71, -184756.94, -184584.41, -177718.42, -126437.51, -147687.67, 187500.00, 0.000, 0.000, 0.000, 13:45:25.787
118, 7169.86, 35911.83, -185252.80, -185266.86, -182918.91, -131533.39, -152918.05, 187500.00, 0.000, 0.000, 0.000, 13:45:25.787
119, 2791.04, 31613.77, -182340.19, -180819.45, -167613.06, -116668.50, -137719.06, 187500.00, 0.000, 0.000, 0.000, 13:45:25.787
120, -1496.25, 27315.37, -170627.75, -164577.59, -138963.89, -88652.36, -109037.10, 187500.00, 0.000, 0.000, 0.000, 13:45:26.251
121, 3988.94, 32657.93, -177512.25, -173794.55, -152432.88, -101802.94, -122478.30, 187500.00, 0.000, 0.000, 0.000, 13:45:26.252
122, 8088.98, 36778.77, -184744.81, -184570.34, -177657.05, -126447.50, -147708.64, 187500.00, 0.000, 0.000, 0.000, 13:45:26.252
123, 7179.13, 35929.11, -185243.63, -185257.75, -182916.14, -131601.72, -152996.56, 187500.00, 0.000, 0.000, 0.000, 13:45:26.252
124, 2812.77, 31639.79, -182367.75, -180878.89, -167719.13, -116840.72, -137904.36, 187500.00, 0.000, 0.000, 0.000, 13:45:26.252
125, -1504.70, 27310.99, -170673.56, -164655.86, -139003.34, -88758.87, -109155.70, 187500.00, 0.000, 0.000, 0.000, 13:45:26.252
126, 3965.62, 32631.11, -177466.50, -173745.02, -152311.75, -101750.93, -122435.88, 187500.00, 0.008, -0.096, 1.026, 13:45:26.252
127, 8093.66, 36776.80, -184728.91, -184552.41, -177604.56, -126460.04, -147734.52, 187500.00, 0.000, 0.000, 0.000, 13:45:26.252
128, 7191.29, 35934.99, -185241.69, -185255.97, -182931.16, -131677.66, -153088.97, 187500.00, 0.000, 0.000, 0.000, 13:45:26.252
129, 2849.62, 31675.04, -182411.70, -180944.30, -167837.97, -117016.52, -138100.61, 187500.00, 0.000, 0.000, 0.000, 13:45:26.253
130, -1482.84, 27328.72, -170753.70, -164759.11, -139080.47, -88891.14, -109307.73, 187500.00, 0.000, 0.000, 0.000, 13:45:26.253
131, 3947.09, 32616.60, -177434.41, -173706.33, -152204.00, -101700.30, -122400.70, 187500.00, 0.000, 0.000, 0.000, 13:45:26.253
132, 8096.92, 36784.44, -184719.48, -184540.41, -177573.47, -126481.34, -147771.84, 187500.00, 0.000, 0.000, 0.000, 13:45:26.253
133, 7208.59, 35951.80, -185237.84, -185252.19, -182968.45, -131761.88, -153188.33, 187500.00, 0.000, 0.000, 0.000, 13:45:26.253
134, 2877.25, 31698.77, -182444.70, -180998.20, -167977.33, -117202.13, -138302.20, 187500.00, 0.000, 0.000, 0.000, 13:45:26.253
135, -1497.57, 27317.59, -170802.44, -164831.34, -139129.80, -88992.55, -109422.72, 187500.00, 0.000, 0.000, 0.000, 13:45:26.253
136, 3911.18, 32584.21, -177404.69, -173677.39, -152108.56, -101664.36, -122372.87, 187500.00, 0.004, -0.096, 1.024, 13:45:26.253
137, 8084.31, 36770.03, -184708.86, -184528.55, -177532.59, -126498.53, -147800.06, 187500.00, 0.000, 0.000, 0.000, 13:45:26.253
138, 7201.28, 35942.97, -185230.95, -185245.47, -182983.91, -131832.27, -153272.77, 187500.00, 0.000, 0.000, 0.000, 13:45:26.254
139, 2889.43, 31712.01, -182474.61, -181047.64, -168101.77, -117378.69, -138496.61, 187500.00, 0.000, 0.000, 0.000, 13:45:26.254
140, -1506.33, 27306.95, -170857.72, -164907.14, -139184.80, -89100.73, -109548.02, 187500.00, 0.000, 0.000, 0.000, 13:45:26.254
141, 3881.89, 32550.62, -177366.39, -173633.17, -151998.16, -101607.65, -122331.79, 187500.00, 0.000, 0.000, 0.000, 13:45:26.254
142, 8079.57, 36764.28, -184697.28, -184514.72, -177492.83, -126509.02, -147830.36, 187500.00, 0.000, 0.000, 0.000, 13:45:26.254
143, 7209.42, 35955.44, -185228.91, -185243.56, -183013.23, -131909.13, -153370.36, 187500.00, 0.000, 0.000, 0.000, 13:45:26.254
144, 2918.69, 31746.43, -182510.38, -181110.91, -168248.92, -117572.27, -138710.63, 187500.00, 0.000, 0.000, 0.000, 13:45:26.254
145, -1499.44, 27316.98, -170920.52, -165009.38, -139268.06, -89232.23, -109698.20, 187500.00, 0.000, 0.000, 0.000, 13:45:26.254
146, 3864.28, 32531.82, -177335.61, -173603.47, -151903.17, -101564.45, -122302.51, 187500.00, 0.004, -0.096, 1.032, 13:45:26.255
147, 8087.64, 36771.97, -184687.78, -184503.00, -177465.36, -126535.57, -147868.61, 187500.00, 0.000, 0.000, 0.000, 13:45:26.255
148, 7230.14, 35974.71, -185224.03, -185238.80, -183053.72, -131998.78, -153474.47, 187500.00, 0.000, 0.000, 0.000, 13:45:26.255
149, 2957.09, 31780.45, -182549.63, -181182.39, -168399.28, -117767.78, -138926.72, 187500.00, 0.000, 0.000, 0.000, 13:45:26.255
150, -1491.69, 27319.93, -171004.63, -165130.70, -139367.41, -89378.41, -109865.10, 187500.00, 0.000, 0.000, 0.000, 13:45:26.255
151, 3834.80, 32500.64, -177307.48, -173571.92, -151810.66, -101525.38, -122278.57, 187500.00, 0.000, 0.000, 0.000, 13:45:26.255
152, 8089.79, 36766.47, -184675.22, -184488.19, -177422.91, -126544.98, -147893.53, 187500.00, 0.000, 0.000, 0.000, 13:45:26.255
153, 7252.98, 35983.07, -185219.16, -185234.02, -183069.14, -132064.78, -153555.30, 187500.00, 0.000, 0.000, 0.000, 13:45:26.255
154, 2992.14, 31805.84, -182582.92, -181235.98, -168525.20, -117943.60, -139119.94, 187500.00, 0.000, 0.000, 0.000, 13:45:26.255
155, -1509.10, 27304.85, -171055.02, -165203.48, -139426.84, -89491.93, -109993.98, 187500.00, 0.000, 0.000, 0.000, 13:45:26.256
156, 3794.01, 32464.32, -177264.91, -173517.06, -151691.61, -101464.42, -122228.90, 187500.00, 0.008, -0.098, 1.020, 13:45:26.256
157, 8080.85, 36763.68, -184664.50, -184474.50, -177374.86, -126551.02, -147915.38, 187500.00, 0.000, 0.000, 0.000, 13:45:26.256
158, 7237.67, 35977.43, -185213.08, -185227.84, -183089.19, -132136.45, -153646.91, 187500.00, 0.000, 0.000, 0.000, 13:45:26.256
159, 2998.22, 31812.99, -182613.39, -181281.17, -168654.75, -118126.08, -139324.66, 187500.00, 0.000, 0.000, 0.000, 13:45:26.256
160, -1506.60, 27300.96, -171099.56, -165263.05, -139473.92, -89596.49, -110119.13, 187500.00, 0.000, 0.000, 0.000, 13:45:26.256
161, 3774.54, 32437.70, -177222.33, -173469.33, -151576.72, -101410.82, -122190.77, 187500.00, 0.000, 0.000, 0.000, 13:45:26.256
162, 8076.27, 36756.08, -184652.94, -184461.03, -177320.47, -126560.52, -147938.45, 187500.00, 0.000, 0.000, 0.000, 13:45:26.256
163, 7250.55, 35987.52, -185210.97, -185225.81, -183108.05, -132216.17, -153742.11, 187500.00, 0.000, 0.000, 0.000, 13:45:26.257
164, 3030.87, 31848.42, -182651.00, -181339.77, -168795.42, -118324.41, -139541.25, 187500.00, 0.000, 0.000, 0.000, 13:45:26.257
165, -1500.52, 27312.78, -171193.97, -165378.03, -139572.11, -89755.38, -110294.95, 187500.00, 0.004, -0.094, 1.024, 13:45:26.257
166, 3746.80, 32413.74, -177203.53, -173446.16, -151494.27, -101391.45, -122186.08, 187500.00, 0.000, 0.000, 0.000, 13:45:26.257
167, 8076.94, 36752.66, -184642.41, -184448.63, -177304.53, -126606.00, -148000.50, 187500.00, 0.000, 0.000, 0.000, 13:45:26.257
168, 7260.65, 35994.67, -185208.66, -185223.52, -183159.22, -132324.98, -153864.48, 187500.00, 0.000, 0.000, 0.000, 13:45:26.257
169, 3066.84, 31886.66, -182697.59, -181408.06, -168968.55, -118552.84, -139782.80, 187500.00, 0.000, 0.000, 0.000, 13:45:26.257
170, -1493.92, 27323.58, -171297.59, -165504.47, -139683.89, -89923.14, -110475.15, 187500.00, 0.000, 0.000, 0.000, 13:45:26.257
171, 3716.20, 32386.69, -177200.67, -173440.39, -151431.98, -101386.99, -122191.51, 187500.00, 0.000, 0.000, 0.000, 13:45:26.257
172, 8068.26, 36750.04, -184636.38, -184440.84, -177306.17, -126664.85, -148068.50, 187500.00, 0.000, 0.000, 0.000, 13:45:26.258
173, 7267.71, 36009.60, -185207.64, -185222.58, -183236.89, -132455.63, -154005.39, 187500.00, 0.000, 0.000, 0.000, 13:45:26.258
174, 3093.70, 31915.92, -182738.73, -181483.06, -169159.03, -118796.19, -140039.39, 187500.00, 0.000, 0.000, 0.000, 13:45:26.258
175, -1498.77, 27316.16, -171390.75, -165638.53, -139803.09, -90099.23, -110661.27, 187500.00, 0.006, -0.092, 1.028, 13:45:26.258
176, 3693.80, 32359.60, -177174.83, -173412.34, -151356.20, -101372.89, -122181.70, 187500.00, 0.000, 0.000, 0.000, 13:45:26.258
177, 8076.00, 36754.49, -184627.95, -184430.86, -177298.17, -126718.63, -148131.11, 187500.00, 0.000, 0.000, 0.000, 13:45:26.258
178, 7287.41, 36024.77, -185205.45, -185220.55, -183293.23, -132568.64, -154130.69, 187500.00, 0.000, 0.000, 0.000, 13:45:26.258
179, 3131.21, 31944.98, -182781.25, -181546.31, -169332.88, -119023.05, -140284.14, 187500.00, 0.000, 0.000, 0.000, 13:45:26.258
180, -1494.66, 27319.53, -171499.39, -165771.58, -139930.98, -90282.18, -110863.17, 187500.00, 0.000, 0.000, 0.000, 13:45:26.259
181, 3662.96, 32336.02, -177174.98, -173415.64, -151317.23, -101392.09, -122217.41, 187500.00, 0.000, 0.000, 0.000, 13:45:26.259
182, 8066.97, 36751.00, -184619.97, -184422.16, -177306.56, -126785.39, -148217.08, 187500.00, 0.000, 0.000, 0.000, 13:45:26.259
183, 7289.53, 36027.43, -185206.64, -185221.66, -183368.03, -132696.64, -154280.81, 187500.00, 0.000, 0.000, 0.000, 13:45:26.259
184, 3143.33, 31959.71, -182821.59, -181608.28, -169496.64, -119241.55, -140526.53, 187500.00, 0.000, 0.000, 0.000, 13:45:26.259
185, -1499.00, 27321.34, -171601.09, -165896.11, -140043.59, -90455.70, -111057.86, 187500.00, 0.008, -0.094, 1.024, 13:45:26.259
186, 3625.83, 32296.01, -177161.48, -173391.94, -151231.30, -101372.18, -122211.34, 187500.00, 0.000, 0.000, 0.000, 13:45:26.259
187, 8058.79, 36737.75, -184613.58, -184412.69, -177279.19, -126819.57, -148263.61, 187500.00, 0.000, 0.000, 0.000, 13:45:26.259
188, 7288.37, 36027.90, -185203.17, -185218.19, -183399.77, -132784.44, -154382.98, 187500.00, 0.000, 0.000, 0.000, 13:45:26.260
189, 3160.04, 31980.49, -182856.03, -181660.64, -169643.16, -119442.96, -140745.33, 187500.00, 0.000, 0.000, 0.000, 13:45:26.260
190, -1507.45, 27310.17, -171676.80, -165991.67, -140126.59, -90598.97, -111217.34, 187500.00, 0.000, 0.000, 0.000, 13:45:26.260
191, 3588.37, 32255.13, -177133.86, -173362.19, -151136.95, -101340.82, -122192.27, 187500.00, 0.000, 0.000, 0.000, 13:45:26.260
192, 8045.51, 36723.82, -184603.88, -184401.30, -177245.66, -126849.88, -148310.38, 187500.00, 0.000, 0.000, 0.000, 13:45:26.260
193, 7290.42, 36028.55, -185200.63, -185215.58, -183439.75, -132887.16, -154503.33, 187500.00, 0.000, 0.000, 0.000, 13:45:26.260
194, 3192.07, 32002.15, -182889.81, -181719.81, -169796.30, -119658.14, -140980.19, 187500.00, 0.000, 0.000, 0.000, 13:45:26.260
195, -1506.82, 27310.01, -171749.70, -166091.05, -140209.72, -90749.35, -111387.30, 187500.00, 0.008, -0.098, 1.022, 13:45:26.260
196, 3564.19, 32238.37, -177111.58, -173317.19, -151044.75, -101320.59, -122187.53, 187500.00, 0.000, 0.000, 0.000, 13:45:26.261
197, 8049.04, 36730.00, -184593.64, -184385.95, -177218.91, -126891.72, -148365.94, 187500.00, 0.000, 0.000, 0.000, 13:45:26.261
198, 7299.52, 36033.85, -185198.66, -185213.72, -183488.44, -132996.11, -154625.89, 187500.00, 0.000, 0.000, 0.000, 13:45:26.261
199, 3213.87, 32025.82, -182924.50, -181778.27, -169961.75, -119878.23, -141217.25, 187500.00, 0.000, 0.000, 0.000, 13:45:26.261
200, -1503.02, 27314.93, -171834.38, -166212.28, -140325.05, -90919.61, -111575.97, 187500.00, 0.000, 0.000, 0.000, 13:45:26.261
201, 3538.95, 32210.34, -177087.33, -173294.77, -150971.03, -101305.66, -122189.30, 187500.00, 0.000, 0.000, 0.000, 13:45:26.261
202, 8042.76, 36724.79, -184585.97, -184376.73, -177203.78, -126935.33, -148429.66, 187500.00, 0.000, 0.000, 0.000, 13:45:26.261
203, 7314.03, 36054.17, -185196.88, -185211.78, -183534.89, -133097.19, -154751.61, 187500.00, 0.000, 0.000, 0.000, 13:45:26.262
204, 3239.24, 32058.84, -182961.41, -181835.14, -170115.19, -120085.16, -141452.11, 187500.00, 0.000, 0.000, 0.000, 13:45:26.262
205, -1507.18, 27313.96, -171924.14, -166330.28, -140437.38, -91089.68, -111770.05, 187500.00, 0.006, -0.098, 1.026, 13:45:26.262
206, 3504.75, 32177.03, -177061.48, -173267.97, -150882.89, -101280.04, -122182.59, 187500.00, 0.000, 0.000, 0.000, 13:45:26.262
207, 8035.03, 36716.76, -184574.95, -184363.75, -177175.92, -126969.95, -148484.28, 187500.00, 0.000, 0.000, 0.000, 13:45:26.262
208, 7310.47, 36050.86, -185192.98, -185207.98, -183582.14, -133202.56, -154875.56, 187500.00, 0.000, 0.000, 0.000, 13:45:26.262
209, 3258.39, 32080.14, -182994.39, -181888.36, -170277.97, -120301.66, -141689.14, 187500.00, 0.000, 0.000, 0.000, 13:45:26.262
210, -1507.04, 27317.41, -172020.67, -166458.59, -140561.53, -91272.20, -111972.94, 187500.00, 0.000, 0.000, 0.000, 13:45:26.262
211, 3472.28, 32147.42, -177060.17, -173268.53, -150825.91, -101284.18, -122203.04, 187500.00, 0.000, 0.000, 0.000, 13:45:26.262
212, 8034.07, 36715.87, -184569.39, -184356.33, -177155.50, -127009.94, -148540.64, 187500.00, 0.000, 0.000, 0.000, 13:45:26.263
213, 7318.74, 36058.48, -185196.16, -185211.06, -183636.30, -133312.03, -155002.69, 187500.00, 0.000, 0.000, 0.000, 13:45:26.263
214, 3287.96, 32107.07, -183037.31, -181950.91, -170450.31, -120526.03, -141932.66, 187500.00, 0.000, 0.000, 0.000, 13:45:26.263
215, -1505.32, 27317.74, -172112.20, -166578.77, -140677.11, -91444.18, -112163.11, 187500.00, 0.006, -0.092, 1.030, 13:45:26.263
216, 3431.80, 32106.92, -177031.53, -173240.23, -150734.53, -101253.40, -122186.12, 187500.00, 0.000, 0.000, 0.000, 13:45:26.263
217, 8023.14, 36701.70, -184559.67, -184344.84, -177122.34, -127035.87, -148583.59, 187500.00, 0.000, 0.000, 0.000, 13:45:26.263
218, 7322.79, 36062.95, -185191.17, -185206.17, -183665.89, -133397.03, -155109.39, 187500.00, 0.000, 0.000, 0.000, 13:45:26.263
219, 3300.91, 32119.70, -183069.94, -182011.39, -170603.44, -120731.70, -142166.28, 187500.00, 0.000, 0.000, 0.000, 13:45:26.263
220, -1518.56, 27306.54, -172182.83, -166688.78, -140770.81, -91593.73, -112342.81, 187500.00, 0.000, 0.000, 0.000, 13:45:26.264
221, 3397.62, 32076.85, -176991.88, -173198.31, -150628.52, -101206.93, -122166.56, 187500.00, 0.000, 0.000, 0.000, 13:45:26.264
222, 8010.33, 36693.65, -184547.48, -184330.73, -177080.14, -127052.34, -148627.31, 187500.00, 0.000, 0.000, 0.000, 13:45:26.264
223, 7327.71, 36067.40, -185189.92, -185204.88, -183695.66, -133482.59, -155221.55, 187500.00, 0.000, 0.000, 0.000, 13:45:26.264
224, 3336.98, 32148.87, -183095.52, -182057.36, -170744.08, -120926.02, -142387.17, 187500.00, 0.000, 0.000, 0.000, 13:45:26.264
225, -1512.34, 27305.27, -172245.31, -166788.83, -140862.95, -91745.59, -112518.05, 187500.00, 0.002, -0.090, 1.028, 13:45:26.264
226, 3365.68, 32041.63, -176978.00, -173183.56, -150540.77, -101184.60, -122161.27, 187500.00, 0.000, 0.000, 0.000, 13:45:26.264
227, 8003.02, 36681.56, -184540.52, -184320.95, -177033.61, -127071.59, -148665.16, 187500.00, 0.000, 0.000, 0.000, 13:45:26.264
228, 7329.40, 36064.70, -185189.11, -185204.02, -183720.45, -133571.00, -155331.77, 187500.00, 0.000, 0.000, 0.000, 13:45:26.264
229, 3367.60, 32180.43, -183129.02, -182109.92, -170887.38, -121128.16, -142615.80, 187500.00, 0.000, 0.000, 0.000, 13:45:26.265
230, -1508.43, 27311.17, -172327.77, -166900.33, -140970.97, -91913.39, -112711.44, 187500.00, 0.000, 0.000, 0.000, 13:45:26.265
231, 3336.27, 32006.71, -176951.41, -173147.42, -150445.25, -101152.64, -122148.68, 187500.00, 0.000, 0.000, 0.000, 13:45:26.265
232, 8004.00, 36681.11, -184527.77, -184305.22, -177001.33, -127101.54, -148713.23, 187500.00, 0.000, 0.000, 0.000, 13:45:26.265
233, 7344.65, 36081.08, -185183.58, -185198.66, -183757.38, -133665.48, -155446.92, 187500.00, 0.000, 0.000, 0.000, 13:45:26.265
234, 3394.00, 32203.86, -183159.84, -182158.11, -171038.56, -121331.48, -142844.58, 187500.00, 0.000, 0.000, 0.000, 13:45:26.265
235, -1498.95, 27317.34, -172413.64, -167008.67, -141081.75, -92078.74, -112905.95, 187500.00, 0.000, -0.090, 1.030, 13:45:26.265
236, 3312.62, 31984.54, -176937.05, -173130.53, -150370.81, -101134.64, -122159.09, 187500.00, 0.000, 0.000, 0.000, 13:45:26.265
237, 7991.78, 36666.27, -184521.38, -184296.86, -176976.33, -127133.08, -148775.86, 187500.00, 0.000, 0.000, 0.000, 13:45:26.266
238, 7345.57, 36087.07, -185183.55, -185198.45, -183799.73, -133763.72, -155574.95, 187500.00, 0.000, 0.000, 0.000, 13:45:26.266
239, 3417.60, 32233.67, -183194.80, -182209.25, -171193.97, -121538.88, -143078.25, 187500.00, 0.000, 0.000, 0.000, 13:45:26.266
240, -1496.99, 27328.20, -172496.28, -167115.63, -141185.50, -92239.14, -113087.13, 187500.00, 0.000, 0.000, 0.000, 13:45:26.732
241, 3282.04, 31957.14, -176905.92, -173095.50, -150270.23, -101094.74, -122134.22, 187500.00, 0.000, 0.000, 0.000, 13:45:26.732
242, 7992.76, 36667.50, -184511.75, -184284.88, -176930.75, -127147.88, -148806.42, 187500.00, 0.000, 0.000, 0.000, 13:45:26.732
243, 7356.03, 36088.77, -185182.19, -185197.19, -183819.33, -133841.17, -155669.25, 187500.00, 0.000, 0.000, 0.000, 13:45:26.732
244, 3443.38, 32254.50, -183220.38, -182251.36, -171321.16, -121719.57, -143279.19, 187500.00, 0.000, 0.000, 0.000, 13:45:26.732
245, -1502.95, 27319.55, -172541.73, -167185.80, -141250.41, -92360.91, -113228.41, 187500.00, 0.002, -0.092, 1.030, 13:45:26.732
246, 3249.05, 31921.75, -176861.02, -173042.75, -150139.50, -101027.29, -122080.69, 187500.00, 0.000, 0.000, 0.000, 13:45:26.733
247, 7993.27, 36666.98, -184498.67, -184268.61, -176856.09, -127133.81, -148808.50, 187500.00, 0.000, 0.000, 0.000, 13:45:26.733
248, 7362.96, 36096.39, -185176.75, -185191.81, -183818.14, -133896.47, -155746.50, 187500.00, 0.000, 0.000, 0.000, 13:45:26.733
249, 3464.16, 32274.64, -183243.97, -182293.73, -171422.41, -121869.87, -143459.39, 187500.00, 0.000, 0.000, 0.000, 13:45:26.733
250, -1503.62, 27321.45, -172614.83, -167285.17, -141336.58, -92493.66, -113392.32, 187500.00, 0.000, 0.000, 0.000, 13:45:26.733
251, 3212.97, 31894.71, -176833.34, -173005.83, -150038.19, -100975.37, -122056.55, 187500.00, 0.000, 0.000, 0.000, 13:45:26.733
252, 7982.46, 36663.21, -184487.17, -184254.08, -176805.20, -127131.98, -148835.03, 187500.00, 0.000, 0.000, 0.000, 13:45:26.733
253, 7370.51, 36112.66, -185174.11, -185189.11, -183833.50, -133960.34, -155838.34, 187500.00, 0.000, 0.000, 0.000, 13:45:26.733
254, 3492.04, 32308.26, -183269.14, -182331.63, -171540.27, -122038.24, -143652.58, 187500.00, 0.000, 0.000, 0.000, 13:45:26.734
255, -1495.26, 27329.46, -172658.61, -167343.50, -141390.45, -92609.55, -113530.63, 187500.00, 0.006, -0.092, 1.028, 13:45:26.734
0, 3188.05, 31864.62, -176777.06, -172936.73, -149895.84, -100900.06, -122000.04, 187500.00, 0.000, 0.000, 0.000, 13:45:26.734
1, 7978.66, 36655.05, -184472.42, -184235.56, -176729.05, -127123.82, -148845.42, 187500.00, 0.000, 0.000, 0.000, 13:45:26.734
2, 7375.87, 36111.23, -185168.03, -185183.23, -183825.52, -134021.64, -155916.23, 187500.00, 0.000, 0.000, 0.000, 13:45:26.734
3, 3510.68, 32319.75, -183290.92, -182371.86, -171657.64, -122220.54, -143853.86, 187500.00, 0.000, 0.000, 0.000, 13:45:26.734
4, -1506.06, 27319.40, -172697.48, -167415.13, -141462.53, -92745.59, -113681.77, 187500.00, 0.000, 0.000, 0.000, 13:45:26.734
5, 3150.37, 31831.45, -176727.17, -172873.73, -149783.64, -100856.45, -121965.35, 187500.00, 0.000, 0.000, 0.000, 13:45:26.734
6, 7966.70, 36644.68, -184459.19, -184217.50, -176672.66, -127135.02, -148868.11, 187500.00, 0.000, 0.000, 0.000, 13:45:26.734
7, 7382.71, 36117.04, -185164.97, -185180.00, -183834.84, -134095.42, -156005.88, 187500.00, 0.000, 0.000, 0.000, 13:45:26.735
8, 3543.06, 32355.54, -183314.72, -182411.47, -171776.08, -122400.88, -144052.78, 187500.00, 0.000, 0.000, 0.000, 13:45:26.735
9, -1495.33, 27327.87, -172765.64, -167515.03, -141551.11, -92900.35, -113857.37, 187500.00, 0.008, -0.092, 1.030, 13:45:26.735
10, 3119.92, 31795.42, -176695.83, -172843.28, -149671.13, -100812.53, -121938.84, 187500.00, 0.000, 0.000, 0.000, 13:45:26.735
11, 7965.49, 36641.79, -184448.36, -184204.09, -176613.17, -127140.00, -148891.89, 187500.00, 0.000, 0.000, 0.000, 13:45:26.735
12, 7387.59, 36119.77, -185160.75, -185175.84, -183853.17, -134176.31, -156106.56, 187500.00, 0.000, 0.000, 0.000, 13:45:26.735
13, 3562.55, 32371.43, -183341.39, -182456.48, -171910.41, -122592.14, -144268.33, 187500.00, 0.000, 0.000, 0.000, 13:45:26.735
14, -1496.58, 27323.46, -172823.48, -167607.91, -141639.92, -93048.56, -114027.51, 187500.00, 0.000, 0.000, 0.000, 13:45:26.735
15, 3091.13, 31762.81, -176652.98, -172800.23, -149553.64, -100759.02, -121898.25, 187500.00, 0.000, 0.000, 0.000, 13:45:26.736
16, 7960.44, 36635.09, -184435.66, -184188.77, -176555.69, -127145.84, -148910.47, 187500.00, 0.000, 0.000, 0.000, 13:45:26.736
17, 7396.57, 36132.51, -185159.75, -185174.88, -183868.59, -134251.09, -156200.17, 187500.00, 0.000, 0.000, 0.000, 13:45:26.736
18, 3589.53, 32396.51, -183365.23, -182496.33, -172038.75, -122772.18, -144471.48, 187500.00, 0.000, 0.000, 0.000, 13:45:26.736
19, -1493.92, 27324.98, -172877.08, -167694.42, -141721.14, -93182.84, -114185.13, 187500.00, 0.008, -0.096, 1.028, 13:45:26.736
20, 3063.44, 31741.80, -176623.97, -172774.42, -149457.33, -100720.58, -121882.27, 187500.00, 0.000, 0.000, 0.000, 13:45:26.736
21, 7956.28, 36633.88, -184425.59, -184176.63, -176506.13, -127153.23, -148942.61, 187500.00, 0.000, 0.000, 0.000, 13:45:26.736
22, 7412.29, 36149.59, -185159.31, -185174.50, -183888.89, -134326.69, -156299.06, 187500.00, 0.000, 0.000, 0.000, 13:45:26.736
23, 3625.25, 32432.71, -183394.53, -182548.95, -172165.22, -122949.95, -144674.39, 187500.00, 0.000, 0.000, 0.000, 13:45:26.736
24, -1483.46, 27338.98, -172952.34, -167809.50, -141826.89, -93340.34, -114369.05, 187500.00, 0.000, 0.000, 0.000, 13:45:26.737
25, 3032.93, 31709.10, -176588.13, -172725.83, -149341.00, -100660.90, -121843.38, 187500.00, 0.000, 0.000, 0.000, 13:45:26.737
26, 7959.17, 36633.14, -184413.03, -184159.97, -176440.97, -127141.95, -148953.19, 187500.00, 0.000, 0.000, 0.000, 13:45:26.737
27, 7422.30, 36155.98, -185154.56, -185169.75, -183891.95, -134382.84, -156375.45, 187500.00, 0.000, 0.000, 0.000, 13:45:26.737
28, 3654.04, 32459.87, -183417.94, -182584.70, -172278.66, -123114.43, -144857.66, 187500.00, 0.000, 0.000, 0.000, 13:45:26.737
29, -1472.00, 27347.87, -173018.25, -167890.30, -141916.27, -93483.30, -114529.80, 187500.00, 0.008, -0.098, 1.024, 13:45:26.737
30, 3007.18, 31681.16, -176551.97, -172674.31, -149221.45, -100597.69, -121795.05, 187500.00, 0.000, 0.000, 0.000, 13:45:26.737
31, 7955.30, 36625.68, -184398.00, -184140.38, -176364.72, -127122.16, -148949.31, 187500.00, 0.000, 0.000, 0.000, 13:45:26.737
32, 7430.59, 36161.61, -185146.67, -185161.86, -183883.92, -134429.05, -156439.08, 187500.00, 0.000, 0.000, 0.000, 13:45:26.738
33, 3677.60, 32483.25, -183429.47, -182611.16, -172378.55, -123266.55, -145032.06, 187500.00, 0.000, 0.000, 0.000, 13:45:26.738
34, -1478.59, 27343.00, -173036.63, -167940.14, -141964.55, -93591.27, -114658.45, 187500.00, 0.000, 0.000, 0.000, 13:45:26.738
35, 2970.73, 31643.72, -176489.81, -172606.27, -149069.28, -100512.57, -121724.51, 187500.00, 0.000, 0.000, 0.000, 13:45:26.738
36, 7940.97, 36613.86, -184382.50, -184120.98, -176265.36, -127087.79, -148928.30, 187500.00, 0.000, 0.000, 0.000, 13:45:26.738
37, 7426.68, 36158.13, -185140.92, -185155.94, -183857.48, -134466.38, -156491.02, 187500.00, 0.000, 0.000, 0.000, 13:45:26.738
38, 3698.12, 32501.09, -183449.64, -182643.11, -172462.52, -123408.85, -145192.64, 187500.00, 0.004, -0.100, 1.030, 13:45:26.738
39, -1473.18, 27350.91, -173072.91, -168000.56, -142022.52, -93703.77, -114790.93, 187500.00, 0.000, 0.000, 0.000, 13:45:26.738
40, 2937.82, 31616.72, -176431.13, -172541.95, -148921.47, -100423.05, -121650.91, 187500.00, 0.000, 0.000, 0.000, 13:45:26.738
41, 7940.48, 36611.66, -184365.19, -184099.95, -176162.77, -127043.87, -148905.11, 187500.00, 0.000, 0.000, 0.000, 13:45:26.739
42, 7439.58, 36171.34, -185133.09, -185148.19, -183823.06, -134489.81, -156541.20, 187500.00, 0.000, 0.000, 0.000, 13:45:26.739
43, 3731.80, 32540.58, -183464.14, -182670.78, -172534.81, -123539.05, -145350.30, 187500.00, 0.000, 0.000, 0.000, 13:45:26.739
44, -1461.33, 27365.82, -173114.86, -168066.81, -142082.30, -93822.18, -114931.15, 187500.00, 0.000, 0.000, 0.000, 13:45:26.739
45, 2914.85, 31595.15, -176381.31, -172482.64, -148778.50, -100341.13, -121583.92, 187500.00, 0.000, 0.000, 0.000, 13:45:26.739
46, 7940.88, 36611.35, -184348.53, -184078.80, -176061.67, -127000.73, -148878.13, 187500.00, 0.000, 0.000, 0.000, 13:45:26.739
47, 7455.89, 36183.96, -185127.28, -185142.59, -183798.67, -134523.64, -156590.91, 187500.00, 0.000, 0.000, 0.000, 13:45:26.739
48, 3765.20, 32571.25, -183481.75, -182700.77, -172626.16, -123685.61, -145516.42, 187500.00, 0.002, -0.098, 1.032, 13:45:26.739
49, -1455.10, 27370.25, -173140.30, -168114.33, -142134.88, -93927.26, -115059.55, 187500.00, 0.000, 0.000, 0.000, 13:45:26.740
50, 2879.78, 31559.86, -176318.91, -172403.45, -148637.17, -100257.38, -121521.22, 187500.00, 0.000, 0.000, 0.000, 13:45:26.740
51, 7926.67, 36601.50, -184333.44, -184057.75, -175964.91, -126961.44, -148856.95, 187500.00, 0.000, 0.000, 0.000, 13:45:26.740
52, 7462.53, 36191.90, -185123.89, -185138.98, -183769.38, -134547.02, -156631.56, 187500.00, 0.000, 0.000, 0.000, 13:45:26.740
53, 3796.44, 32599.88, -183499.23, -182729.69, -172697.38, -123806.06, -145656.77, 187500.00, 0.000, 0.000, 0.000, 13:45:26.740
54, -1434.67, 27387.50, -173186.31, -168188.16, -142199.69, -94042.93, -115194.67, 187500.00, 0.000, 0.000, 0.000, 13:45:26.740
55, 2856.08, 31534.87, -176265.88, -172344.11, -148494.39, -100171.10, -121448.13, 187500.00, 0.000, 0.000, 0.000, 13:45:26.740
56, 7928.81, 36602.34, -184316.97, -184036.30, -175873.02, -126921.96, -148833.80, 187500.00, 0.000, 0.000, 0.000, 13:45:26.740
57, 7478.83, 36212.17, -185115.27, -185130.42, -183749.86, -134580.23, -156683.67, 187500.00, 0.000, 0.000, 0.000, 13:45:26.740
58, 3820.65, 32627.44, -183513.83, -182764.47, -172799.97, -123960.13, -145832.08, 187500.00, 0.008, -0.098, 1.020, 13:45:26.741
59, -1441.82, 27388.46, -173202.41, -168244.77, -142252.83, -94147.53, -115316.80, 187500.00, 0.000, 0.000, 0.000, 13:45:26.741
60, 2835.50, 31518.84, -176204.30, -172280.13, -148366.88, -100099.52, -121388.56, 187500.00, 0.000, 0.000, 0.000, 13:45:26.741
61, 7931.36, 36602.52, -184299.20, -184015.73, -175790.11, -126894.94, -148822.16, 187500.00, 0.000, 0.000, 0.000, 13:45:26.741
62, 7482.47, 36214.99, -185110.38, -185125.59, -183729.45, -134614.81, -156738.34, 187500.00, 0.000, 0.000, 0.000, 13:45:26.741
63, 3841.33, 32647.05, -183531.00, -182791.31, -172875.58, -124086.64, -145982.91, 187500.00, 0.000, 0.000, 0.000, 13:45:26.741
64, -1433.28, 27395.66, -173255.92, -168317.22, -142324.86, -94267.67, -115463.45, 187500.00, 0.000, 0.000, 0.000, 13:45:26.741
65, 2798.64, 31481.29, -176161.94, -172221.19, -148227.17, -100011.16, -121321.35, 187500.00, 0.000, 0.000, 0.000, 13:45:26.741
66, 7922.11, 36596.58, -184284.03, -183994.91, -175692.34, -126848.88, -148796.56, 187500.00, 0.000, 0.000, 0.000, 13:45:26.742
67, 7492.82, 36223.13, -185104.11, -185119.28, -183712.69, -134646.69, -156795.41, 187500.00, 0.000, 0.000, 0.000, 13:45:26.742
68, 3873.31, 32674.43, -183549.72, -182826.22, -172975.58, -124230.45, -146155.91, 187500.00, 0.008, -0.102, 1.022, 13:45:26.742
69, -1419.87, 27403.19, -173302.09, -168397.98, -142414.00, -94400.71, -115626.73, 187500.00, 0.000, 0.000, 0.000, 13:45:26.742
70, 2773.14, 31449.26, -176114.06, -172169.72, -148109.45, -99942.89, -121279.76, 187500.00, 0.000, 0.000, 0.000, 13:45:26.742
71, 7921.73, 36588.53, -184271.83, -183979.22, -175616.47, -126820.77, -148796.03, 187500.00, 0.000, 0.000, 0.000, 13:45:26.742
72, 7501.60, 36232.42, -185101.50, -185116.63, -183703.50, -134686.20, -156861.55, 187500.00, 0.000, 0.000, 0.000, 13:45:26.742
73, 3894.75, 32701.79, -183565.91, -182853.52, -173068.19, -124371.70, -146323.39, 187500.00, 0.000, 0.000, 0.000, 13:45:26.742
74, -1412.65, 27419.62, -173344.23, -168465.31, -142481.13, -94522.22, -115771.91, 187500.00, 0.000, 0.000, 0.000, 13:45:26.743
75, 2744.28, 31430.49, -176072.78, -172124.77, -147989.75, -99879.46, -121236.39, 187500.00, 0.000, 0.000, 0.000, 13:45:26.743
76, 7911.73, 36582.65, -184255.69, -183959.45, -175533.88, -126793.44, -148786.86, 187500.00, 0.000, 0.000, 0.000, 13:45:26.743
77, 7511.53, 36245.59, -185093.16, -185108.17, -183693.53, -134730.09, -156922.41, 187500.00, 0.000, 0.000, 0.000, 13:45:26.743
78, 3927.34, 32735.43, -183583.92, -182883.20, -173163.66, -124518.79, -146489.13, 187500.00, 0.004, -0.100, 1.020, 13:45:26.743
79, -1403.62, 27429.84, -173396.84, -168541.41, -142562.94, -94657.00, -115924.91, 187500.00, 0.000, 0.000, 0.000, 13:45:26.743
80, 2713.61, 31401.05, -176024.23, -172071.97, -147864.50, -99812.63, -121182.44, 187500.00, 0.000, 0.000, 0.000, 13:45:26.743
81, 7898.52, 36574.96, -184238.52, -183938.91, -175447.83, -126766.10, -148776.48, 187500.00, 0.000, 0.000, 0.000, 13:45:26.743
82, 7501.94, 36239.17, -185088.00, -185103.19, -183680.02, -134775.22, -156989.23, 187500.00, 0.000, 0.000, 0.000, 13:45:26.743
83, 3938.73, 32743.94, -183601.67, -182913.58, -173262.36, -124672.91, -146670.39, 187500.00, 0.000, 0.000, 0.000, 13:45:26.744
84, -1409.88, 27416.07, -173451.41, -168623.83, -142647.91, -94796.90, -116093.19, 187500.00, 0.000, 0.000, 0.000, 13:45:26.744
85, 2676.73, 31356.28, -175991.70, -172038.17, -147761.44, -99768.98, -121164.82, 187500.00, 0.000, 0.000, 0.000, 13:45:26.744
86, 7894.95, 36561.02, -184227.00, -183924.83, -175380.19, -126753.95, -148790.48, 187500.00, 0.000, 0.000, 0.000, 13:45:26.744
87, 7523.80, 36248.29, -185084.44, -185099.78, -183686.94, -134831.28, -157070.69, 187500.00, 0.000, 0.000, 0.000, 13:45:26.744
88, 3972.22, 32773.11, -183622.02, -182949.88, -173375.97, -124830.40, -146852.91, 187500.00, 0.006, -0.098, 1.026, 13:45:26.744
89, -1395.49, 27430.11, -173518.13, -168721.67, -142751.25, -94945.55, -116265.14, 187500.00, 0.000, 0.000, 0.000, 13:45:26.744
90, 2652.44, 31337.73, -175958.11, -171994.30, -147653.97, -99711.66, -121120.75, 187500.00, 0.000, 0.000, 0.000, 13:45:26.744
91, 7895.37, 36563.95, -184208.97, -183902.44, -175306.72, -126730.81, -148778.97, 187500.00, 0.000, 0.000, 0.000, 13:45:26.745
92, 7526.35, 36254.02, -185078.94, -185094.30, -183692.44, -134885.75, -157139.83, 187500.00, 0.000, 0.000, 0.000, 13:45:26.745
93, 3996.29, 32798.08, -183644.19, -182985.39, -173505.59, -125003.94, -147045.48, 187500.00, 0.000, 0.000, 0.000, 13:45:26.745
94, -1387.73, 27439.94, -173588.14, -168814.03, -142871.41, -95109.38, -116448.27, 187500.00, 0.000, 0.000, 0.000, 13:45:26.745
95, 2612.49, 31298.39, -175916.66, -171942.83, -147544.39, -99647.23, -121073.80, 187500.00, 0.000, 0.000, 0.000, 13:45:26.745
96, 7879.28, 36547.43, -184197.13, -183886.05, -175240.11, -126705.82, -148773.91, 187500.00, 0.000, 0.000, 0.000, 13:45:26.745
97, 7530.97, 36262.26, -185074.19, -185089.41, -183696.84, -134929.41, -157205.52, 187500.00, 0.000, 0.000, 0.000, 13:45:26.745
98, 4021.55, 32822.86, -183656.39, -183005.92, -173609.48, -125141.58, -147207.67, 187500.00, 0.006, -0.096, 1.028, 13:45:26.745
99, -1384.44, 27441.84, -173630.38, -168871.72, -142951.94, -95224.27, -116587.90, 187500.00, 0.000, 0.000, 0.000, 13:45:26.746
100, 2586.19, 31268.66, -175873.72, -171879.34, -147436.30, -99577.94, -121023.96, 187500.00, 0.000, 0.000, 0.000, 13:45:26.746
101, 7876.84, 36543.67, -184179.17, -183861.11, -175162.81, -126669.05, -148758.14, 187500.00, 0.000, 0.000, 0.000, 13:45:26.746
102, 7534.93, 36266.75, -185068.73, -185084.08, -183690.34, -134965.27, -157261.77, 187500.00, 0.000, 0.000, 0.000, 13:45:26.746
103, 4042.07, 32844.55, -183671.36, -183035.34, -173700.27, -125275.76, -147361.94, 187500.00, 0.000, 0.000, 0.000, 13:45:26.746
104, -1374.59, 27452.50, -173671.80, -168955.64, -143041.28, -95360.23, -116743.94, 187500.00, 0.000, 0.000, 0.000, 13:45:27.213
105, 2557.40, 31240.05, -175820.61, -171830.97, -147315.05, -99509.18, -120970.23, 187500.00, 0.000, 0.000, 0.000, 13:45:27.214
106, 7862.25, 36528.36, -184165.53, -183844.14, -175079.80, -126636.77, -148741.47, 187500.00, 0.000, 0.000, 0.000, 13:45:27.214
107, 7541.14, 36264.30, -185064.88, -185080.22, -183682.05, -135005.56, -157319.78, 187500.00, 0.000, 0.000, 0.000, 13:45:27.214
108, 4072.51, 32868.33, -183692.27, -183068.45, -173808.13, -125428.40, -147534.05, 187500.00, 0.004, -0.094, 1.020, 13:45:27.214
109, -1370.72, 27453.04, -173733.20, -169050.86, -143154.41, -95515.64, -116921.03, 187500.00, 0.000, 0.000, 0.000, 13:45:27.214
110, 2517.95, 31195.55, -175786.88, -171798.50, -147219.36, -99457.75, -120939.63, 187500.00, 0.000, 0.000, 0.000, 13:45:27.215
111, 7846.78, 36507.86, -184152.55, -183827.52, -174999.36, -126601.48, -148728.28, 187500.00, 0.000, 0.000, 0.000, 13:45:27.215
112, 7537.63, 36261.59, -185061.63, -185076.95, -183686.41, -135053.02, -157390.97, 187500.00, 0.000, 0.000, 0.000, 13:45:27.215
113, 4086.48, 32877.54, -183707.22, -183096.31, -173928.02, -125586.31, -147717.22, 187500.00, 0.000, 0.000, 0.000, 13:45:27.215
114, -1367.64, 27446.76, -173797.80, -169148.05, -143266.31, -95675.43, -117105.30, 187500.00, 0.000, 0.000, 0.000, 13:45:27.215
115, 2481.56, 31157.91, -175754.48, -171761.95, -147116.19, -99413.27, -120911.40, 187500.00, 0.000, 0.000, 0.000, 13:45:27.215
116, 7832.59, 36495.88, -184135.75, -183807.02, -174940.59, -126602.76, -148744.50, 187500.00, 0.000, 0.000, 0.000, 13:45:27.216
117, 7541.10, 36266.22, -185056.34, -185071.70, -183696.89, -135123.53, -157480.75, 187500.00, 0.000, 0.000, 0.000, 13:45:27.216
118, 4107.22, 32900.76, -183726.13, -183131.72, -174043.78, -125757.44, -147913.38, 187500.00, 0.002, -0.096, 1.022, 13:45:27.216
119, -1364.78, 27457.73, -173857.03, -169242.06, -143359.19, -95823.96, -117277.16, 187500.00, 0.000, 0.000, 0.000, 13:45:27.216
120, 2450.82, 31131.69, -175713.52, -171714.77, -147008.33, -99361.57, -120876.91, 187500.00, 0.000, 0.000, 0.000, 13:45:27.216
121, 7825.46, 36490.29, -184119.78, -183787.86, -174866.45, -126581.14, -148740.73, 187500.00, 0.000, 0.000, 0.000, 13:45:27.216
122, 7547.13, 36271.11, -185051.19, -185066.58, -183688.89, -135164.97, -157538.73, 187500.00, 0.000, 0.000, 0.000, 13:45:27.216
123, 4134.20, 32928.97, -183743.72, -183159.91, -174151.91, -125913.38, -148083.83, 187500.00, 0.000, 0.000, 0.000, 13:45:27.216
124, -1359.75, 27469.47, -173913.22, -169319.20, -143460.44, -95973.73, -117440.87, 187500.00, 0.000, 0.000, 0.000, 13:45:27.216
125, 2417.10, 31099.57, -175680.70, -171669.14, -146890.45, -99297.78, -120823.85, 187500.00, 0.000, 0.000, 0.000, 13:45:27.217
126, 7820.94, 36484.15, -184101.86, -183763.88, -174772.44, -126544.33, -148715.25, 187500.00, 0.000, 0.000, 0.000, 13:45:27.217
127, 7553.91, 36280.21, -185044.47, -185059.86, -183678.94, -135211.42, -157599.03, 187500.00, 0.000, 0.000, 0.000, 13:45:27.217
128, 4153.38, 32947.54, -183762.31, -183188.41, -174238.92, -126050.13, -148240.19, 187500.00, 0.008, -0.096, 1.022, 13:45:27.217
129, -1350.43, 27470.96, -173976.63, -169404.09, -143554.66, -96115.67, -117604.57, 187500.00, 0.000, 0.000, 0.000, 13:45:27.217
130, 2383.97, 31063.18, -175636.27, -171620.89, -146779.47, -99237.74, -120781.83, 187500.00, 0.000, 0.000, 0.000, 13:45:27.217
131, 7814.17, 36472.39, -184090.25, -183749.38, -174697.23, -126515.25, -148706.83, 187500.00, 0.000, 0.000, 0.000, 13:45:27.217
132, 7566.80, 36287.90, -185042.73, -185058.16, -183674.30, -135248.03, -157659.31, 187500.00, 0.000, 0.000, 0.000, 13:45:27.217
133, 4183.98, 32978.41, -183777.27, -183211.70, -174342.75, -126190.97, -148407.91, 187500.00, 0.000, 0.000, 0.000, 13:45:27.218
134, -1346.11, 27482.97, -174019.67, -169464.08, -143641.80, -96240.10, -117758.02, 187500.00, 0.000, 0.000, 0.000, 13:45:27.218
135, 2348.21, 31031.28, -175596.23, -171572.30, -146674.98, -99174.71, -120743.88, 187500.00, 0.000, 0.000, 0.000, 13:45:27.218
136, 7790.99, 36453.75, -184072.06, -183727.11, -174615.44, -126476.16, -148692.22, 187500.00, 0.000, 0.000, 0.000, 13:45:27.218
137, 7558.33, 36281.62, -185036.23, -185051.53, -183659.38, -135275.34, -157713.13, 187500.00, 0.000, 0.000, 0.000, 13:45:27.218
138, 4201.81, 32993.25, -183786.47, -183232.02, -174427.67, -126314.89, -148562.14, 187500.00, 0.002, -0.096, 1.024, 13:45:27.218
139, -1335.36, 27489.43, -174046.25, -169523.27, -143715.91, -96355.15, -117901.73, 187500.00, 0.000, 0.000, 0.000, 13:45:27.218
140, 2316.22, 30995.92, -175527.14, -171499.83, -146523.33, -99068.27, -120661.84, 187500.00, 0.000, 0.000, 0.000, 13:45:27.219
141, 7790.57, 36449.50, -184051.95, -183702.25, -174500.84, -126405.70, -148644.92, 187500.00, 0.000, 0.000, 0.000, 13:45:27.219
142, 7572.86, 36292.35, -185029.81, -185045.25, -183623.91, -135284.89, -157744.66, 187500.00, 0.000, 0.000, 0.000, 13:45:27.219
143, 4222.36, 33015.18, -183799.17, -183253.50, -174497.81, -126430.00, -148700.47, 187500.00, 0.000, 0.000, 0.000, 13:45:27.219
144, -1334.29, 27492.87, -174081.30, -169583.03, -143795.52, -96475.31, -118046.64, 187500.00, 0.000, 0.000, 0.000, 13:45:27.219
145, 2282.18, 30963.78, -175467.25, -171423.25, -146393.28, -98982.59, -120595.44, 187500.00, 0.000, 0.000, 0.000, 13:45:27.219
146, 7769.44, 36429.83, -184030.73, -183672.02, -174387.72, -126332.75, -148596.50, 187500.00, 0.000, 0.000, 0.000, 13:45:27.219
147, 7564.59, 36284.88, -185019.27, -185034.58, -183582.16, -135279.22, -157770.56, 187500.00, 0.000, 0.000, 0.000, 13:45:27.219
148, 4244.62, 33035.34, -183809.55, -183274.94, -174556.44, -126526.59, -148829.11, 187500.00, 0.004, -0.094, 1.032, 13:45:27.219
149, -1323.42, 27497.88, -174109.48, -169645.42, -143858.50, -96583.07, -118183.28, 187500.00, 0.000, 0.000, 0.000, 13:45:27.220
150, 2253.37, 30931.10, -175399.03, -171355.16, -146243.64, -98884.27, -120520.65, 187500.00, 0.000, 0.000, 0.000, 13:45:27.220
151, 7767.63, 36422.79, -184013.08, -183649.75, -174274.63, -126271.08, -148557.05, 187500.00, 0.000, 0.000, 0.000, 13:45:27.220
152, 7575.21, 36295.01, -185016.52, -185031.95, -183548.58, -135296.83, -157811.38, 187500.00, 0.000, 0.000, 0.000, 13:45:27.220
153, 4265.41, 33055.30, -183821.34, -183301.05, -174622.69, -126639.30, -148971.59, 187500.00, 0.000, 0.000, 0.000, 13:45:27.220
154, -1318.08, 27506.23, -174144.77, -169718.63, -143930.75, -96697.63, -118329.08, 187500.00, 0.000, 0.000, 0.000, 13:45:27.220
155, 2213.96, 30890.20, -175351.16, -171292.61, -146110.91, -98798.22, -120460.45, 187500.00, 0.000, 0.000, 0.000, 13:45:27.220
156, 7756.30, 36409.85, -183993.58, -183623.80, -174168.86, -126211.27, -148523.78, 187500.00, 0.000, 0.000, 0.000, 13:45:27.220
157, 7582.20, 36297.53, -185007.02, -185022.64, -183523.02, -135314.23, -157854.61, 187500.00, 0.000, 0.000, 0.000, 13:45:27.221
158, 4291.67, 33074.99, -183830.02, -183315.95, -174697.52, -126756.63, -149114.00, 187500.00, 0.004, -0.098, 1.026, 13:45:27.221
159, -1305.25, 27517.86, -174177.39, -169763.86, -143997.23, -96805.94, -118464.33, 187500.00, 0.000, 0.000, 0.000, 13:45:27.221
160, 2185.29, 30870.33, -175292.14, -171223.56, -145970.77, -98706.13, -120390.70, 187500.00, 0.000, 0.000, 0.000, 13:45:27.221
161, 7741.84, 36400.55, -183974.77, -183599.66, -174049.88, -126139.54, -148473.88, 187500.00, 0.000, 0.000, 0.000, 13:45:27.221
162, 7582.25, 36302.34, -185001.61, -185017.09, -183480.69, -135317.59, -157882.23, 187500.00, 0.000, 0.000, 0.000, 13:45:27.221
163, 4304.83, 33096.03, -183841.45, -183336.13, -174758.97, -126859.83, -149243.02, 187500.00, 0.000, 0.000, 0.000, 13:45:27.221
164, -1311.60, 27520.25, -174200.92, -169808.00, -144058.69, -96905.78, -118586.64, 187500.00, 0.000, 0.000, 0.000, 13:45:27.221
165, 2140.81, 30828.58, -175216.53, -171136.55, -145817.05, -98592.87, -120295.95, 187500.00, 0.000, 0.000, 0.000, 13:45:27.221
166, 7726.64, 36386.96, -183953.95, -183572.77, -173935.95, -126065.45, -148417.97, 187500.00, 0.000, 0.000, 0.000, 13:45:27.222
167, 7584.35, 36309.65, -184995.56, -185011.02, -183441.52, -135319.36, -157902.63, 187500.00, 0.002, -0.096, 1.024, 13:45:27.222
168, 4328.50, 33122.63, -183851.61, -183354.19, -174813.13, -126954.82, -149358.47, 187500.00, 0.000, 0.000, 0.000, 13:45:27.222
169, -1297.34, 27532.16, -174246.28, -169872.61, -144137.44, -97023.55, -118726.92, 187500.00, 0.000, 0.000, 0.000, 13:45:27.222
170, 2110.54, 30797.64, -175165.45, -171075.80, -145688.39, -98507.40, -120228.78, 187500.00, 0.000, 0.000, 0.000, 13:45:27.222
171, 7712.45, 36373.82, -183932.86, -183546.06, -173827.52, -125999.04, -148372.94, 187500.00, 0.000, 0.000, 0.000, 13:45:27.222
172, 7577.00, 36302.50, -184988.44, -185003.84, -183418.45, -135336.28, -157943.61, 187500.00, 0.000, 0.000, 0.000, 13:45:27.222
173, 4334.20, 33130.67, -183862.36, -183375.69, -174898.58, -127077.13, -149507.23, 187500.00, 0.000, 0.000, 0.000, 13:45:27.222
174, -1306.44, 27526.69, -174272.23, -169931.86, -144221.11, -97145.04, -118873.50, 187500.00, 0.000, 0.000, 0.000, 13:45:27.222
175, 2067.13, 30755.53, -175102.55, -171011.77, -145559.16, -98420.41, -120160.00, 187500.00, 0.000, 0.000, 0.000, 13:45:27.223
176, 7690.01, 36353.03, -183909.80, -183518.75, -173718.95, -125932.07, -148324.70, 187500.00, 0.000, 0.000, 0.000, 13:45:27.223
177, 7577.98, 36302.79, -184975.86, -184991.44, -183376.52, -135338.17, -157964.47, 187500.00, 0.004, -0.096, 1.028, 13:45:27.223
178, 4352.56, 33146.90, -183866.38, -183387.86, -174950.47, -127171.50, -149621.75, 187500.00, 0.000, 0.000, 0.000, 13:45:27.223
179, -1301.14, 27534.46, -174294.36, -169979.11, -144288.44, -97250.78, -118999.86, 187500.00, 0.000, 0.000, 0.000, 13:45:27.223
180, 2032.22, 30720.50, -175020.80, -170922.36, -145401.77, -98304.58, -120059.59, 187500.00, 0.000, 0.000, 0.000, 13:45:27.223
181, 7681.87, 36345.01, -183886.52, -183488.69, -173592.09, -125843.76, -148250.11, 187500.00, 0.000, 0.000, 0.000, 13:45:27.223
182, 7583.43, 36307.03, -184970.00, -184985.69, -183331.44, -135324.05, -157967.13, 187500.00, 0.000, 0.000, 0.000, 13:45:27.223
183, 4376.45, 33168.49, -183872.97, -183403.41, -175007.88, -127255.72, -149727.22, 187500.00, 0.000, 0.000, 0.000, 13:45:27.224
184, -1288.44, 27544.48, -174308.28, -170019.48, -144351.34, -97338.78, -119111.16, 187500.00, 0.000, 0.000, 0.000, 13:45:27.224
185, 2001.44, 30695.05, -174945.53, -170826.58, -145250.17, -98186.72, -119960.00, 187500.00, 0.000, 0.000, 0.000, 13:45:27.224
186, 7670.81, 36335.78, -183863.75, -183455.89, -173464.31, -125750.66, -148176.23, 187500.00, 0.000, 0.000, 0.000, 13:45:27.224
187, 7590.52, 36315.73, -184960.14, -184975.77, -183278.95, -135308.47, -157970.61, 187500.00, 0.002, -0.092, 1.026, 13:45:27.224
188, 4405.66, 33198.31, -183879.45, -183417.72, -175057.67, -127343.85, -149837.23, 187500.00, 0.000, 0.000, 0.000, 13:45:27.224
189, -1283.46, 27547.63, -174331.48, -170067.16, -144407.83, -97438.11, -119231.51, 187500.00, 0.000, 0.000, 0.000, 13:45:27.224
190, 1957.95, 30647.55, -174871.48, -170745.02, -145088.09, -98071.16, -119861.41, 187500.00, 0.000, 0.000, 0.000, 13:45:27.225
191, 7654.09, 36310.32, -183837.86, -183423.23, -173326.31, -125657.97, -148100.80, 187500.00, 0.000, 0.000, 0.000, 13:45:27.225
192, 7589.00, 36313.74, -184951.27, -184966.80, -183218.72, -135294.34, -157974.95, 187500.00, 0.000, 0.000, 0.000, 13:45:27.225
193, 4418.29, 33210.42, -183888.00, -183437.11, -175094.27, -127427.34, -149938.56, 187500.00, 0.000, 0.000, 0.000, 13:45:27.225
194, -1273.92, 27561.09, -174354.73, -170121.53, -144461.23, -97531.43, -119345.13, 187500.00, 0.000, 0.000, 0.000, 13:45:27.225
195, 1934.50, 30624.71, -174788.38, -170651.42, -144926.34, -97951.98, -119757.49, 187500.00, 0.000, 0.000, 0.000, 13:45:27.225
196, 7648.72, 36310.81, -183811.44, -183389.98, -173191.25, -125566.02, -148022.50, 187500.00, 0.000, 0.000, 0.000, 13:45:27.225
197, 7594.81, 36316.64, -184939.36, -184954.84, -183163.28, -135282.94, -157979.78, 187500.00, 0.006, -0.094, 1.030, 13:45:27.225
198, 4441.27, 33231.19, -183894.03, -183450.84, -175144.16, -127517.79, -150048.73, 187500.00, 0.000, 0.000, 0.000, 13:45:27.225
199, -1268.73, 27566.88, -174380.91, -170168.39, -144527.33, -97640.04, -119470.67, 187500.00, 0.000, 0.000, 0.000, 13:45:27.226
200, 1888.63, 30585.41, -174719.59, -170575.25, -144775.17, -97849.16, -119665.80, 187500.00, 0.000, 0.000, 0.000, 13:45:27.226
201, 7627.89, 36294.11, -183786.25, -183358.94, -173055.27, -125475.58, -147946.77, 187500.00, 0.000, 0.000, 0.000, 13:45:27.226
202, 7593.58, 36315.46, -184931.55, -184947.14, -183110.05, -135272.86, -157988.88, 187500.00, 0.000, 0.000, 0.000, 13:45:27.226
203, 4461.68, 33248.42, -183901.47, -183466.00, -175193.22, -127607.49, -150161.34, 187500.00, 0.000, 0.000, 0.000, 13:45:27.226
204, -1259.79, 27575.14, -174420.48, -170228.13, -144602.91, -97752.02, -119609.19, 187500.00, 0.000, 0.000, 0.000, 13:45:27.226
205, 1856.33, 30547.97, -174656.92, -170500.20, -144624.08, -97742.14, -119579.52, 187500.00, 0.000, 0.000, 0.000, 13:45:27.226
206, 7619.53, 36278.82, -183763.88, -183329.19, -172925.94, -125391.94, -147881.22, 187500.00, 0.000, 0.000, 0.000, 13:45:27.227
207, 7600.35, 36325.52, -184923.63, -184939.16, -183067.31, -135276.75, -158008.92, 187500.00, 0.002, -0.094, 1.028, 13:45:27.227
208, 4481.28, 33273.77, -183909.36, -183480.72, -175259.22, -127720.12, -150289.38, 187500.00, 0.000, 0.000, 0.000, 13:45:27.227
209, -1248.28, 27585.11, -174441.53, -170269.39, -144670.77, -97863.45, -119735.77, 187500.00, 0.000, 0.000, 0.000, 13:45:27.227
210, 1828.62, 30516.10, -174597.20, -170435.38, -144500.69, -97664.02, -119513.43, 187500.00, 0.000, 0.000, 0.000, 13:45:27.227
211, 7609.16, 36263.78, -183744.83, -183304.69, -172817.78, -125328.26, -147831.39, 187500.00, 0.000, 0.000, 0.000, 13:45:27.227
212, 7608.09, 36331.44, -184918.39, -184933.70, -183040.64, -135289.61, -158041.22, 187500.00, 0.000, 0.000, 0.000, 13:45:27.227
213, 4513.00, 33301.41, -183921.88, -183500.47, -175332.70, -127825.64, -150420.06, 187500.00, 0.000, 0.000, 0.000, 13:45:27.227
214, -1231.51, 27597.43, -174502.13, -170348.55, -144778.17, -98000.86, -119897.68, 187500.00, 0.000, 0.000, 0.000, 13:45:27.228
215, 1792.90, 30484.04, -174546.98, -170373.91, -144376.81, -97576.36, -119444.23, 187500.00, 0.000, 0.000, 0.000, 13:45:27.228
216, 7595.55, 36255.18, -183719.28, -183272.61, -172707.75, -125254.70, -147775.89, 187500.00, 0.000, 0.000, 0.000, 13:45:27.228
217, 7609.20, 36329.63, -184908.13, -184923.73, -183012.77, -135300.06, -158069.45, 187500.00, 0.002, -0.092, 1.026, 13:45:27.228
218, 4526.99, 33316.70, -183927.11, -183516.22, -175411.61, -127942.48, -150555.80, 187500.00, 0.000, 0.000, 0.000, 13:45:27.228
219, -1225.34, 27610.68, -174532.42, -170413.52, -144878.61, -98140.74, -120057.98, 187500.00, 0.000, 0.000, 0.000, 13:45:27.228
220, 1770.44, 30460.87, -174490.23, -170294.72, -144253.50, -97498.57, -119380.69, 187500.00, 0.000, 0.000, 0.000, 13:45:27.228
221, 7593.69, 36249.30, -183699.03, -183240.64, -172601.53, -125192.97, -147727.95, 187500.00, 0.000, 0.000, 0.000, 13:45:27.228
222, 7622.12, 36345.14, -184902.77, -184918.28, -182988.81, -135318.78, -158106.38, 187500.00, 0.000, 0.000, 0.000, 13:45:27.229
223, 4559.29, 33346.48, -183937.06, -183533.25, -175486.98, -128057.25, -150693.42, 187500.00, 0.000, 0.000, 0.000, 13:45:27.229
224, -1215.24, 27615.22, -174568.23, -170475.11, -144966.19, -98265.06, -120206.05, 187500.00, 0.000, 0.000, 0.000, 13:45:27.693
225, 1730.85, 30427.79, -174433.83, -170239.11, -144131.80, -97415.09, -119316.00, 187500.00, 0.000, 0.000, 0.000, 13:45:27.693
226, 7571.85, 36229.81, -183676.11, -183212.89, -172490.39, -125119.96, -147674.81, 187500.00, 0.000, 0.000, 0.000, 13:45:27.694
227, 7619.51, 36344.52, -184893.25, -184908.75, -182953.30, -135322.28, -158130.34, 187500.00, 0.000, -0.092, 1.026, 13:45:27.694
228, 4574.53, 33364.76, -183943.70, -183549.25, -175545.41, -128152.02, -150808.47, 187500.00, 0.000, 0.000, 0.000, 13:45:27.694
229, -1205.36, 27630.69, -174603.97, -170539.31, -145041.34, -98371.99, -120332.71, 187500.00, 0.000, 0.000, 0.000, 13:45:27.694
230, 1701.44, 30400.67, -174378.56, -170173.02, -144003.64, -97323.05, -119238.28, 187500.00, 0.000, 0.000, 0.000, 13:45:27.694
231, 7563.25, 36225.56, -183653.14, -183182.80, -172369.00, -125031.20, -147599.73, 187500.00, 0.000, 0.000, 0.000, 13:45:27.694
232, 7632.25, 36357.08, -184884.22, -184899.64, -182919.16, -135312.36, -158137.38, 187500.00, 0.000, 0.000, 0.000, 13:45:27.695
233, 4606.23, 33394.06, -183951.28, -183563.81, -175605.72, -128233.90, -150910.92, 187500.00, 0.000, 0.000, 0.000, 13:45:27.695
234, -1178.14, 27655.34, -174654.45, -170609.72, -145141.31, -98499.84, -120482.25, 187500.00, 0.000, 0.000, 0.000, 13:45:27.695
235, 1673.12, 30371.95, -174313.42, -170101.03, -143876.00, -97230.33, -119164.73, 187500.00, 0.000, 0.000, 0.000, 13:45:27.695
236, 7554.51, 36214.59, -183629.00, -183152.88, -172257.42, -124957.58, -147547.03, 187500.00, 0.000, 0.000, 0.000, 13:45:27.695
237, 7642.66, 36363.80, -184879.67, -184895.20, -182875.75, -135314.59, -158158.64, 187500.00, 0.004, -0.090, 1.028, 13:45:27.696
238, 4626.27, 33415.50, -183957.84, -183574.89, -175652.50, -128326.26, -151020.41, 187500.00, 0.000, 0.000, 0.000, 13:45:27.696
239, -1175.03, 27662.92, -174665.52, -170633.56, -145182.31, -98586.77, -120585.73, 187500.00, 0.000, 0.000, 0.000, 13:45:27.696
240, 1645.51, 30340.44, -174241.14, -170018.84, -143723.70, -97128.20, -119074.58, 187500.00, 0.000, 0.000, 0.000, 13:45:27.696
241, 7545.93, 36203.30, -183602.36, -183119.75, -172107.88, -124854.18, -147454.77, 187500.00, 0.000, 0.000, 0.000, 13:45:27.696
242, 7639.63, 36360.54, -184868.33, -184883.81, -182801.64, -135280.38, -158138.77, 187500.00, 0.000, 0.000, 0.000, 13:45:27.696
243, 4637.18, 33419.48, -183961.00, -183584.30, -175674.38, -128382.31, -151098.33, 187500.00, 0.000, 0.000, 0.000, 13:45:27.697
244, -1174.16, 27656.86, -174688.16, -170674.16, -145243.58, -98675.84, -120698.86, 187500.00, 0.000, 0.000, 0.000, 13:45:27.697
245, 1610.64, 30301.54, -174161.70, -169925.48, -143569.25, -97005.00, -118967.71, 187500.00, 0.000, 0.000, 0.000, 13:45:27.697
246, 7535.02, 36186.60, -183570.94, -183079.31, -171965.83, -124744.01, -147361.05, 187500.00, 0.000, 0.000, 0.000, 13:45:27.697
247, 7647.52, 36361.44, -184855.64, -184871.19, -182743.61, -135255.03, -158134.50, 187500.00, 0.000, -0.092, 1.030, 13:45:27.697
248, 4667.47, 33448.60, -183964.95, -183595.64, -175717.05, -128457.15, -151194.41, 187500.00, 0.000, 0.000, 0.000, 13:45:27.697
249, -1146.33, 27684.67, -174712.94, -170721.19, -145322.44, -98784.58, -120827.36, 187500.00, 0.000, 0.000, 0.000, 13:45:27.697
250, 1582.50, 30273.49, -174097.11, -169850.94, -143436.30, -96906.92, -118883.85, 187500.00, 0.000, 0.000, 0.000, 13:45:27.698
251, 7516.24, 36168.38, -183546.89, -183047.70, -171840.11, -124654.83, -147285.81, 187500.00, 0.000, 0.000, 0.000, 13:45:27.698
252, 7649.53, 36363.89, -184845.92, -184861.48, -182699.89, -135250.67, -158142.75, 187500.00, 0.000, 0.000, 0.000, 13:45:27.698
253, 4688.12, 33467.89, -183969.77, -183606.05, -175767.73, -128546.89, -151295.31, 187500.00, 0.000, 0.000, 0.000, 13:45:27.698
254, -1136.39, 27692.16, -174755.55, -170777.88, -145407.06, -98906.76, -120960.57, 187500.00, 0.000, 0.000, 0.000, 13:45:27.698
255, 1554.07, 30246.98, -174060.88, -169785.55, -143327.97, -96839.87, -118823.79, 187500.00, 0.000, 0.000, 0.000, 13:45:27.698
0, 7511.75, 36163.09, -183525.67, -183013.70, -171720.75, -124576.84, -147214.47, 187500.00, 0.000, 0.000, 0.000, 13:45:27.698
1, 7655.25, 36366.67, -184838.75, -184854.16, -182657.11, -135247.63, -158150.45, 187500.00, 0.002, -0.094, 1.028, 13:45:27.698
2, 4712.17, 33488.90, -183978.41, -183622.69, -175829.80, -128644.03, -151412.56, 187500.00, 0.000, 0.000, 0.000, 13:45:27.698
3, -1120.47, 27706.71, -174797.67, -170851.72, -145506.47, -99038.37, -121117.98, 187500.00, 0.000, 0.000, 0.000, 13:45:27.699
4, 1517.64, 30210.66, -173994.06, -169717.59, -143193.55, -96742.46, -118750.05, 187500.00, 0.000, 0.000, 0.000, 13:45:27.699
5, 7490.56, 36141.96, -183499.48, -182981.44, -171598.72, -124489.83, -147152.64, 187500.00, 0.000, 0.000, 0.000, 13:45:27.699
6, 7656.19, 36374.94, -184831.02, -184846.59, -182626.13, -135245.17, -158175.33, 187500.00, 0.000, 0.000, 0.000, 13:45:27.699
7, 4727.15, 33508.80, -183986.25, -183636.73, -175888.69, -128729.88, -151524.73, 187500.00, 0.000, 0.000, 0.000, 13:45:27.699
8, -1110.55, 27722.04, -174837.58, -170915.00, -145593.80, -99153.61, -121257.70, 187500.00, 0.000, 0.000, 0.000, 13:45:27.699
9, 1489.45, 30183.88, -173944.88, -169668.89, -143086.05, -96667.55, -118691.88, 187500.00, 0.000, 0.000, 0.000, 13:45:27.699
10, 7476.12, 36127.53, -183476.55, -182953.31, -171487.73, -124410.16, -147088.17, 187500.00, 0.000, 0.000, 0.000, 13:45:27.699
11, 7660.26, 36374.07, -184824.25, -184839.84, -182602.14, -135251.16, -158196.19, 187500.00, -0.002, -0.094, 1.030, 13:45:27.700
12, 4751.06, 33530.10, -183997.30, -183660.03, -175975.84, -128842.88, -151653.58, 187500.00, 0.000, 0.000, 0.000, 13:45:27.700
13, -1097.02, 27735.99, -174884.67, -171002.27, -145722.02, -99302.41, -121424.53, 187500.00, 0.000, 0.000, 0.000, 13:45:27.700
14, 1457.11, 30153.64, -173885.84, -169604.67, -142985.69, -96592.28, -118629.63, 187500.00, 0.000, 0.000, 0.000, 13:45:27.700
15, 7461.41, 36112.77, -183453.09, -182924.38, -171396.05, -124345.05, -147033.14, 187500.00, 0.000, 0.000, 0.000, 13:45:27.700
16, 7667.12, 36381.91, -184818.20, -184833.81, -182575.70, -135252.81, -158209.42, 187500.00, 0.000, 0.000, 0.000, 13:45:27.700
17, 4780.77, 33559.42, -184000.53, -183666.89, -176031.22, -128925.05, -151749.31, 187500.00, 0.000, 0.000, 0.000, 13:45:27.700
18, -1073.29, 27755.39, -174931.42, -171060.84, -145817.95, -99423.91, -121561.84, 187500.00, 0.000, 0.000, 0.000, 13:45:27.700
19, 1435.16, 30133.19, -173835.83, -169545.47, -142874.61, -96509.20, -118561.90, 187500.00, 0.000, 0.000, 0.000, 13:45:27.701
20, 7459.18, 36113.69, -183424.98, -182888.22, -171278.48, -124252.65, -146960.69, 187500.00, 0.000, 0.000, 0.000, 13:45:27.701
21, 7675.61, 36390.38, -184808.38, -184823.97, -182546.33, -135243.78, -158223.72, 187500.00, 0.006, -0.092, 1.028, 13:45:27.701
22, 4800.35, 33580.59, -184006.97, -183680.53, -176093.19, -129004.59, -151854.14, 187500.00, 0.000, 0.000, 0.000, 13:45:27.701
23, -1060.23, 27772.13, -174955.34, -171108.97, -145900.88, -99529.72, -121690.98, 187500.00, 0.000, 0.000, 0.000, 13:45:27.701
24, 1404.74, 30100.82, -173770.38, -169474.94, -142751.33, -96415.50, -118484.38, 187500.00, 0.000, 0.000, 0.000, 13:45:27.701
25, 7449.37, 36100.95, -183403.88, -182861.16, -171156.05, -124161.19, -146883.55, 187500.00, 0.000, 0.000, 0.000, 13:45:27.701
26, 7687.03, 36404.13, -184799.97, -184815.58, -182502.80, -135231.09, -158225.53, 187500.00, 0.000, 0.000, 0.000, 13:45:27.701
27, 4823.08, 33601.09, -184010.48, -183688.34, -176147.47, -129088.05, -151953.34, 187500.00, 0.000, 0.000, 0.000, 13:45:27.701
28, -1046.64, 27780.83, -174986.64, -171156.95, -145981.52, -99637.46, -121815.46, 187500.00, 0.000, 0.000, 0.000, 13:45:27.702
29, 1384.29, 30076.39, -173701.28, -169401.30, -142621.06, -96317.13, -118395.29, 187500.00, 0.000, 0.000, 0.000, 13:45:27.702
30, 7447.47, 36097.82, -183373.86, -182824.09, -171026.98, -124064.38, -146795.23, 187500.00, 0.004, -0.092, 1.024, 13:45:27.702
31, 7703.86, 36419.95, -184790.63, -184806.09, -182457.81, -135216.19, -158221.11, 187500.00, 0.000, 0.000, 0.000, 13:45:27.702
32, 4860.70, 33641.16, -184015.56, -183700.55, -176200.86, -129165.95, -152044.78, 187500.00, 0.000, 0.000, 0.000, 13:45:27.702
33, -1020.25, 27811.43, -175024.70, -171216.86, -146081.45, -99758.73, -121950.95, 187500.00, 0.000, 0.000, 0.000, 13:45:27.702
34, 1362.70, 30055.59, -173649.16, -169332.25, -142507.45, -96230.38, -118318.11, 187500.00, 0.000, 0.000, 0.000, 13:45:27.702
35, 7440.54, 36086.42, -183350.92, -182792.06, -170922.02, -123987.29, -146726.28, 187500.00, 0.000, 0.000, 0.000, 13:45:27.702
36, 7710.23, 36424.94, -184782.67, -184798.16, -182439.22, -135224.52, -158239.81, 187500.00, 0.000, 0.000, 0.000, 13:45:27.703
37, 4882.43, 33659.69, -184024.56, -183714.45, -176280.95, -129270.41, -152164.39, 187500.00, 0.000, 0.000, 0.000, 13:45:27.703
38, -999.68, 27832.93, -175081.41, -171284.91, -146194.75, -99895.95, -122106.39, 187500.00, 0.000, 0.000, 0.000, 13:45:27.703
39, 1332.75, 30033.55, -173611.09, -169269.06, -142410.16, -96161.20, -118262.88, 187500.00, 0.000, 0.000, 0.000, 13:45:27.703
40, 7432.16, 36081.57, -183327.27, -182755.50, -170809.39, -123901.73, -146658.44, 187500.00, 0.004, -0.094, 1.022, 13:45:27.703
41, 7724.18, 36433.97, -184775.92, -184791.45, -182409.03, -135219.20, -158257.16, 187500.00, 0.000, 0.000, 0.000, 13:45:27.703
42, 4916.18, 33689.24, -184030.53, -183728.78, -176343.13, -129356.18, -152274.66, 187500.00, 0.000, 0.000, 0.000, 13:45:27.703
43, -977.53, 27852.64, -175125.36, -171363.98, -146306.16, -100029.30, -122263.44, 187500.00, 0.000, 0.000, 0.000, 13:45:27.703
44, 1311.89, 30009.96, -173552.55, -169211.33, -142296.44, -96071.52, -118192.09, 187500.00, 0.000, 0.000, 0.000, 13:45:27.703
45, 7424.47, 36076.47, -183300.30, -182721.95, -170699.50, -123816.21, -146590.48, 187500.00, 0.000, 0.000, 0.000, 13:45:27.704
46, 7728.58, 36448.70, -184767.50, -184782.95, -182385.00, -135221.20, -158276.91, 187500.00, 0.000, 0.000, 0.000, 13:45:27.704
47, 4934.35, 33715.53, -184034.88, -183741.09, -176407.61, -129445.63, -152380.86, 187500.00, 0.000, 0.000, 0.000, 13:45:27.704
48, -957.75, 27872.63, -175168.56, -171439.27, -146408.08, -100155.50, -122408.56, 187500.00, 0.000, 0.000, 0.000, 13:45:27.704
49, 1288.11, 29981.91, -173514.16, -169170.02, -142208.09, -96013.01, -118149.08, 187500.00, 0.000, 0.000, 0.000, 13:45:27.704
50, 7415.77, 36058.01, -183279.22, -182694.95, -170593.67, -123742.12, -146530.98, 187500.00, 0.008, -0.096, 1.022, 13:45:27.704
51, 7739.96, 36448.43, -184762.36, -184777.70, -182358.06, -135225.97, -158297.66, 187500.00, 0.000, 0.000, 0.000, 13:45:27.704
52, 4958.60, 33732.89, -184043.30, -183756.52, -176478.17, -129544.07, -152500.05, 187500.00, 0.000, 0.000, 0.000, 13:45:27.704
53, -942.82, 27889.05, -175213.91, -171509.05, -146524.89, -100298.80, -122573.63, 187500.00, 0.000, 0.000, 0.000, 13:45:27.704
54, 1256.61, 29957.77, -173451.30, -169100.80, -142095.00, -95932.19, -118083.63, 187500.00, 0.000, 0.000, 0.000, 13:45:27.705
55, 7402.94, 36050.88, -183249.56, -182658.14, -170483.36, -123662.16, -146467.20, 187500.00, 0.000, 0.000, 0.000, 13:45:27.705
56, 7744.81, 36454.78, -184752.47, -184767.84, -182332.83, -135224.16, -158315.97, 187500.00, 0.000, 0.000, 0.000, 13:45:27.705
57, 4984.15, 33756.68, -184046.58, -183763.92, -176543.34, -129629.54, -152609.09, 187500.00, 0.000, 0.000, 0.000, 13:45:27.705
58, -922.43, 27905.24, -175247.14, -171557.83, -146622.25, -100413.91, -122713.77, 187500.00, 0.000, 0.000, 0.000, 13:45:27.705
59, 1234.49, 29932.85, -173394.41, -169039.80, -141998.55, -95855.61, -118028.20, 187500.00, 0.000, 0.000, 0.000, 13:45:27.705
60, 7394.69, 36042.34, -183225.42, -182628.13, -170383.52, -123582.03, -146408.70, 187500.00, 0.004, -0.098, 1.024, 13:45:27.705
61, 7754.60, 36466.00, -184748.11, -184763.56, -182313.42, -135224.86, -158337.30, 187500.00, 0.000, 0.000, 0.000, 13:45:27.705
62, 5005.65, 33779.54, -184056.08, -183778.66, -176607.23, -129711.84, -152710.56, 187500.00, 0.000, 0.000, 0.000, 13:45:27.706
63, -904.73, 27926.02, -175305.17, -171632.31, -146737.34, -100551.04, -122869.91, 187500.00, 0.000, 0.000, 0.000, 13:45:27.706
64, 1209.45, 29909.96, -173357.53, -168995.09, -141911.38, -95798.03, -117984.77, 187500.00, 0.000, 0.000, 0.000, 13:45:27.706
65, 7387.47, 36036.58, -183202.48, -182598.64, -170283.78, -123512.65, -146351.33, 187500.00, 0.000, 0.000, 0.000, 13:45:27.706
66, 7762.69, 36473.20, -184738.77, -184754.06, -182298.34, -135236.92, -158361.75, 187500.00, 0.000, 0.000, 0.000, 13:45:27.706
67, 5029.57, 33803.84, -184061.72, -183788.59, -176682.84, -129813.05, -152824.33, 187500.00, 0.000, 0.000, 0.000, 13:45:27.706
68, -880.46, 27951.28, -175367.28, -171709.53, -146862.38, -100701.83, -123035.48, 187500.00, 0.000, 0.000, 0.000, 13:45:27.706
69, 1190.59, 29886.09, -173334.02, -168964.47, -141838.28, -95754.78, -117952.41, 187500.00, 0.000, 0.000, 0.000, 13:45:27.706
70, 7376.81, 36019.88, -183179.17, -182568.66, -170187.34, -123446.47, -146294.67, 187500.00, 0.004, -0.098, 1.026, 13:45:27.707
71, 7772.13, 36484.04, -184730.55, -184746.03, -182280.34, -135247.42, -158383.81, 187500.00, 0.000, 0.000, 0.000, 13:45:27.707
72, 5056.25, 33829.90, -184064.91, -183797.78, -176755.52, -129911.04, -152937.61, 187500.00, 0.000, 0.000, 0.000, 13:45:27.707
73, -863.58, 27965.12, -175410.41, -171773.11, -146977.17, -100841.50, -123189.53, 187500.00, 0.000, 0.000, 0.000, 13:45:27.707
74, 1160.19, 29858.24, -173282.31, -168897.86, -141732.42, -95677.17, -117884.19, 187500.00, 0.000, 0.000, 0.000, 13:45:27.707
75, 7368.90, 36018.16, -183151.84, -182531.58, -170075.33, -123364.93, -146220.61, 187500.00, 0.000, 0.000, 0.000, 13:45:27.707
76, 7788.96, 36505.80, -184721.67, -184737.25, -182245.13, -135243.14, -158389.70, 187500.00, 0.000, 0.000, 0.000, 13:45:27.707
77, 5086.72, 33860.23, -184069.05, -183807.64, -176814.83, -129999.17, -153038.91, 187500.00, 0.000, 0.000, 0.000, 13:45:27.708
78, -860.12, 27963.78, -175461.09, -171847.16, -147096.06, -100988.77, -123352.77, 187500.00, 0.000, 0.000, 0.000, 13:45:27.708
79, 1111.69, 29806.81, -173245.50, -168845.66, -141646.80, -95625.70, -117843.47, 187500.00, 0.000, 0.000, 0.000, 13:45:27.708
80, 7324.98, 35965.48, -183128.94, -182496.83, -169968.58, -123293.11, -146159.86, 187500.00, 0.002, -0.096, 1.022, 13:45:27.708
81, 7750.22, 36448.92, -184716.86, -184732.47, -182227.83, -135258.97, -158419.41, 187500.00, 0.000, 0.000, 0.000, 13:45:27.708
82, 5062.98, 33827.93, -184077.38, -183825.86, -176892.58, -130106.91, -153160.50, 187500.00, 0.000, 0.000, 0.000, 13:45:27.708
83, -867.63, 27961.14, -175511.69, -171939.33, -147222.08, -101141.28, -123519.06, 187500.00, 0.000, 0.000, 0.000, 13:45:27.708
84, 1063.47, 29765.84, -173200.23, -168800.06, -141560.91, -95568.05, -117795.23, 187500.00, 0.000, 0.000, 0.000, 13:45:27.708
85, 7303.10, 35952.69, -183103.06, -182465.17, -169870.66, -123221.61, -146100.30, 187500.00, 0.000, 0.000, 0.000, 13:45:27.709
86, 7756.23, 36469.04, -184708.19, -184723.73, -182213.11, -135267.97, -158442.28, 187500.00, 0.000, 0.000, 0.000, 13:45:27.709
87, 5089.67, 33860.28, -184084.16, -183837.61, -176966.33, -130200.72, -153273.03, 187500.00, 0.000, 0.000, 0.000, 13:45:27.709
88, -848.38, 27979.42, -175550.13, -171995.30, -147326.31, -101265.89, -123666.72, 187500.00, 0.000, 0.000, 0.000, 13:45:27.709
89, 1043.45, 29741.70, -173152.31, -168744.09, -141460.55, -95494.72, -117741.14, 187500.00, 0.000, 0.000, 0.000, 13:45:28.174
90, 7299.48, 35944.82, -183079.16, -182433.92, -169765.63, -123142.06, -146040.44, 187500.00, 0.008, -0.100, 1.016, 13:45:28.174
91, 7770.94, 36478.47, -184701.88, -184717.30, -182195.52, -135269.72, -158465.84, 187500.00, 0.000, 0.000, 0.000, 13:45:28.174
92, 5122.04, 33889.65, -184089.13, -183846.59, -177035.17, -130285.54, -153383.28, 187500.00, 0.000, 0.000, 0.000, 13:45:28.174
93, -817.85, 28011.70, -175599.91, -172060.73, -147442.31, -101395.16, -123824.41, 187500.00, 0.000, 0.000, 0.000, 13:45:28.175
94, 1026.62, 29723.59, -173105.52, -168692.44, -141370.55, -95420.71, -117692.13, 187500.00, 0.000, 0.000, 0.000, 13:45:28.175
95, 7299.34, 35933.96, -183050.72, -182398.20, -169661.22, -123056.05, -145976.02, 187500.00, 0.000, 0.000, 0.000, 13:45:28.175
96, 7788.31, 36487.68, -184691.98, -184707.55, -182181.47, -135273.05, -158490.27, 187500.00, 0.000, 0.000, 0.000, 13:45:28.175
97, 5142.31, 33912.36, -184092.52, -183854.84, -177099.34, -130367.93, -153484.11, 187500.00, 0.000, 0.000, 0.000, 13:45:28.175
98, -798.72, 28028.04, -175647.63, -172127.58, -147551.11, -101528.26, -123972.16, 187500.00, 0.000, 0.000, 0.000, 13:45:28.176
99, 1004.96, 29701.24, -173070.47, -168652.91, -141292.09, -95373.17, -117651.40, 187500.00, 0.000, 0.000, 0.000, 13:45:28.176
100, 7279.36, 35920.39, -183028.58, -182370.31, -169569.38, -122995.99, -145922.39, 187500.00, 0.008, -0.094, 1.022, 13:45:28.176
101, 7786.97, 36492.02, -184689.80, -184705.33, -182165.22, -135286.67, -158515.84, 187500.00, 0.000, 0.000, 0.000, 13:45:28.176
102, 5160.77, 33922.70, -184100.22, -183867.48, -177168.55, -130461.30, -153593.61, 187500.00, 0.000, 0.000, 0.000, 13:45:28.176
103, -786.67, 28036.84, -175682.05, -172180.28, -147654.61, -101652.51, -124114.43, 187500.00, 0.000, 0.000, 0.000, 13:45:28.177
104, 967.74, 29665.93, -173007.28, -168581.39, -141175.98, -95283.05, -117574.71, 187500.00, 0.000, 0.000, 0.000, 13:45:28.177
105, 7261.99, 35901.28, -183001.08, -182334.03, -169442.11, -122896.16, -145834.16, 187500.00, 0.000, 0.000, 0.000, 13:45:28.177
106, 7784.80, 36485.18, -184677.97, -184693.55, -182121.38, -135269.48, -158510.44, 187500.00, 0.000, 0.000, 0.000, 13:45:28.177
107, 5175.95, 33937.01, -184100.22, -183871.28, -177199.59, -130518.91, -153665.48, 187500.00, 0.000, 0.000, 0.000, 13:45:28.177
108, -773.82, 28049.90, -175715.63, -172229.39, -147737.73, -101763.04, -124240.58, 187500.00, 0.000, 0.000, 0.000, 13:45:28.178
109, 942.60, 29636.13, -172948.45, -168518.92, -141073.05, -95211.70, -117516.73, 187500.00, 0.000, 0.000, 0.000, 13:45:28.178
110, 7255.35, 35890.84, -182970.03, -182296.44, -169326.73, -122811.55, -145765.69, 187500.00, 0.004, -0.092, 1.028, 13:45:28.178
111, 7793.11, 36489.27, -184669.92, -184685.34, -182085.69, -135263.13, -158523.91, 187500.00, 0.000, 0.000, 0.000, 13:45:28.178
112, 5199.17, 33954.85, -184103.11, -183878.67, -177247.19, -130593.33, -153759.91, 187500.00, 0.000, 0.000, 0.000, 13:45:28.178
113, -750.10, 28074.91, -175756.34, -172289.97, -147838.64, -101888.34, -124386.60, 187500.00, 0.000, 0.000, 0.000, 13:45:28.178
114, 923.02, 29621.74, -172915.50, -168472.56, -140983.13, -95148.73, -117468.67, 187500.00, 0.000, 0.000, 0.000, 13:45:28.179
115, 7247.42, 35889.30, -182947.17, -182262.73, -169215.70, -122726.27, -145694.61, 187500.00, 0.000, 0.000, 0.000, 13:45:28.179
116, 7804.20, 36505.67, -184664.83, -184680.25, -182064.61, -135267.75, -158543.36, 187500.00, 0.000, 0.000, 0.000, 13:45:28.179
117, 5216.81, 33976.35, -184108.05, -183888.41, -177309.30, -130680.07, -153861.78, 187500.00, 0.000, 0.000, 0.000, 13:45:28.179
118, -729.70, 28089.06, -175799.69, -172357.47, -147952.14, -102023.38, -124538.55, 187500.00, 0.000, 0.000, 0.000, 13:45:28.179
119, 895.28, 29589.69, -172879.38, -168438.11, -140915.25, -95103.85, -117437.54, 187500.00, 0.000, 0.000, 0.000, 13:45:28.179
120, 7229.60, 35870.95, -182923.09, -182234.03, -169131.27, -122665.01, -145644.83, 187500.00, 0.004, -0.090, 1.028, 13:45:28.180
121, 7805.61, 36503.77, -184655.63, -184671.05, -182052.16, -135276.34, -158564.97, 187500.00, 0.000, 0.000, 0.000, 13:45:28.180
122, 5231.72, 33988.46, -184111.36, -183899.02, -177383.42, -130773.13, -153972.58, 187500.00, 0.000, 0.000, 0.000, 13:45:28.180
123, -729.76, 28092.34, -175853.70, -172443.23, -148086.45, -102175.95, -124712.94, 187500.00, 0.000, 0.000, 0.000, 13:45:28.180
124, 857.86, 29551.26, -172840.38, -168379.70, -140835.41, -95048.98, -117398.91, 187500.00, 0.000, 0.000, 0.000, 13:45:28.181
125, 7209.42, 35843.01, -182895.53, -182191.52, -169030.95, -122592.09, -145588.69, 187500.00, 0.000, 0.000, 0.000, 13:45:28.181
126, 7804.76, 36498.07, -184651.63, -184667.02, -182042.92, -135294.23, -158601.45, 187500.00, 0.000, 0.000, 0.000, 13:45:28.181
127, 5245.37, 33996.51, -184120.77, -183912.97, -177462.81, -130877.46, -154095.47, 187500.00, 0.000, 0.000, 0.000, 13:45:28.181
128, -713.33, 28106.74, -175913.20, -172521.20, -148215.80, -102329.21, -124883.15, 187500.00, 0.000, 0.000, 0.000, 13:45:28.181
129, 829.05, 29525.80, -172813.59, -168346.20, -140762.94, -95005.26, -117364.96, 187500.00, 0.000, 0.000, 0.000, 13:45:28.181
130, 7192.55, 35829.18, -182872.95, -182160.59, -168931.84, -122521.58, -145526.86, 187500.00, 0.006, -0.092, 1.026, 13:45:28.183
131, 7807.58, 36504.15, -184644.31, -184659.73, -182045.61, -135315.22, -158636.72, 187500.00, 0.000, 0.000, 0.000, 13:45:28.183
132, 5269.49, 34024.59, -184126.83, -183924.20, -177552.48, -130976.55, -154215.05, 187500.00, 0.000, 0.000, 0.000, 13:45:28.183
133, -686.47, 28128.42, -175970.11, -172600.19, -148364.27, -102484.80, -125064.84, 187500.00, 0.000, 0.000, 0.000, 13:45:28.183
134, 810.63, 29503.54, -172784.52, -168317.28, -140710.02, -94961.25, -117345.88, 187500.00, 0.000, 0.000, 0.000, 13:45:28.183
135, 7179.51, 35812.52, -182850.61, -182133.45, -168859.84, -122457.16, -145487.23, 187500.00, 0.000, 0.000, 0.000, 13:45:28.183
136, 7815.20, 36510.10, -184639.08, -184654.66, -182047.94, -135322.31, -158668.64, 187500.00, 0.000, 0.000, 0.000, 13:45:28.183
137, 5296.98, 34052.30, -184131.92, -183933.69, -177635.03, -131063.41, -154326.63, 187500.00, 0.000, 0.000, 0.000, 13:45:28.184
138, -664.81, 28153.27, -176030.39, -172679.16, -148499.00, -102630.73, -125235.08, 187500.00, 0.000, 0.000, 0.000, 13:45:28.184
139, 783.05, 29476.83, -172752.41, -168280.69, -140637.38, -94906.42, -117310.27, 187500.00, 0.000, 0.000, 0.000, 13:45:28.184
140, 7167.33, 35796.52, -182824.66, -182100.34, -168762.44, -122381.97, -145430.44, 187500.00, 0.002, -0.092, 1.020, 13:45:28.184
141, 7821.77, 36520.43, -184633.42, -184649.03, -182031.50, -135329.33, -158697.80, 187500.00, 0.000, 0.000, 0.000, 13:45:28.184
142, 5313.26, 34067.75, -184135.77, -183941.97, -177693.77, -131143.92, -154431.89, 187500.00, 0.000, 0.000, 0.000, 13:45:28.184
143, -656.69, 28163.20, -176075.84, -172743.81, -148607.00, -102759.98, -125390.45, 187500.00, 0.000, 0.000, 0.000, 13:45:28.184
144, 755.24, 29452.51, -172721.80, -168248.92, -140561.52, -94857.94, -117283.38, 187500.00, 0.000, 0.000, 0.000, 13:45:28.184
145, 7151.98, 35781.77, -182800.05, -182070.06, -168655.69, -122298.84, -145369.02, 187500.00, 0.000, 0.000, 0.000, 13:45:28.185
146, 7821.48, 36512.09, -184625.22, -184640.83, -182015.86, -135332.64, -158722.75, 187500.00, 0.000, 0.000, 0.000, 13:45:28.185
147, 5324.07, 34077.85, -184137.73, -183947.94, -177761.88, -131228.66, -154539.75, 187500.00, 0.000, 0.000, 0.000, 13:45:28.185
148, -645.38, 28171.60, -176120.94, -172808.66, -148725.19, -102894.53, -125550.03, 187500.00, 0.000, 0.000, 0.000, 13:45:28.185
149, 717.33, 29413.91, -172674.84, -168200.58, -140476.44, -94791.55, -117239.09, 187500.00, 0.000, 0.000, 0.000, 13:45:28.185
150, 7132.02, 35761.36, -182771.58, -182034.75, -168552.13, -122215.60, -145305.25, 187500.00, 0.004, -0.096, 1.020, 13:45:28.185
151, 7820.83, 36510.81, -184619.50, -184635.14, -181991.55, -135329.28, -158738.23, 187500.00, 0.000, 0.000, 0.000, 13:45:28.185
152, 5338.13, 34095.42, -184142.31, -183957.47, -177814.89, -131302.48, -154632.42, 187500.00, 0.000, 0.000, 0.000, 13:45:28.185
153, -633.18, 28187.22, -176149.63, -172869.09, -148833.48, -103024.57, -125696.57, 187500.00, 0.000, 0.000, 0.000, 13:45:28.186
154, 688.55, 29383.33, -172622.45, -168155.81, -140395.42, -94736.59, -117193.81, 187500.00, 0.000, 0.000, 0.000, 13:45:28.186
155, 7112.46, 35740.91, -182744.02, -182001.84, -168446.11, -122137.17, -145238.81, 187500.00, 0.000, 0.000, 0.000, 13:45:28.186
156, 7819.85, 36512.47, -184608.91, -184624.53, -181957.34, -135321.53, -158748.20, 187500.00, 0.000, 0.000, 0.000, 13:45:28.186
157, 5350.78, 34096.94, -184142.30, -183963.55, -177865.13, -131374.83, -154728.72, 187500.00, 0.000, 0.000, 0.000, 13:45:28.186
158, -607.57, 28212.86, -176192.00, -172944.61, -148950.77, -103159.82, -125858.71, 187500.00, 0.000, 0.000, 0.000, 13:45:28.186
159, 671.49, 29368.16, -172590.38, -168114.86, -140318.69, -94682.26, -117162.07, 187500.00, 0.002, -0.098, 1.020, 13:45:28.186
160, 7101.95, 35726.60, -182715.92, -181963.69, -168328.52, -122042.42, -145164.38, 187500.00, 0.000, 0.000, 0.000, 13:45:28.186
161, 7831.89, 36515.95, -184602.77, -184618.31, -181925.17, -135311.52, -158757.27, 187500.00, 0.000, 0.000, 0.000, 13:45:28.186
162, 5377.70, 34127.29, -184145.33, -183970.36, -177916.03, -131445.83, -154815.34, 187500.00, 0.000, 0.000, 0.000, 13:45:28.187
163, -599.50, 28223.97, -176234.80, -173001.80, -149061.75, -103288.01, -126004.09, 187500.00, 0.000, 0.000, 0.000, 13:45:28.187
164, 632.69, 29336.44, -172539.53, -168039.78, -140216.00, -94601.19, -117093.03, 187500.00, 0.000, 0.000, 0.000, 13:45:28.187
165, 7074.75, 35707.83, -182685.55, -181914.63, -168195.13, -121933.57, -145065.75, 187500.00, 0.000, 0.000, 0.000, 13:45:28.187
166, 7830.89, 36521.09, -184591.67, -184607.36, -181883.20, -135294.14, -158753.50, 187500.00, 0.000, 0.000, 0.000, 13:45:28.187
167, 5384.69, 34140.66, -184147.66, -183976.47, -177957.36, -131509.08, -154896.80, 187500.00, 0.000, 0.000, 0.000, 13:45:28.187
168, -594.67, 28232.11, -176274.67, -173058.64, -149166.19, -103411.13, -126148.68, 187500.00, 0.000, 0.000, 0.000, 13:45:28.187
169, 594.98, 29297.57, -172488.45, -167983.84, -140121.50, -94531.36, -117040.26, 187500.00, 0.008, -0.096, 1.018, 13:45:28.187
170, 7053.52, 35690.10, -182658.14, -181879.09, -168073.05, -121836.00, -144984.70, 187500.00, 0.000, 0.000, 0.000, 13:45:28.188
171, 7825.41, 36516.16, -184588.33, -184603.92, -181852.83, -135282.20, -158759.63, 187500.00, 0.000, 0.000, 0.000, 13:45:28.188
172, 5403.06, 34153.00, -184153.42, -183985.97, -178011.45, -131580.00, -154987.73, 187500.00, 0.000, 0.000, 0.000, 13:45:28.188
173, -561.39, 28261.12, -176320.66, -173121.98, -149288.91, -103549.73, -126309.50, 187500.00, 0.000, 0.000, 0.000, 13:45:28.188
174, 581.61, 29287.04, -172445.05, -167936.52, -140045.19, -94473.04, -117001.59, 187500.00, 0.000, 0.000, 0.000, 13:45:28.188
175, 7052.76, 35682.39, -182626.95, -181841.25, -167967.50, -121746.08, -144913.50, 187500.00, 0.000, 0.000, 0.000, 13:45:28.188
176, 7838.02, 36528.92, -184578.16, -184593.80, -181828.06, -135272.06, -158769.64, 187500.00, 0.000, 0.000, 0.000, 13:45:28.188
177, 5426.98, 34177.56, -184154.66, -183990.97, -178074.42, -131655.03, -155083.14, 187500.00, 0.000, 0.000, 0.000, 13:45:28.188
178, -543.86, 28280.57, -176365.31, -173184.80, -149407.03, -103683.75, -126462.14, 187500.00, 0.000, 0.000, 0.000, 13:45:28.188
179, 553.03, 29256.71, -172405.41, -167895.55, -139969.77, -94419.33, -116959.32, 187500.00, 0.010, -0.098, 1.024, 13:45:28.189
180, 7027.05, 35658.05, -182599.53, -181807.42, -167865.00, -121668.16, -144843.05, 187500.00, 0.000, 0.000, 0.000, 13:45:28.189
181, 7830.73, 36525.99, -184571.58, -184587.11, -181809.23, -135276.17, -158779.14, 187500.00, 0.000, 0.000, 0.000, 13:45:28.189
182, 5423.85, 34175.30, -184158.16, -183998.61, -178135.02, -131735.66, -155172.05, 187500.00, 0.000, 0.000, 0.000, 13:45:28.189
183, -535.12, 28277.59, -176422.06, -173262.45, -149539.63, -103835.41, -126626.41, 187500.00, 0.000, 0.000, 0.000, 13:45:28.189
184, 515.74, 29218.22, -172374.25, -167860.03, -139891.06, -94366.05, -116915.27, 187500.00, 0.000, 0.000, 0.000, 13:45:28.189
185, 6997.48, 35627.74, -182570.20, -181768.61, -167738.17, -121569.77, -144755.48, 187500.00, 0.000, 0.000, 0.000, 13:45:28.189
186, 7833.37, 36516.45, -184563.22, -184578.75, -181781.41, -135274.14, -158794.13, 187500.00, 0.000, 0.000, 0.000, 13:45:28.189
187, 5449.71, 34196.47, -184161.25, -184006.91, -178192.14, -131817.20, -155270.70, 187500.00, 0.000, 0.000, 0.000, 13:45:28.190
188, -510.54, 28308.60, -176469.59, -173343.50, -149679.55, -103997.70, -126806.41, 187500.00, 0.000, 0.000, 0.000, 13:45:28.190
189, 485.73, 29188.79, -172337.11, -167831.89, -139827.50, -94327.31, -116889.43, 187500.00, 0.012, -0.090, 1.024, 13:45:28.190
190, 6983.06, 35614.66, -182539.36, -181732.59, -167629.83, -121486.27, -144685.36, 187500.00, 0.000, 0.000, 0.000, 13:45:28.190
191, 7837.82, 36526.75, -184557.00, -184572.67, -181753.06, -135270.19, -158807.47, 187500.00, 0.000, 0.000, 0.000, 13:45:28.190
192, 5468.02, 34221.10, -184162.41, -184011.95, -178245.70, -131890.59, -155365.88, 187500.00, 0.000, 0.000, 0.000, 13:45:28.190
193, -495.56, 28326.52, -176505.11, -173404.41, -149797.36, -104131.21, -126962.62, 187500.00, 0.000, 0.000, 0.000, 13:45:28.190
194, 467.06, 29167.55, -172300.58, -167794.88, -139752.73, -94270.89, -116849.04, 187500.00, 0.000, 0.000, 0.000, 13:45:28.191
195, 6975.96, 35603.49, -182513.63, -181698.39, -167515.23, -121389.28, -144600.16, 187500.00, 0.000, 0.000, 0.000, 13:45:28.191
196, 7839.85, 36521.83, -184549.08, -184564.67, -181723.13, -135255.92, -158805.25, 187500.00, 0.000, 0.000, 0.000, 13:45:28.191
197, 5483.35, 34224.68, -184164.75, -184019.45, -178286.92, -131947.73, -155437.41, 187500.00, 0.000, 0.000, 0.000, 13:45:28.191
198, -469.90, 28355.56, -176553.16, -173480.23, -149903.44, -104254.45, -127103.23, 187500.00, 0.000, 0.000, 0.000, 13:45:28.191
199, 437.18, 29139.48, -172264.91, -167751.64, -139676.30, -94217.41, -116809.77, 187500.00, 0.004, -0.094, 1.024, 13:45:28.191
200, 6951.30, 35582.50, -182484.39, -181659.53, -167405.34, -121304.39, -144530.44, 187500.00, 0.000, 0.000, 0.000, 13:45:28.191
201, 7843.96, 36535.73, -184538.81, -184554.45, -181691.16, -135250.73, -158816.41, 187500.00, 0.000, 0.000, 0.000, 13:45:28.191
202, 5498.62, 34245.40, -184163.14, -184021.06, -178335.05, -132021.56, -155527.41, 187500.00, 0.000, 0.000, 0.000, 13:45:28.192
203, -455.80, 28360.74, -176599.05, -173539.70, -150025.75, -104399.30, -127265.93, 187500.00, 0.000, 0.000, 0.000, 13:45:28.192
204, 417.26, 29124.68, -172224.97, -167691.70, -139599.20, -94168.34, -116775.03, 187500.00, 0.000, 0.000, 0.000, 13:45:28.192
205, 6941.76, 35573.40, -182453.91, -181612.88, -167293.09, -121222.13, -144461.02, 187500.00, 0.000, 0.000, 0.000, 13:45:28.192
206, 7847.70, 36536.85, -184533.50, -184548.98, -181677.91, -135259.50, -158837.61, 187500.00, 0.000, 0.000, 0.000, 13:45:28.192
207, 5522.13, 34264.69, -184169.36, -184030.59, -178407.89, -132111.81, -155630.30, 187500.00, 0.000, 0.000, 0.000, 13:45:28.192
208, -434.81, 28391.83, -176648.80, -173606.78, -150159.73, -104550.73, -127430.20, 187500.00, 0.000, 0.000, 0.000, 13:45:28.192
209, 393.08, 29095.22, -172206.33, -167670.13, -139552.13, -94141.32, -116754.24, 187500.00, 0.008, -0.096, 1.020, 13:45:28.655
210, 6927.83, 35555.48, -182429.17, -181581.25, -167203.58, -121150.61, -144392.58, 187500.00, 0.000, 0.000, 0.000, 13:45:28.655
211, 7854.76, 36540.74, -184525.53, -184541.14, -181670.70, -135267.92, -158852.45, 187500.00, 0.000, 0.000, 0.000, 13:45:28.655
212, 5535.81, 34288.98, -184172.72, -184036.80, -178474.72, -132193.16, -155717.38, 187500.00, 0.000, 0.000, 0.000, 13:45:28.655
213, -416.82, 28402.99, -176707.05, -173678.17, -150293.13, -104700.33, -127583.91, 187500.00, 0.000, 0.000, 0.000, 13:45:28.655
214, 362.79, 29068.11, -172180.67, -167639.34, -139498.03, -94108.20, -116720.88, 187500.00, 0.000, 0.000, 0.000, 13:45:28.655
215, 6898.91, 35527.00, -182397.56, -181542.45, -167105.81, -121075.77, -144317.09, 187500.00, 0.000, 0.000, 0.000, 13:45:28.655
216, 7849.84, 36534.95, -184517.25, -184532.95, -181655.22, -135272.78, -158861.47, 187500.00, 0.000, 0.000, 0.000, 13:45:28.656
217, 5543.48, 34287.22, -184172.78, -184040.48, -178528.45, -132264.36, -155797.22, 187500.00, 0.000, 0.000, 0.000, 13:45:28.656
218, -397.88, 28425.74, -176761.77, -173752.38, -150415.88, -104841.16, -127737.51, 187500.00, 0.000, 0.000, 0.000, 13:45:28.656
219, 342.56, 29044.50, -172167.33, -167624.53, -139449.69, -94081.20, -116705.88, 187500.00, 0.006, -0.098, 1.012, 13:45:28.656
220, 6891.78, 35518.29, -182374.92, -181512.25, -167008.86, -120999.94, -144253.77, 187500.00, 0.000, 0.000, 0.000, 13:45:28.656
221, 7866.38, 36554.91, -184511.70, -184527.45, -181647.70, -135283.69, -158884.94, 187500.00, 0.000, 0.000, 0.000, 13:45:28.656
222, 5565.79, 34307.58, -184178.61, -184049.73, -178599.78, -132351.09, -155898.92, 187500.00, 0.000, 0.000, 0.000, 13:45:28.656
223, -378.66, 28432.78, -176812.73, -173822.81, -150553.86, -104992.98, -127907.77, 187500.00, 0.000, 0.000, 0.000, 13:45:28.656
224, 319.81, 29026.38, -172127.63, -167584.61, -139382.13, -94029.18, -116667.43, 187500.00, 0.000, 0.000, 0.000, 13:45:28.656
225, 6876.04, 35500.36, -182344.08, -181473.94, -166914.33, -120921.62, -144189.06, 187500.00, 0.000, 0.000, 0.000, 13:45:28.657
226, 7857.93, 36547.07, -184504.77, -184520.58, -181632.73, -135289.19, -158907.00, 187500.00, 0.000, 0.000, 0.000, 13:45:28.657
227, 5578.08, 34325.21, -184175.63, -184051.05, -178657.69, -132429.16, -155995.70, 187500.00, 0.000, 0.000, 0.000, 13:45:28.657
228, -370.44, 28449.93, -176843.98, -173887.58, -150673.48, -105133.37, -128068.31, 187500.00, 0.000, 0.000, 0.000, 13:45:28.657
229, 283.38, 28991.87, -172089.89, -167562.13, -139317.44, -93992.37, -116646.53, 187500.00, 0.010, -0.098, 1.020, 13:45:28.657
230, 6850.54, 35480.00, -182316.05, -181442.31, -166797.08, -120836.72, -144117.94, 187500.00, 0.000, 0.000, 0.000, 13:45:28.657
231, 7857.40, 36548.92, -184498.75, -184514.47, -181601.17, -135284.78, -158916.89, 187500.00, 0.000, 0.000, 0.000, 13:45:28.657
232, 5587.49, 34337.42, -184179.84, -184060.22, -178698.44, -132493.30, -156073.67, 187500.00, 0.000, 0.000, 0.000, 13:45:28.657
233, -344.80, 28477.48, -176880.66, -173960.25, -150782.00, -105263.77, -128211.37, 187500.00, 0.000, 0.000, 0.000, 13:45:28.658
234, 261.58, 28969.67, -172038.84, -167511.98, -139236.05, -93937.92, -116598.85, 187500.00, 0.000, 0.000, 0.000, 13:45:28.658
235, 6832.95, 35467.08, -182281.75, -181399.02, -166679.17, -120746.11, -144032.33, 187500.00, 0.000, 0.000, 0.000, 13:45:28.658
236, 7861.67, 36550.53, -184488.20, -184503.92, -181572.53, -135281.45, -158920.98, 187500.00, 0.000, 0.000, 0.000, 13:45:28.658
237, 5617.10, 34367.39, -184179.73, -184063.03, -178750.02, -132569.02, -156158.38, 187500.00, 0.000, 0.000, 0.000, 13:45:28.658
238, -321.80, 28495.61, -176931.23, -174027.08, -150916.31, -105419.02, -128379.68, 187500.00, 0.000, 0.000, 0.000, 13:45:28.658
239, 232.59, 28943.12, -172021.05, -167485.89, -139185.98, -93909.71, -116580.57, 187500.00, 0.008, -0.098, 1.024, 13:45:28.658
240, 6814.58, 35445.73, -182255.31, -181362.03, -166571.52, -120659.72, -143954.81, 187500.00, 0.000, 0.000, 0.000, 13:45:28.658
241, 7878.07, 36580.15, -184483.73, -184499.45, -181540.28, -135268.11, -158921.55, 187500.00, 0.000, 0.000, 0.000, 13:45:28.658
242, 5645.96, 34401.73, -184184.31, -184071.17, -178786.81, -132622.34, -156230.17, 187500.00, 0.000, 0.000, 0.000, 13:45:28.659
243, -315.03, 28501.96, -176985.63, -174099.61, -151045.50, -105561.95, -128545.02, 187500.00, 0.000, 0.000, 0.000, 13:45:28.659
244, 179.28, 28881.16, -171981.64, -167438.81, -139109.52, -93850.91, -116540.74, 187500.00, 0.000, 0.000, 0.000, 13:45:28.659
245, 6766.70, 35393.29, -182223.58, -181319.30, -166441.05, -120548.43, -143862.17, 187500.00, 0.000, 0.000, 0.000, 13:45:28.659
246, 7841.93, 36528.29, -184474.33, -184490.06, -181507.63, -135253.89, -158926.17, 187500.00, 0.000, 0.000, 0.000, 13:45:28.659
247, 5596.12, 34336.61, -184182.53, -184071.61, -178837.39, -132687.53, -156314.28, 187500.00, 0.000, 0.000, 0.000, 13:45:28.659
248, -346.03, 28462.58, -177019.64, -174145.23, -151159.28, -105689.17, -128691.04, 187500.00, 0.000, 0.000, 0.000, 13:45:28.660
249, 120.92, 28823.49, -171950.42, -167389.61, -139045.70, -93806.63, -116511.34, 187500.00, 0.002, -0.096, 1.028, 13:45:28.660
250, 6716.74, 35332.09, -182194.78, -181273.36, -166326.17, -120453.79, -143783.00, 187500.00, 0.000, 0.000, 0.000, 13:45:28.660
251, 7817.37, 36496.15, -184467.64, -184483.38, -181481.70, -135241.03, -158931.06, 187500.00, 0.000, 0.000, 0.000, 13:45:28.660
252, 5608.66, 34347.37, -184183.70, -184076.31, -178882.97, -132742.30, -156389.09, 187500.00, 0.000, 0.000, 0.000, 13:45:28.660
253, -321.66, 28494.61, -177078.78, -174226.17, -151294.61, -105831.75, -128855.59, 187500.00, 0.000, 0.000, 0.000, 13:45:28.660
254, 107.71, 28811.69, -171918.30, -167356.36, -138984.50, -93755.88, -116476.81, 187500.00, 0.000, 0.000, 0.000, 13:45:28.660
255, 6715.76, 35336.41, -182158.70, -181227.89, -166212.84, -120352.94, -143693.03, 187500.00, 0.000, 0.000, 0.000, 13:45:28.661
0, 7828.34, 36507.35, -184458.91, -184474.47, -181458.63, -135231.41, -158933.33, 187500.00, 0.000, 0.000, 0.000, 13:45:28.661
1, 5625.46, 34360.44, -184183.80, -184078.72, -178943.91, -132817.22, -156478.67, 187500.00, 0.000, 0.000, 0.000, 13:45:28.661
2, -292.11, 28508.84, -177128.53, -174290.77, -151427.83, -105982.52, -129024.70, 187500.00, 0.000, 0.000, 0.000, 13:45:28.661
3, 95.42, 28784.71, -171896.17, -167335.06, -138930.92, -93726.80, -116461.75, 187500.00, 0.000, -0.100, 1.024, 13:45:28.661
4, 6704.14, 35320.40, -182134.56, -181199.08, -166114.52, -120277.26, -143630.66, 187500.00, 0.000, 0.000, 0.000, 13:45:28.661
5, 7843.47, 36519.29, -184452.06, -184467.63, -181444.34, -135236.30, -158953.67, 187500.00, 0.000, 0.000, 0.000, 13:45:28.661
6, 5660.76, 34393.54, -184186.30, -184085.20, -179002.80, -132892.31, -156570.98, 187500.00, 0.000, 0.000, 0.000, 13:45:28.661
7, -262.05, 28546.78, -177168.69, -174363.27, -151566.30, -106134.51, -129195.78, 187500.00, 0.000, 0.000, 0.000, 13:45:28.662
8, 70.61, 28766.22, -171857.45, -167304.97, -138870.56, -93682.05, -116431.73, 187500.00, 0.000, 0.000, 0.000, 13:45:28.662
9, 6693.30, 35298.99, -182098.67, -181154.73, -165998.38, -120180.14, -143547.64, 187500.00, 0.000, 0.000, 0.000, 13:45:28.662
10, 7847.34, 36518.26, -184445.38, -184460.95, -181426.63, -135235.52, -158968.64, 187500.00, 0.000, 0.000, 0.000, 13:45:28.662
11, 5678.28, 34408.34, -184188.41, -184091.80, -179060.48, -132963.45, -156656.59, 187500.00, 0.000, 0.000, 0.000, 13:45:28.662
12, -239.97, 28561.86, -177215.22, -174444.66, -151701.11, -106284.58, -129357.90, 187500.00, 0.000, 0.000, 0.000, 13:45:28.662
13, 47.79, 28741.79, -171825.03, -167278.75, -138816.33, -93650.95, -116405.51, 187500.00, 0.002, -0.100, 1.020, 13:45:28.662
14, 6672.53, 35285.94, -182067.33, -181117.00, -165888.86, -120094.47, -143465.09, 187500.00, 0.000, 0.000, 0.000, 13:45:28.662
15, 7851.88, 36521.41, -184435.55, -184451.08, -181392.09, -135222.95, -158961.22, 187500.00, 0.000, 0.000, 0.000, 13:45:28.663
16, 5692.23, 34416.05, -184187.47, -184093.36, -179098.47, -133021.27, -156723.70, 187500.00, 0.000, 0.000, 0.000, 13:45:28.663
17, -210.49, 28593.33, -177249.58, -174497.50, -151815.22, -106416.09, -129501.96, 187500.00, 0.000, 0.000, 0.000, 13:45:28.663
18, 33.44, 28729.21, -171791.39, -167246.67, -138759.38, -93612.26, -116379.52, 187500.00, 0.000, 0.000, 0.000, 13:45:28.663
19, 6664.95, 35278.61, -182036.25, -181077.88, -165772.00, -119997.17, -143380.84, 187500.00, 0.000, 0.000, 0.000, 13:45:28.663
20, 7866.61, 36536.52, -184430.47, -184446.08, -181367.77, -135217.80, -158973.58, 187500.00, 0.000, 0.000, 0.000, 13:45:28.663
21, 5709.15, 34434.47, -184191.72, -184100.00, -179153.06, -133093.14, -156815.72, 187500.00, 0.000, 0.000, 0.000, 13:45:28.663
22, -195.04, 28607.68, -177303.78, -174567.92, -151948.81, -106564.04, -129673.17, 187500.00, 0.004, -0.096, 1.020, 13:45:28.663
23, 7.40, 28702.46, -171766.17, -167214.16, -138700.33, -93569.85, -116356.16, 187500.00, 0.000, 0.000, 0.000, 13:45:28.663
24, 6634.74, 35245.50, -182006.09, -181035.83, -165645.44, -119889.66, -143290.22, 187500.00, 0.000, 0.000, 0.000, 13:45:28.664
25, 7866.54, 36538.60, -184423.50, -184439.13, -181327.77, -135196.31, -158968.86, 187500.00, 0.000, 0.000, 0.000, 13:45:28.664
26, 5726.27, 34451.30, -184190.03, -184101.19, -179185.69, -133143.44, -156882.44, 187500.00, 0.000, 0.000, 0.000, 13:45:28.664
27, -175.77, 28624.25, -177340.91, -174621.70, -152063.03, -106692.00, -129819.93, 187500.00, 0.000, 0.000, 0.000, 13:45:28.664
28, -20.99, 28675.88, -171723.13, -167165.34, -138627.39, -93515.02, -116315.63, 187500.00, 0.000, 0.000, 0.000, 13:45:28.664
29, 6618.75, 35231.60, -181970.63, -180990.70, -165529.02, -119793.12, -143205.83, 187500.00, 0.000, 0.000, 0.000, 13:45:28.664
30, 7862.52, 36532.67, -184412.66, -184428.23, -181299.48, -135186.47, -158972.22, 187500.00, 0.000, 0.000, 0.000, 13:45:28.664
31, 5740.51, 34467.46, -184190.48, -184103.59, -179224.27, -133199.72, -156951.86, 187500.00, 0.000, 0.000, 0.000, 13:45:28.664
32, -153.58, 28644.56, -177374.31, -174666.30, -152167.34, -106813.73, -129957.40, 187500.00, 0.002, -0.096, 1.026, 13:45:28.665
33, -39.03, 28651.22, -171692.38, -167118.38, -138567.59, -93478.88, -116292.19, 187500.00, 0.000, 0.000, 0.000, 13:45:28.665
34, 6603.67, 35211.62, -181940.91, -180944.14, -165415.17, -119707.00, -143130.11, 187500.00, 0.000, 0.000, 0.000, 13:45:28.665
35, 7871.19, 36536.29, -184402.80, -184418.22, -181256.14, -135171.66, -158968.16, 187500.00, 0.000, 0.000, 0.000, 13:45:28.665
36, 5766.44, 34484.47, -184186.91, -184102.19, -179248.33, -133250.17, -157013.41, 187500.00, 0.000, 0.000, 0.000, 13:45:28.665
37, -128.66, 28671.54, -177424.61, -174732.83, -152277.13, -106948.16, -130101.72, 187500.00, 0.000, 0.000, 0.000, 13:45:28.665
38, -62.20, 28637.63, -171659.92, -167085.19, -138498.47, -93439.05, -116252.67, 187500.00, 0.000, 0.000, 0.000, 13:45:28.665
39, 6593.16, 35200.78, -181904.86, -180898.66, -165290.58, -119611.98, -143033.09, 187500.00, 0.000, 0.000, 0.000, 13:45:28.665
40, 7883.01, 36548.18, -184395.41, -184410.67, -181230.44, -135168.34, -158967.33, 187500.00, 0.000, 0.000, 0.000, 13:45:28.666
41, 5785.59, 34503.71, -184191.94, -184109.97, -179302.41, -133321.38, -157094.36, 187500.00, 0.000, 0.000, 0.000, 13:45:28.666
42, -101.39, 28689.65, -177470.86, -174798.97, -152414.33, -107105.45, -130273.88, 187500.00, 0.002, -0.094, 1.028, 13:45:28.666
43, -82.61, 28605.58, -171631.16, -167059.70, -138441.42, -93406.95, -116234.84, 187500.00, 0.000, 0.000, 0.000, 13:45:28.666
44, 6563.77, 35173.69, -181872.94, -180860.94, -165182.14, -119527.09, -142961.91, 187500.00, 0.000, 0.000, 0.000, 13:45:28.666
45, 7873.11, 36535.07, -184386.97, -184402.36, -181210.53, -135170.78, -158982.50, 187500.00, 0.000, 0.000, 0.000, 13:45:28.666
46, 5793.50, 34509.37, -184187.95, -184108.55, -179357.36, -133397.13, -157181.28, 187500.00, 0.000, 0.000, 0.000, 13:45:28.666
47, -85.25, 28703.46, -177519.14, -174865.67, -152546.61, -107254.33, -130435.32, 187500.00, 0.000, 0.000, 0.000, 13:45:28.666
48, -106.22, 28577.96, -171617.72, -167046.61, -138395.16, -93378.39, -116215.12, 187500.00, 0.000, 0.000, 0.000, 13:45:28.667
49, 6550.20, 35153.01, -181841.84, -180819.84, -165056.52, -119419.63, -142863.92, 187500.00, 0.000, 0.000, 0.000, 13:45:28.667
50, 7892.71, 36551.38, -184383.88, -184399.19, -181183.95, -135158.30, -158984.27, 187500.00, 0.000, 0.000, 0.000, 13:45:28.667
51, 5813.71, 34533.87, -184191.69, -184116.30, -179400.28, -133452.58, -157253.22, 187500.00, 0.000, 0.000, 0.000, 13:45:28.667
52, -57.85, 28734.31, -177560.16, -174948.38, -152677.00, -107395.81, -130594.20, 187500.00, 0.002, -0.096, 1.026, 13:45:28.667
53, -120.10, 28571.21, -171576.36, -167014.70, -138339.23, -93339.63, -116188.21, 187500.00, 0.000, 0.000, 0.000, 13:45:28.667
54, 6537.55, 35136.81, -181807.34, -180777.61, -164953.86, -119336.34, -142789.22, 187500.00, 0.000, 0.000, 0.000, 13:45:28.667
55, 7889.74, 36544.00, -184373.77, -184389.08, -181170.92, -135163.63, -158998.88, 187500.00, 0.000, 0.000, 0.000, 13:45:28.667
56, 5830.63, 34541.25, -184190.75, -184118.11, -179462.75, -133531.23, -157340.34, 187500.00, 0.000, 0.000, 0.000, 13:45:28.667
57, -39.67, 28754.04, -177599.13, -175008.31, -152812.66, -107550.04, -130758.33, 187500.00, 0.000, 0.000, 0.000, 13:45:28.668
58, -143.88, 28543.45, -171561.72, -167005.08, -138305.38, -93329.86, -116183.05, 187500.00, 0.000, 0.000, 0.000, 13:45:28.668
59, 6519.53, 35119.35, -181784.97, -180748.34, -164855.17, -119265.22, -142720.98, 187500.00, 0.000, 0.000, 0.000, 13:45:28.668
60, 7890.63, 36552.19, -184368.27, -184383.42, -181151.89, -135170.84, -159011.75, 187500.00, 0.000, 0.000, 0.000, 13:45:28.668
61, 5846.72, 34563.15, -184192.19, -184121.30, -179511.14, -133603.23, -157422.48, 187500.00, 0.000, 0.000, 0.000, 13:45:28.668
62, -21.03, 28770.49, -177650.42, -175073.70, -152946.98, -107703.76, -130927.80, 187500.00, 0.004, -0.096, 1.022, 13:45:28.668
63, -174.72, 28518.88, -171540.95, -166975.80, -138252.94, -93296.54, -116165.95, 187500.00, 0.000, 0.000, 0.000, 13:45:28.668
64, 6492.82, 35096.80, -181749.20, -180700.03, -164729.77, -119158.35, -142628.95, 187500.00, 0.000, 0.000, 0.000, 13:45:28.668
65, 7900.02, 36555.11, -184359.70, -184374.70, -181110.30, -135147.78, -159005.14, 187500.00, 0.000, 0.000, 0.000, 13:45:28.669
66, 5866.22, 34574.97, -184191.13, -184122.78, -179543.53, -133651.95, -157490.92, 187500.00, 0.000, 0.000, 0.000, 13:45:28.669
67, 3.49, 28792.58, -177689.67, -175130.56, -153068.30, -107838.54, -131082.34, 187500.00, 0.000, 0.000, 0.000, 13:45:28.669
68, -194.57, 28493.02, -171505.42, -166936.95, -138189.41, -93253.22, -116134.85, 187500.00, 0.000, 0.000, 0.000, 13:45:28.669
69, 6485.60, 35082.16, -181715.27, -180657.16, -164605.08, -119056.34, -142538.30, 187500.00, 0.000, 0.000, 0.000, 13:45:28.669
70, 7904.49, 36558.87, -184352.13, -184367.11, -181073.59, -135130.27, -159002.92, 187500.00, 0.000, 0.000, 0.000, 13:45:28.670
71, 5877.41, 34589.75, -184192.92, -184126.52, -179577.86, -133703.97, -157558.72, 187500.00, 0.000, 0.000, 0.000, 13:45:28.670
72, 23.34, 28814.04, -177724.89, -175178.91, -153186.88, -107972.78, -131231.73, 187500.00, 0.006, -0.100, 1.024, 13:45:28.670
73, -215.29, 28472.30, -171451.16, -166878.91, -138106.59, -93191.05, -116083.98, 187500.00, 0.000, 0.000, 0.000, 13:45:29.135
74, 6468.39, 35062.33, -181676.36, -180609.05, -164473.83, -118945.41, -142437.58, 187500.00, 0.000, 0.000, 0.000, 13:45:29.135
75, 7902.59, 36558.18, -184343.69, -184358.55, -181027.05, -135097.69, -158984.63, 187500.00, 0.000, 0.000, 0.000, 13:45:29.135
76, 5886.73, 34597.71, -184188.69, -184124.08, -179599.88, -133737.20, -157609.00, 187500.00, 0.000, 0.000, 0.000, 13:45:29.136
77, 47.41, 28831.13, -177764.42, -175229.59, -153287.67, -108087.06, -131366.66, 187500.00, 0.000, 0.000, 0.000, 13:45:29.136
78, -242.90, 28442.68, -171429.84, -166837.81, -138050.09, -93151.45, -116061.12, 187500.00, 0.000, 0.000, 0.000, 13:45:29.136
79, 6436.81, 35032.56, -181637.33, -180547.44, -164328.13, -118819.08, -142324.14, 187500.00, 0.000, 0.000, 0.000, 13:45:29.136
80, 7908.58, 36557.59, -184331.13, -184345.92, -180978.52, -135069.33, -158969.13, 187500.00, 0.000, 0.000, 0.000, 13:45:29.136
81, 5906.87, 34610.18, -184184.27, -184122.13, -179624.06, -133780.11, -157665.22, 187500.00, 0.000, 0.000, 0.000, 13:45:29.136
82, 72.15, 28859.81, -177821.11, -175304.39, -153425.08, -108240.60, -131534.78, 187500.00, 0.004, -0.096, 1.022, 13:45:29.136
83, -259.66, 28429.96, -171410.77, -166817.25, -138000.41, -93126.28, -116044.13, 187500.00, 0.000, 0.000, 0.000, 13:45:29.136
84, 6418.64, 35016.04, -181603.11, -180504.55, -164206.89, -118725.35, -142238.03, 187500.00, 0.000, 0.000, 0.000, 13:45:29.137
85, 7904.49, 36558.64, -184326.20, -184341.11, -180951.64, -135066.64, -158976.05, 187500.00, 0.000, 0.000, 0.000, 13:45:29.137
86, 5912.77, 34620.13, -184188.06, -184128.13, -179664.67, -133842.80, -157737.48, 187500.00, 0.000, 0.000, 0.000, 13:45:29.137
87, 85.85, 28874.00, -177852.22, -175353.56, -153531.69, -108365.77, -131671.48, 187500.00, 0.000, 0.000, 0.000, 13:45:29.137
88, -288.87, 28401.42, -171369.67, -166776.66, -137930.80, -93074.88, -116001.19, 187500.00, 0.000, 0.000, 0.000, 13:45:29.137
89, 6402.34, 34995.32, -181569.38, -180460.84, -164074.94, -118611.59, -142130.64, 187500.00, 0.000, 0.000, 0.000, 13:45:29.137
90, 7910.98, 36561.75, -184316.92, -184331.66, -180897.59, -135030.97, -158947.47, 187500.00, 0.000, 0.000, 0.000, 13:45:29.137
91, 5926.05, 34632.02, -184186.13, -184128.88, -179675.19, -133872.06, -157774.16, 187500.00, 0.000, 0.000, 0.000, 13:45:29.137
92, 106.28, 28887.68, -177879.31, -175414.83, -153630.11, -108480.81, -131798.28, 187500.00, 0.008, -0.094, 1.024, 13:45:29.137
93, -307.47, 28377.53, -171325.83, -166742.08, -137865.28, -93031.53, -115968.00, 187500.00, 0.000, 0.000, 0.000, 13:45:29.138
94, 6395.97, 34981.77, -181529.63, -180412.59, -163941.23, -118501.84, -142030.02, 187500.00, 0.000, 0.000, 0.000, 13:45:29.138
95, 7930.51, 36575.86, -184306.84, -184321.52, -180845.55, -135001.94, -158930.78, 187500.00, 0.000, 0.000, 0.000, 13:45:29.138
96, 5940.07, 34654.46, -184180.95, -184125.86, -179696.55, -133914.28, -157833.75, 187500.00, 0.000, 0.000, 0.000, 13:45:29.138
97, 117.03, 28916.29, -177909.78, -175463.84, -153745.06, -108611.17, -131948.78, 187500.00, 0.000, 0.000, 0.000, 13:45:29.138
98, -339.79, 28363.80, -171288.94, -166707.03, -137806.23, -92987.55, -115939.88, 187500.00, 0.000, 0.000, 0.000, 13:45:29.138
99, 6356.97, 34963.34, -181491.33, -180364.89, -163804.00, -118381.31, -141922.67, 187500.00, 0.000, 0.000, 0.000, 13:45:29.139
100, 7925.17, 36589.63, -184298.94, -184313.50, -180797.72, -134971.89, -158915.27, 187500.00, 0.000, 0.000, 0.000, 13:45:29.139
101, 5957.23, 34681.37, -184181.27, -184127.83, -179719.34, -133955.92, -157890.02, 187500.00, 0.000, 0.000, 0.000, 13:45:29.139
102, 159.32, 28958.25, -177944.38, -175512.27, -153853.78, -108737.63, -132089.73, 187500.00, 0.008, -0.098, 1.028, 13:45:29.139
103, -336.82, 28368.63, -171246.23, -166658.36, -137736.77, -92943.52, -115904.23, 187500.00, 0.000, 0.000, 0.000, 13:45:29.139
104, 6357.82, 34965.14, -181452.27, -180312.09, -163668.08, -118272.77, -141822.48, 187500.00, 0.000, 0.000, 0.000, 13:45:29.139
105, 7939.27, 36596.15, -184285.86, -184300.45, -180755.27, -134948.42, -158904.84, 187500.00, 0.000, 0.000, 0.000, 13:45:29.139
106, 5996.59, 34710.20, -184175.16, -184123.58, -179740.08, -133990.75, -157939.64, 187500.00, 0.000, 0.000, 0.000, 13:45:29.139
107, 204.63, 28997.72, -177988.39, -175570.53, -153968.58, -108861.24, -132231.47, 187500.00, 0.000, 0.000, 0.000, 13:45:29.139
108, -349.49, 28351.49, -171216.34, -166622.61, -137687.66, -92903.66, -115880.80, 187500.00, 0.000, 0.000, 0.000, 13:45:29.140
109, 6335.02, 34943.44, -181410.31, -180257.84, -163529.33, -118143.29, -141707.34, 187500.00, 0.000, 0.000, 0.000, 13:45:29.140
110, 7939.38, 36605.54, -184276.97, -184291.41, -180711.97, -134914.03, -158885.89, 187500.00, 0.000, 0.000, 0.000, 13:45:29.140
111, 6009.89, 34726.32, -184171.86, -184122.00, -179766.58, -134025.66, -157991.88, 187500.00, 0.000, 0.000, 0.000, 13:45:29.140
112, 226.20, 29015.56, -178026.52, -175624.17, -154091.25, -108992.51, -132381.23, 187500.00, 0.012, -0.094, 1.028, 13:45:29.140
113, -371.17, 28324.35, -171181.98, -166575.63, -137631.58, -92863.09, -115853.27, 187500.00, 0.000, 0.000, 0.000, 13:45:29.140
114, 6318.55, 34920.57, -181373.52, -180199.95, -163402.00, -118034.28, -141608.05, 187500.00, 0.000, 0.000, 0.000, 13:45:29.140
115, 7945.55, 36608.11, -184267.02, -184281.30, -180666.95, -134887.34, -158869.42, 187500.00, 0.000, 0.000, 0.000, 13:45:29.140
116, 6028.35, 34746.41, -184167.84, -184119.63, -179786.56, -134063.61, -158040.00, 187500.00, 0.000, 0.000, 0.000, 13:45:29.140
117, 247.50, 29043.41, -178060.47, -175671.94, -154198.44, -109113.19, -132515.27, 187500.00, 0.000, 0.000, 0.000, 13:45:29.141
118, -394.40, 28310.25, -171152.83, -166547.30, -137585.89, -92829.97, -115834.27, 187500.00, 0.000, 0.000, 0.000, 13:45:29.141
119, 6297.54, 34903.12, -181334.53, -180152.95, -163281.16, -117927.46, -141514.70, 187500.00, 0.000, 0.000, 0.000, 13:45:29.141
120, 7952.57, 36609.41, -184258.59, -184272.80, -180626.67, -134858.53, -158855.39, 187500.00, 0.000, 0.000, 0.000, 13:45:29.141
121, 6041.94, 34750.23, -184169.16, -184122.95, -179806.91, -134092.63, -158086.64, 187500.00, 0.000, 0.000, 0.000, 13:45:29.141
122, 269.83, 29061.58, -178106.09, -175734.45, -154312.61, -109237.24, -132661.23, 187500.00, 0.008, -0.092, 1.032, 13:45:29.141
123, -408.97, 28292.26, -171114.38, -166509.20, -137521.41, -92782.00, -115803.16, 187500.00, 0.000, 0.000, 0.000, 13:45:29.141
124, 6283.12, 34888.14, -181297.11, -180106.14, -163151.86, -117816.48, -141417.97, 187500.00, 0.000, 0.000, 0.000, 13:45:29.141
125, 7954.74, 36621.19, -184253.84, -184267.97, -180582.52, -134834.81, -158846.44, 187500.00, 0.000, 0.000, 0.000, 13:45:29.142
126, 6063.36, 34784.12, -184169.58, -184124.91, -179831.63, -134138.16, -158146.77, 187500.00, 0.000, 0.000, 0.000, 13:45:29.142
127, 301.19, 29098.06, -178144.06, -175786.39, -154423.56, -109366.73, -132803.38, 187500.00, 0.000, 0.000, 0.000, 13:45:29.142
128, -424.15, 28279.94, -171098.19, -166493.73, -137473.81, -92756.98, -115785.16, 187500.00, 0.000, 0.000, 0.000, 13:45:29.142
129, 6264.46, 34870.53, -181261.52, -180061.89, -163009.19, -117699.84, -141306.09, 187500.00, 0.000, 0.000, 0.000, 13:45:29.142
130, 7957.20, 36620.00, -184244.39, -184258.41, -180532.06, -134809.22, -158828.11, 187500.00, 0.000, 0.000, 0.000, 13:45:29.142
131, 6069.64, 34781.39, -184166.14, -184124.23, -179854.69, -134183.95, -158203.11, 187500.00, 0.000, 0.000, 0.000, 13:45:29.142
132, 319.25, 29111.58, -178173.03, -175853.42, -154542.64, -109505.15, -132955.66, 187500.00, 0.008, -0.094, 1.024, 13:45:29.142
133, -443.48, 28257.03, -171059.55, -166466.31, -137414.20, -92722.84, -115760.30, 187500.00, 0.000, 0.000, 0.000, 13:45:29.143
134, 6244.50, 34846.23, -181222.27, -180011.69, -162870.89, -117587.36, -141202.06, 187500.00, 0.000, 0.000, 0.000, 13:45:29.143
135, 7959.25, 36617.21, -184233.55, -184247.33, -180486.19, -134780.02, -158810.92, 187500.00, 0.000, 0.000, 0.000, 13:45:29.143
136, 6081.46, 34795.32, -184161.36, -184121.33, -179877.47, -134219.31, -158251.78, 187500.00, 0.000, 0.000, 0.000, 13:45:29.143
137, 341.85, 29134.09, -178207.14, -175908.38, -154663.09, -109636.24, -133102.48, 187500.00, 0.000, 0.000, 0.000, 13:45:29.143
138, -469.30, 28236.60, -171024.72, -166430.80, -137367.36, -92684.23, -115734.96, 187500.00, 0.000, 0.000, 0.000, 13:45:29.143
139, 6226.06, 34836.20, -181186.63, -179964.08, -162756.19, -117480.81, -141107.52, 187500.00, 0.000, 0.000, 0.000, 13:45:29.143
140, 7961.53, 36623.91, -184225.02, -184238.53, -180456.78, -134760.34, -158804.02, 187500.00, 0.000, 0.000, 0.000, 13:45:29.143
141, 6095.03, 34805.55, -184159.33, -184120.56, -179914.70, -134266.41, -158311.36, 187500.00, 0.000, 0.000, 0.000, 13:45:29.144
142, 360.89, 29152.06, -178250.66, -175962.89, -154796.08, -109774.95, -133258.72, 187500.00, 0.004, -0.100, 1.020, 13:45:29.144
143, -490.89, 28209.46, -171014.94, -166414.77, -137339.22, -92668.34, -115731.95, 187500.00, 0.000, 0.000, 0.000, 13:45:29.144
144, 6199.52, 34804.91, -181149.38, -179915.20, -162634.22, -117375.69, -141010.52, 187500.00, 0.000, 0.000, 0.000, 13:45:29.144
145, 7961.51, 36617.99, -184216.66, -184230.22, -180420.91, -134738.66, -158793.20, 187500.00, 0.000, 0.000, 0.000, 13:45:29.144
146, 6111.53, 34828.02, -184159.91, -184122.83, -179944.14, -134305.41, -158364.00, 187500.00, 0.000, 0.000, 0.000, 13:45:29.144
147, 387.33, 29178.82, -178299.09, -176022.16, -154919.53, -109905.52, -133404.69, 187500.00, 0.000, 0.000, 0.000, 13:45:29.144
148, -512.28, 28188.92, -170992.45, -166384.72, -137296.91, -92636.91, -115714.02, 187500.00, 0.000, 0.000, 0.000, 13:45:29.144
149, 6184.01, 34786.00, -181110.81, -179865.63, -162517.42, -117270.50, -140917.86, 187500.00, 0.000, 0.000, 0.000, 13:45:29.144
150, 7971.46, 36629.95, -184208.34, -184221.66, -180393.13, -134718.03, -158786.70, 187500.00, 0.000, 0.000, 0.000, 13:45:29.145
151, 6128.07, 34840.36, -184158.09, -184122.59, -179983.73, -134351.91, -158427.06, 187500.00, 0.002, -0.100, 1.024, 13:45:29.145
152, 409.44, 29199.58, -178334.59, -176073.38, -155053.16, -110045.32, -133563.22, 187500.00, 0.000, 0.000, 0.000, 13:45:29.145
153, -533.42, 28171.38, -170965.00, -166346.39, -137255.48, -92605.73, -115696.05, 187500.00, 0.000, 0.000, 0.000, 13:45:29.145
154, 6158.93, 34765.88, -181074.77, -179808.53, -162394.94, -117159.50, -140819.70, 187500.00, 0.000, 0.000, 0.000, 13:45:29.145
155, 7968.87, 36631.38, -184201.75, -184214.89, -180353.30, -134691.42, -158775.98, 187500.00, 0.000, 0.000, 0.000, 13:45:29.145
156, 6140.09, 34854.19, -184155.14, -184121.13, -180008.78, -134390.47, -158480.92, 187500.00, 0.000, 0.000, 0.000, 13:45:29.145
157, 432.08, 29223.61, -178373.44, -176127.81, -155164.48, -110168.41, -133702.34, 187500.00, 0.000, 0.000, 0.000, 13:45:29.145
158, -553.83, 28152.33, -170948.33, -166334.02, -137218.61, -92582.98, -115685.16, 187500.00, 0.000, 0.000, 0.000, 13:45:29.146
159, 6130.59, 34742.05, -181036.31, -179760.92, -162270.17, -117051.61, -140717.09, 187500.00, 0.000, 0.000, 0.000, 13:45:29.146
160, 7964.66, 36627.91, -184190.86, -184203.89, -180318.72, -134672.75, -158761.50, 187500.00, 0.000, 0.000, 0.000, 13:45:29.146
161, 6144.72, 34857.81, -184151.70, -184119.52, -180041.53, -134436.02, -158535.23, 187500.00, 0.000, -0.096, 1.026, 13:45:29.146
162, 448.67, 29245.94, -178416.33, -176188.95, -155293.91, -110312.47, -133859.36, 187500.00, 0.000, 0.000, 0.000, 13:45:29.146
163, -576.34, 28134.34, -170924.97, -166314.94, -137174.34, -92560.07, -115675.39, 187500.00, 0.000, 0.000, 0.000, 13:45:29.146
