%OpenBCI Raw EEG Data
%
%Sample Rate = 250.0 Hz
%First Column = SampleIndex
%Last Column = Timestamp 
%Other Columns = EEG data in microvolts followed by Accel Data (in G) interleaved with Aux Data
0, 40757.69, 25088.25, -187500.02, -187500.02, -187500.02, -181025.91, -187500.02, -187500.02, -0.002, -0.002, 0.512, 14:56:39.526
1, 40805.07, 25083.64, -187500.02, -187500.02, -187500.02, -180734.83, -187500.02, -187500.02, 0.000, 0.000, 0.000, 14:56:39.527
2, 40574.29, 24954.69, -187500.02, -187500.02, -187500.02, -180676.31, -187500.02, -187500.02, 0.000, 0.000, 0.000, 14:56:39.527
3, 40393.27, 24893.79, -187500.02, -187500.02, -187500.02, -181017.77, -187500.02, -187500.02, 0.000, 0.000, 0.000, 14:56:39.527
4, 40592.31, 25007.58, -187500.02, -187500.02, -187500.02, -181148.77, -187500.02, -187500.02, 0.000, 0.000, 0.000, 14:56:39.527
5, 40749.15, 25082.63, -187500.02, -187500.02, -187500.02, -181009.98, -187500.02, -187500.02, 0.000, 0.000, 0.000, 14:56:39.527
6, 40799.62, 25073.20, -187500.02, -187500.02, -187500.02, -180703.31, -187500.02, -187500.02, 0.000, 0.000, 0.000, 14:56:39.527
7, 40579.95, 24955.48, -187500.02, -187500.02, -187500.02, -180691.27, -187500.02, -187500.02, 0.004, -0.020, 1.032, 14:56:39.527
8, 40406.54, 24894.48, -187500.02, -187500.02, -187500.02, -181018.19, -187500.02, -187500.02, 0.000, 0.000, 0.000, 14:56:39.528
9, 40621.03, 25024.83, -187500.02, -187500.02, -187500.02, -181142.75, -187500.02, -187500.02, 0.000, 0.000, 0.000, 14:56:39.528
10, 40772.96, 25102.84, -187500.02, -187500.02, -187500.02, -181025.36, -187500.02, -187500.02, 0.000, 0.000, 0.000, 14:56:39.528
11, 40816.39, 25091.49, -187500.02, -187500.02, -187500.02, -180669.53, -187500.02, -187500.02, 0.000, 0.000, 0.000, 14:56:39.528
12, 40608.13, 24983.30, -187500.02, -187500.02, -187500.02, -180624.34, -187500.02, -187500.02, 0.000, 0.000, 0.000, 14:56:39.528
13, 40438.46, 24937.35, -187500.02, -187500.02, -187500.02, -180987.59, -187500.02, -187500.02, 0.000, 0.000, 0.000, 14:56:39.528
14, 40639.49, 25050.72, -187500.02, -187500.02, -187500.02, -181148.36, -187500.02, -187500.02, 0.000, 0.000, 0.000, 14:56:39.528
15, 40802.97, 25133.51, -187500.02, -187500.02, -187500.02, -181013.72, -187500.02, -187500.02, 0.000, 0.000, 0.000, 14:56:39.528
16, 40856.35, 25134.29, -187500.02, -187500.02, -187500.02, -180705.28, -187500.02, -187500.02, 0.000, 0.000, 0.000, 14:56:39.529
17, 40622.75, 25002.64, -187500.02, -187500.02, -187500.02, -180660.63, -187500.02, -187500.02, 0.008, -0.018, 1.030, 14:56:39.529
18, 40434.21, 24939.12, -187500.02, -187500.02, -187500.02, -180965.55, -187500.02, -187500.02, 0.000, 0.000, 0.000, 14:56:39.529
19, 40642.98, 25059.26, -187500.02, -187500.02, -187500.02, -181120.66, -187500.02, -187500.02, 0.000, 0.000, 0.000, 14:56:39.529
20, 40799.89, 25129.86, -187500.02, -187500.02, -187500.02, -181020.02, -187500.02, -187500.02, 0.000, 0.000, 0.000, 14:56:39.529
21, 40847.70, 25119.29, -187500.02, -187500.02, -187500.02, -180672.45, -187500.02, -187500.02, 0.000, 0.000, 0.000, 14:56:39.529
22, 40629.66, 25010.51, -187500.02, -187500.02, -187500.02, -180642.84, -187500.02, -187500.02, 0.000, 0.000, 0.000, 14:56:39.529
23, 40440.85, 24953.44, -187500.02, -187500.02, -187500.02, -180992.89, -187500.02, -187500.02, 0.000, 0.000, 0.000, 14:56:39.530
24, 40638.87, 25064.37, -187500.02, -187500.02, -187500.02, -181122.89, -187500.02, -187500.02, 0.000, 0.000, 0.000, 14:56:39.530
25, 40801.52, 25149.89, -187500.02, -187500.02, -187500.02, -181032.73, -187500.02, -187500.02, 0.000, 0.000, 0.000, 14:56:39.530
26, 40859.05, 25138.47, -187500.02, -187500.02, -187500.02, -180741.27, -187500.02, -187500.02, 0.004, -0.016, 1.064, 14:56:39.530
27, 40626.46, 24998.68, -187500.02, -187500.02, -187500.02, -180687.52, -187500.02, -187500.02, 0.000, 0.000, 0.000, 14:56:39.530
28, 40424.36, 24929.93, -187500.02, -187500.02, -187500.02, -180978.09, -187500.02, -187500.02, 0.000, 0.000, 0.000, 14:56:39.530
29, 40628.25, 25054.03, -187500.02, -187500.02, -187500.02, -181091.61, -187500.02, -187500.02, 0.000, 0.000, 0.000, 14:56:39.530
30, 40794.70, 25138.74, -187500.02, -187500.02, -187500.02, -180996.13, -187500.02, -187500.02, 0.000, 0.000, 0.000, 14:56:39.530
31, 40856.71, 25132.14, -187500.02, -187500.02, -187500.02, -180688.09, -187500.02, -187500.02, 0.000, 0.000, 0.000, 14:56:39.531
32, 40637.06, 25017.88, -187500.02, -187500.02, -187500.02, -180642.39, -187500.02, -187500.02, 0.000, 0.000, 0.000, 14:56:39.531
33, 40452.57, 24965.27, -187500.02, -187500.02, -187500.02, -181037.14, -187500.02, -187500.02, 0.000, 0.000, 0.000, 14:56:39.531
34, 40649.39, 25076.15, -187500.02, -187500.02, -187500.02, -181195.13, -187500.02, -187500.02, 0.000, 0.000, 0.000, 14:56:39.531
35, 40811.29, 25163.32, -187500.02, -187500.02, -187500.02, -181047.42, -187500.02, -187500.02, 0.000, 0.000, 0.000, 14:56:39.531
36, 40873.45, 25164.24, -187500.02, -187500.02, -187500.02, -180731.80, -187500.02, -187500.02, 0.002, -0.016, 1.058, 14:56:39.531
37, 40639.20, 25036.70, -187500.02, -187500.02, -187500.02, -180657.36, -187500.02, -187500.02, 0.000, 0.000, 0.000, 14:56:39.531
38, 40441.25, 24967.50, -187500.02, -187500.02, -187500.02, -181003.92, -187500.02, -187500.02, 0.000, 0.000, 0.000, 14:56:39.531
39, 40649.02, 25087.78, -187500.02, -187500.02, -187500.02, -181133.59, -187500.02, -187500.02, 0.000, 0.000, 0.000, 14:56:39.532
40, 40814.13, 25175.57, -187500.02, -187500.02, -187500.02, -181028.31, -187500.02, -187500.02, 0.000, 0.000, 0.000, 14:56:39.532
41, 40876.29, 25171.44, -187500.02, -187500.02, -187500.02, -180693.75, -187500.02, -187500.02, 0.000, 0.000, 0.000, 14:56:39.532
42, 40646.24, 25046.56, -187500.02, -187500.02, -187500.02, -180647.98, -187500.02, -187500.02, 0.000, 0.000, 0.000, 14:56:39.532
43, 40443.94, 24980.62, -187500.02, -187500.02, -187500.02, -180994.63, -187500.02, -187500.02, 0.000, 0.000, 0.000, 14:56:39.532
44, 40649.04, 25095.62, -187500.02, -187500.02, -187500.02, -181127.48, -187500.02, -187500.02, 0.000, 0.000, 0.000, 14:56:39.532
45, 40814.53, 25169.81, -187500.02, -187500.02, -187500.02, -180987.05, -187500.02, -187500.02, 0.000, 0.000, 0.000, 14:56:39.532
46, 40882.23, 25173.41, -187500.02, -187500.02, -187500.02, -180663.78, -187500.02, -187500.02, 0.008, -0.020, 1.040, 14:56:39.533
47, 40665.31, 25056.21, -187500.02, -187500.02, -187500.02, -180619.17, -187500.02, -187500.02, 0.000, 0.000, 0.000, 14:56:39.533
48, 40456.88, 24980.93, -187500.02, -187500.02, -187500.02, -180963.20, -187500.02, -187500.02, 0.000, 0.000, 0.000, 14:56:39.533
49, 40664.89, 25100.96, -187500.02, -187500.02, -187500.02, -181087.80, -187500.02, -187500.02, 0.000, 0.000, 0.000, 14:56:39.533
50, 40834.22, 25190.10, -187500.02, -187500.02, -187500.02, -180995.13, -187500.02, -187500.02, 0.000, 0.000, 0.000, 14:56:39.533
51, 40907.76, 25198.04, -187500.02, -187500.02, -187500.02, -180696.55, -187500.02, -187500.02, 0.000, 0.000, 0.000, 14:56:39.533
52, 40670.56, 25064.49, -187500.02, -187500.02, -187500.02, -180651.06, -187500.02, -187500.02, 0.000, 0.000, 0.000, 14:56:39.533
53, 40465.17, 24993.79, -187500.02, -187500.02, -187500.02, -181007.69, -187500.02, -187500.02, 0.000, 0.000, 0.000, 14:56:39.533
54, 40688.13, 25120.95, -187500.02, -187500.02, -187500.02, -181166.05, -187500.02, -187500.02, 0.000, 0.000, 0.000, 14:56:39.533
55, 40859.23, 25214.42, -187500.02, -187500.02, -187500.02, -181049.09, -187500.02, -187500.02, 0.000, 0.000, 0.000, 14:56:39.534
56, 40923.16, 25211.72, -187500.02, -187500.02, -187500.02, -180676.72, -187500.02, -187500.02, 0.006, -0.018, 1.038, 14:56:39.534
57, 40695.21, 25089.70, -187500.02, -187500.02, -187500.02, -180604.08, -187500.02, -187500.02, 0.000, 0.000, 0.000, 14:56:39.534
58, 40486.03, 25010.89, -187500.02, -187500.02, -187500.02, -180948.19, -187500.02, -187500.02, 0.000, 0.000, 0.000, 14:56:39.534
59, 40707.53, 25133.62, -187500.02, -187500.02, -187500.02, -181137.80, -187500.02, -187500.02, 0.000, 0.000, 0.000, 14:56:39.534
60, 40874.99, 25211.94, -187500.02, -187500.02, -187500.02, -181022.08, -187500.02, -187500.02, 0.000, 0.000, 0.000, 14:56:39.534
61, 40951.10, 25224.46, -187500.02, -187500.02, -187500.02, -180704.59, -187500.02, -187500.02, 0.000, 0.000, 0.000, 14:56:39.534
62, 40705.01, 25097.77, -187500.02, -187500.02, -187500.02, -180665.92, -187500.02, -187500.02, 0.000, 0.000, 0.000, 14:56:39.535
63, 40473.62, 25009.28, -187500.02, -187500.02, -187500.02, -181003.14, -187500.02, -187500.02, 0.000, 0.000, 0.000, 14:56:39.535
64, 40698.59, 25133.44, -187500.02, -187500.02, -187500.02, -181124.03, -187500.02, -187500.02, 0.000, 0.000, 0.000, 14:56:39.536
65, 40875.95, 25219.76, -187500.02, -187500.02, -187500.02, -181016.73, -187500.02, -187500.02, 0.000, 0.000, 0.000, 14:56:39.536
66, 40953.45, 25229.82, -187500.02, -187500.02, -187500.02, -180691.81, -187500.02, -187500.02, 0.008, -0.016, 1.034, 14:56:39.536
67, 40715.96, 25105.46, -187500.02, -187500.02, -187500.02, -180656.11, -187500.02, -187500.02, 0.000, 0.000, 0.000, 14:56:39.536
68, 40489.58, 25026.80, -187500.02, -187500.02, -187500.02, -180990.25, -187500.02, -187500.02, 0.000, 0.000, 0.000, 14:56:39.536
69, 40708.70, 25150.90, -187500.02, -187500.02, -187500.02, -181163.19, -187500.02, -187500.02, 0.000, 0.000, 0.000, 14:56:39.536
70, 40882.25, 25235.54, -187500.02, -187500.02, -187500.02, -181051.53, -187500.02, -187500.02, 0.000, 0.000, 0.000, 14:56:39.536
71, 40953.71, 25238.56, -187500.02, -187500.02, -187500.02, -180654.17, -187500.02, -187500.02, 0.000, 0.000, 0.000, 14:56:39.536
72, 40721.66, 25117.10, -187500.02, -187500.02, -187500.02, -180616.14, -187500.02, -187500.02, 0.000, 0.000, 0.000, 14:56:39.536
73, 40507.77, 25040.48, -187500.02, -187500.02, -187500.02, -180999.14, -187500.02, -187500.02, 0.000, 0.000, 0.000, 14:56:39.537
74, 40727.25, 25162.21, -187500.02, -187500.02, -187500.02, -181147.34, -187500.02, -187500.02, 0.000, 0.000, 0.000, 14:56:39.537
75, 40907.38, 25250.25, -187500.02, -187500.02, -187500.02, -181003.89, -187500.02, -187500.02, 0.000, 0.000, 0.000, 14:56:39.537
76, 40974.86, 25251.03, -187500.02, -187500.02, -187500.02, -180656.47, -187500.02, -187500.02, 0.008, -0.020, 1.036, 14:56:39.537
77, 40752.10, 25139.52, -187500.02, -187500.02, -187500.02, -180616.22, -187500.02, -187500.02, 0.000, 0.000, 0.000, 14:56:39.537
78, 40527.87, 25054.63, -187500.02, -187500.02, -187500.02, -180959.45, -187500.02, -187500.02, 0.000, 0.000, 0.000, 14:56:39.537
79, 40737.80, 25177.59, -187500.02, -187500.02, -187500.02, -181110.03, -187500.02, -187500.02, 0.000, 0.000, 0.000, 14:56:39.537
80, 40913.61, 25277.21, -187500.02, -187500.02, -187500.02, -181008.25, -187500.02, -187500.02, 0.000, 0.000, 0.000, 14:56:39.537
81, 40992.25, 25290.13, -187500.02, -187500.02, -187500.02, -180669.55, -187500.02, -187500.02, 0.000, 0.000, 0.000, 14:56:39.538
82, 40758.81, 25164.49, -187500.02, -187500.02, -187500.02, -180632.42, -187500.02, -187500.02, 0.000, 0.000, 0.000, 14:56:39.538
83, 40545.55, 25082.95, -187500.02, -187500.02, -187500.02, -180979.81, -187500.02, -187500.02, 0.000, 0.000, 0.000, 14:56:39.538
84, 40756.97, 25202.44, -187500.02, -187500.02, -187500.02, -181127.95, -187500.02, -187500.02, 0.000, 0.000, 0.000, 14:56:39.538
85, 40931.23, 25286.95, -187500.02, -187500.02, -187500.02, -181009.36, -187500.02, -187500.02, 0.000, 0.000, 0.000, 14:56:39.538
86, 40999.85, 25291.82, -187500.02, -187500.02, -187500.02, -180684.97, -187500.02, -187500.02, 0.006, -0.012, 1.032, 14:56:39.538
87, 40771.23, 25173.49, -187500.02, -187500.02, -187500.02, -180604.56, -187500.02, -187500.02, 0.000, 0.000, 0.000, 14:56:39.538
88, 40550.38, 25091.08, -187500.02, -187500.02, -187500.02, -180962.02, -187500.02, -187500.02, 0.000, 0.000, 0.000, 14:56:39.538
89, 40763.81, 25220.14, -187500.02, -187500.02, -187500.02, -181125.98, -187500.02, -187500.02, 0.000, 0.000, 0.000, 14:56:39.539
90, 40939.99, 25308.12, -187500.02, -187500.02, -187500.02, -180996.64, -187500.02, -187500.02, 0.000, 0.000, 0.000, 14:56:39.539
91, 40998.60, 25302.71, -187500.02, -187500.02, -187500.02, -180623.95, -187500.02, -187500.02, 0.000, 0.000, 0.000, 14:56:39.539
92, 40757.98, 25172.27, -187500.02, -187500.02, -187500.02, -180567.53, -187500.02, -187500.02, 0.000, 0.000, 0.000, 14:56:39.539
93, 40546.20, 25094.44, -187500.02, -187500.02, -187500.02, -180949.69, -187500.02, -187500.02, 0.000, 0.000, 0.000, 14:56:39.539
94, 40764.11, 25217.75, -187500.02, -187500.02, -187500.02, -181109.19, -187500.02, -187500.02, 0.000, 0.000, 0.000, 14:56:39.539
95, 40940.88, 25310.18, -187500.02, -187500.02, -187500.02, -180984.80, -187500.02, -187500.02, 0.000, 0.000, 0.000, 14:56:39.539
96, 41017.24, 25319.45, -187500.02, -187500.02, -187500.02, -180656.63, -187500.02, -187500.02, 0.012, -0.014, 1.030, 14:56:39.539
97, 40783.37, 25186.97, -187500.02, -187500.02, -187500.02, -180601.98, -187500.02, -187500.02, 0.000, 0.000, 0.000, 14:56:39.540
98, 40558.04, 25094.12, -187500.02, -187500.02, -187500.02, -180921.98, -187500.02, -187500.02, 0.000, 0.000, 0.000, 14:56:39.540
99, 40771.39, 25210.73, -187500.02, -187500.02, -187500.02, -181069.69, -187500.02, -187500.02, 0.000, 0.000, 0.000, 14:56:39.540
100, 40946.67, 25296.50, -187500.02, -187500.02, -187500.02, -180910.47, -187500.02, -187500.02, 0.000, 0.000, 0.000, 14:56:39.540
101, 41039.23, 25319.96, -187500.02, -187500.02, -187500.02, -180609.73, -187500.02, -187500.02, 0.000, 0.000, 0.000, 14:56:39.540
102, 40812.96, 25201.77, -187500.02, -187500.02, -187500.02, -180586.38, -187500.02, -187500.02, 0.000, 0.000, 0.000, 14:56:39.540
103, 40589.16, 25110.06, -187500.02, -187500.02, -187500.02, -180964.09, -187500.02, -187500.02, 0.000, 0.000, 0.000, 14:56:39.540
104, 40802.84, 25237.02, -187500.02, -187500.02, -187500.02, -181102.36, -187500.02, -187500.02, 0.000, 0.000, 0.000, 14:56:39.540
105, 40976.54, 25338.70, -187500.02, -187500.02, -187500.02, -180975.44, -187500.02, -187500.02, 0.000, 0.000, 0.000, 14:56:39.541
106, 41052.26, 25343.30, -187500.02, -187500.02, -187500.02, -180661.44, -187500.02, -187500.02, 0.008, -0.014, 1.030, 14:56:39.541
107, 40819.61, 25206.96, -187500.02, -187500.02, -187500.02, -180588.25, -187500.02, -187500.02, 0.000, 0.000, 0.000, 14:56:39.541
108, 40598.72, 25111.38, -187500.02, -187500.02, -187500.02, -180913.72, -187500.02, -187500.02, 0.000, 0.000, 0.000, 14:56:39.541
109, 40811.73, 25236.82, -187500.02, -187500.02, -187500.02, -181073.86, -187500.02, -187500.02, 0.000, 0.000, 0.000, 14:56:39.541
110, 40980.45, 25331.66, -187500.02, -187500.02, -187500.02, -180967.14, -187500.02, -187500.02, 0.000, 0.000, 0.000, 14:56:39.541
111, 41042.07, 25337.65, -187500.02, -187500.02, -187500.02, -180606.16, -187500.02, -187500.02, 0.000, 0.000, 0.000, 14:56:39.541
112, 40813.90, 25221.62, -187500.02, -187500.02, -187500.02, -180590.20, -187500.02, -187500.02, 0.000, 0.000, 0.000, 14:56:39.541
113, 40592.89, 25123.92, -187500.02, -187500.02, -187500.02, -180927.59, -187500.02, -187500.02, 0.000, 0.000, 0.000, 14:56:39.542
114, 40820.32, 25259.35, -187500.02, -187500.02, -187500.02, -181069.52, -187500.02, -187500.02, 0.000, 0.000, 0.000, 14:56:39.542
115, 41000.77, 25355.62, -187500.02, -187500.02, -187500.02, -180981.48, -187500.02, -187500.02, 0.000, 0.000, 0.000, 14:56:39.542
116, 41066.70, 25363.93, -187500.02, -187500.02, -187500.02, -180644.77, -187500.02, -187500.02, 0.008, -0.012, 1.030, 14:56:39.542
117, 40819.09, 25223.79, -187500.02, -187500.02, -187500.02, -180563.00, -187500.02, -187500.02, 0.000, 0.000, 0.000, 14:56:39.542
118, 40608.65, 25135.63, -187500.02, -187500.02, -187500.02, -180927.67, -187500.02, -187500.02, 0.000, 0.000, 0.000, 14:56:39.542
119, 40826.40, 25259.21, -187500.02, -187500.02, -187500.02, -181077.02, -187500.02, -187500.02, 0.000, 0.000, 0.000, 14:56:39.542
120, 41000.03, 25349.31, -187500.02, -187500.02, -187500.02, -180966.91, -187500.02, -187500.02, 0.000, 0.000, 0.000, 14:56:40.007
121, 41074.52, 25367.31, -187500.02, -187500.02, -187500.02, -180635.39, -187500.02, -187500.02, 0.000, 0.000, 0.000, 14:56:40.007
122, 40840.23, 25237.44, -187500.02, -187500.02, -187500.02, -180563.47, -187500.02, -187500.02, 0.000, 0.000, 0.000, 14:56:40.008
123, 40619.18, 25139.30, -187500.02, -187500.02, -187500.02, -180924.67, -187500.02, -187500.02, 0.000, 0.000, 0.000, 14:56:40.008
124, 40836.59, 25263.59, -187500.02, -187500.02, -187500.02, -181094.19, -187500.02, -187500.02, 0.000, 0.000, 0.000, 14:56:40.008
125, 41009.01, 25358.68, -187500.02, -187500.02, -187500.02, -180989.36, -187500.02, -187500.02, 0.000, 0.000, 0.000, 14:56:40.008
126, 41085.14, 25380.32, -187500.02, -187500.02, -187500.02, -180628.47, -187500.02, -187500.02, 0.010, -0.010, 1.030, 14:56:40.008
127, 40855.90, 25252.24, -187500.02, -187500.02, -187500.02, -180569.09, -187500.02, -187500.02, 0.000, 0.000, 0.000, 14:56:40.009
128, 40638.00, 25155.59, -187500.02, -187500.02, -187500.02, -180947.00, -187500.02, -187500.02, 0.000, 0.000, 0.000, 14:56:40.009
129, 40855.28, 25283.04, -187500.02, -187500.02, -187500.02, -181105.61, -187500.02, -187500.02, 0.000, 0.000, 0.000, 14:56:40.009
130, 41030.11, 25379.78, -187500.02, -187500.02, -187500.02, -180994.23, -187500.02, -187500.02, 0.000, 0.000, 0.000, 14:56:40.009
131, 41109.33, 25397.79, -187500.02, -187500.02, -187500.02, -180657.55, -187500.02, -187500.02, 0.000, 0.000, 0.000, 14:56:40.009
132, 40865.43, 25253.76, -187500.02, -187500.02, -187500.02, -180598.77, -187500.02, -187500.02, 0.000, 0.000, 0.000, 14:56:40.010
133, 40631.71, 25144.79, -187500.02, -187500.02, -187500.02, -180975.92, -187500.02, -187500.02, 0.000, 0.000, 0.000, 14:56:40.010
134, 40846.61, 25268.94, -187500.02, -187500.02, -187500.02, -181107.80, -187500.02, -187500.02, 0.000, 0.000, 0.000, 14:56:40.010
135, 41025.26, 25380.49, -187500.02, -187500.02, -187500.02, -181010.66, -187500.02, -187500.02, 0.000, 0.000, 0.000, 14:56:40.010
136, 41113.08, 25415.07, -187500.02, -187500.02, -187500.02, -180675.64, -187500.02, -187500.02, 0.012, -0.008, 1.024, 14:56:40.010
137, 40888.07, 25287.15, -187500.02, -187500.02, -187500.02, -180642.44, -187500.02, -187500.02, 0.000, 0.000, 0.000, 14:56:40.011
138, 40643.29, 25167.17, -187500.02, -187500.02, -187500.02, -180996.13, -187500.02, -187500.02, 0.000, 0.000, 0.000, 14:56:40.011
139, 40848.66, 25285.83, -187500.02, -187500.02, -187500.02, -181119.02, -187500.02, -187500.02, 0.000, 0.000, 0.000, 14:56:40.011
140, 41030.87, 25385.68, -187500.02, -187500.02, -187500.02, -181006.13, -187500.02, -187500.02, 0.000, 0.000, 0.000, 14:56:40.011
141, 41126.38, 25418.78, -187500.02, -187500.02, -187500.02, -180694.67, -187500.02, -187500.02, 0.000, 0.000, 0.000, 14:56:40.011
142, 40877.76, 25279.93, -187500.02, -187500.02, -187500.02, -180607.52, -187500.02, -187500.02, 0.000, 0.000, 0.000, 14:56:40.011
143, 40633.75, 25164.44, -187500.02, -187500.02, -187500.02, -180946.95, -187500.02, -187500.02, 0.000, 0.000, 0.000, 14:56:40.011
144, 40853.13, 25291.40, -187500.02, -187500.02, -187500.02, -181095.19, -187500.02, -187500.02, 0.000, 0.000, 0.000, 14:56:40.011
145, 41036.48, 25391.94, -187500.02, -187500.02, -187500.02, -180953.89, -187500.02, -187500.02, 0.012, -0.012, 1.022, 14:56:40.011
146, 41133.63, 25434.41, -187500.02, -187500.02, -187500.02, -180621.41, -187500.02, -187500.02, 0.000, 0.000, 0.000, 14:56:40.012
147, 40900.81, 25303.80, -187500.02, -187500.02, -187500.02, -180592.83, -187500.02, -187500.02, 0.000, 0.000, 0.000, 14:56:40.012
148, 40644.70, 25174.88, -187500.02, -187500.02, -187500.02, -180969.13, -187500.02, -187500.02, 0.000, 0.000, 0.000, 14:56:40.012
149, 40853.20, 25307.29, -187500.02, -187500.02, -187500.02, -181081.17, -187500.02, -187500.02, 0.000, 0.000, 0.000, 14:56:40.012
150, 41052.84, 25424.97, -187500.02, -187500.02, -187500.02, -180959.94, -187500.02, -187500.02, 0.000, 0.000, 0.000, 14:56:40.012
151, 41155.62, 25449.76, -187500.02, -187500.02, -187500.02, -180649.05, -187500.02, -187500.02, 0.000, 0.000, 0.000, 14:56:40.012
152, 40909.73, 25313.19, -187500.02, -187500.02, -187500.02, -180608.70, -187500.02, -187500.02, 0.000, 0.000, 0.000, 14:56:40.012
153, 40649.29, 25198.15, -187500.02, -187500.02, -187500.02, -180981.08, -187500.02, -187500.02, 0.000, 0.000, 0.000, 14:56:40.012
154, 40866.23, 25318.74, -187500.02, -187500.02, -187500.02, -181156.86, -187500.02, -187500.02, 0.000, 0.000, 0.000, 14:56:40.013
155, 41065.23, 25434.29, -187500.02, -187500.02, -187500.02, -181072.13, -187500.02, -187500.02, 0.012, -0.010, 1.026, 14:56:40.013
156, 41168.65, 25459.98, -187500.02, -187500.02, -187500.02, -180705.94, -187500.02, -187500.02, 0.000, 0.000, 0.000, 14:56:40.013
157, 40922.09, 25320.68, -187500.02, -187500.02, -187500.02, -180620.50, -187500.02, -187500.02, 0.000, 0.000, 0.000, 14:56:40.013
158, 40653.29, 25189.28, -187500.02, -187500.02, -187500.02, -180969.42, -187500.02, -187500.02, 0.000, 0.000, 0.000, 14:56:40.013
159, 40881.63, 25317.66, -187500.02, -187500.02, -187500.02, -181113.25, -187500.02, -187500.02, 0.000, 0.000, 0.000, 14:56:40.013
160, 41073.05, 25425.42, -187500.02, -187500.02, -187500.02, -180978.14, -187500.02, -187500.02, 0.000, 0.000, 0.000, 14:56:40.013
161, 41180.29, 25465.77, -187500.02, -187500.02, -187500.02, -180640.69, -187500.02, -187500.02, 0.000, 0.000, 0.000, 14:56:40.013
162, 40933.04, 25336.39, -187500.02, -187500.02, -187500.02, -180575.58, -187500.02, -187500.02, 0.000, 0.000, 0.000, 14:56:40.014
163, 40653.55, 25209.95, -187500.02, -187500.02, -187500.02, -180974.52, -187500.02, -187500.02, 0.000, 0.000, 0.000, 14:56:40.014
164, 40876.45, 25326.96, -187500.02, -187500.02, -187500.02, -181099.55, -187500.02, -187500.02, 0.000, 0.000, 0.000, 14:56:40.014
165, 41081.97, 25442.61, -187500.02, -187500.02, -187500.02, -181012.94, -187500.02, -187500.02, 0.008, -0.014, 1.028, 14:56:40.014
166, 41199.47, 25484.70, -187500.02, -187500.02, -187500.02, -180676.61, -187500.02, -187500.02, 0.000, 0.000, 0.000, 14:56:40.014
167, 40934.94, 25325.89, -187500.02, -187500.02, -187500.02, -180581.33, -187500.02, -187500.02, 0.000, 0.000, 0.000, 14:56:40.015
168, 40654.67, 25208.27, -187500.02, -187500.02, -187500.02, -180957.91, -187500.02, -187500.02, 0.000, 0.000, 0.000, 14:56:40.015
169, 40885.88, 25345.11, -187500.02, -187500.02, -187500.02, -181118.33, -187500.02, -187500.02, 0.000, 0.000, 0.000, 14:56:40.015
170, 41109.24, 25455.75, -187500.02, -187500.02, -187500.02, -181008.58, -187500.02, -187500.02, 0.000, 0.000, 0.000, 14:56:40.015
171, 41228.13, 25490.96, -187500.02, -187500.02, -187500.02, -180621.67, -187500.02, -187500.02, 0.000, 0.000, 0.000, 14:56:40.015
172, 40960.26, 25343.70, -187500.02, -187500.02, -187500.02, -180493.27, -187500.02, -187500.02, 0.000, 0.000, 0.000, 14:56:40.015
173, 40670.20, 25221.30, -187500.02, -187500.02, -187500.02, -180886.78, -187500.02, -187500.02, 0.000, 0.000, 0.000, 14:56:40.016
174, 40904.85, 25362.21, -187500.02, -187500.02, -187500.02, -181095.59, -187500.02, -187500.02, 0.000, 0.000, 0.000, 14:56:40.016
175, 41121.13, 25474.39, -187500.02, -187500.02, -187500.02, -181009.16, -187500.02, -187500.02, 0.006, -0.014, 1.028, 14:56:40.016
176, 41243.04, 25510.54, -187500.02, -187500.02, -187500.02, -180667.00, -187500.02, -187500.02, 0.000, 0.000, 0.000, 14:56:40.016
177, 40970.97, 25367.71, -187500.02, -187500.02, -187500.02, -180582.36, -187500.02, -187500.02, 0.000, 0.000, 0.000, 14:56:40.016
178, 40667.99, 25231.59, -187500.02, -187500.02, -187500.02, -180933.36, -187500.02, -187500.02, 0.000, 0.000, 0.000, 14:56:40.016
179, 40916.01, 25379.11, -187500.02, -187500.02, -187500.02, -181097.42, -187500.02, -187500.02, 0.000, 0.000, 0.000, 14:56:40.017
180, 41138.05, 25494.33, -187500.02, -187500.02, -187500.02, -180991.02, -187500.02, -187500.02, 0.000, 0.000, 0.000, 14:56:40.017
181, 41263.29, 25527.95, -187500.02, -187500.02, -187500.02, -180645.73, -187500.02, -187500.02, 0.000, 0.000, 0.000, 14:56:40.017
182, 40981.90, 25381.21, -187500.02, -187500.02, -187500.02, -180596.55, -187500.02, -187500.02, 0.000, 0.000, 0.000, 14:56:40.017
183, 40663.97, 25236.59, -187500.02, -187500.02, -187500.02, -180961.81, -187500.02, -187500.02, 0.000, 0.000, 0.000, 14:56:40.017
184, 40904.09, 25377.88, -187500.02, -187500.02, -187500.02, -181099.22, -187500.02, -187500.02, 0.000, 0.000, 0.000, 14:56:40.017
185, 41131.81, 25503.83, -187500.02, -187500.02, -187500.02, -181007.23, -187500.02, -187500.02, 0.012, -0.014, 1.024, 14:56:40.017
186, 41256.31, 25533.13, -187500.02, -187500.02, -187500.02, -180642.39, -187500.02, -187500.02, 0.000, 0.000, 0.000, 14:56:40.017
187, 40977.16, 25381.79, -187500.02, -187500.02, -187500.02, -180538.91, -187500.02, -187500.02, 0.000, 0.000, 0.000, 14:56:40.018
188, 40662.70, 25251.10, -187500.02, -187500.02, -187500.02, -180908.55, -187500.02, -187500.02, 0.000, 0.000, 0.000, 14:56:40.018
189, 40904.47, 25390.82, -187500.02, -187500.02, -187500.02, -181071.63, -187500.02, -187500.02, 0.000, 0.000, 0.000, 14:56:40.018
190, 41137.07, 25517.67, -187500.02, -187500.02, -187500.02, -180992.00, -187500.02, -187500.02, 0.000, 0.000, 0.000, 14:56:40.018
191, 41260.04, 25546.50, -187500.02, -187500.02, -187500.02, -180587.41, -187500.02, -187500.02, 0.000, 0.000, 0.000, 14:56:40.018
192, 40982.50, 25403.94, -187500.02, -187500.02, -187500.02, -180519.86, -187500.02, -187500.02, 0.000, 0.000, 0.000, 14:56:40.018
193, 40671.90, 25275.55, -187500.02, -187500.02, -187500.02, -180932.25, -187500.02, -187500.02, 0.000, 0.000, 0.000, 14:56:40.018
194, 40922.64, 25415.43, -187500.02, -187500.02, -187500.02, -181122.91, -187500.02, -187500.02, 0.000, 0.000, 0.000, 14:56:40.018
195, 41153.89, 25538.92, -187500.02, -187500.02, -187500.02, -181025.92, -187500.02, -187500.02, 0.006, -0.014, 1.028, 14:56:40.019
196, 41284.92, 25584.68, -187500.02, -187500.02, -187500.02, -180634.03, -187500.02, -187500.02, 0.000, 0.000, 0.000, 14:56:40.019
197, 41011.89, 25440.55, -187500.02, -187500.02, -187500.02, -180586.13, -187500.02, -187500.02, 0.000, 0.000, 0.000, 14:56:40.019
198, 40681.38, 25285.32, -187500.02, -187500.02, -187500.02, -180961.66, -187500.02, -187500.02, 0.000, 0.000, 0.000, 14:56:40.019
199, 40923.50, 25417.69, -187500.02, -187500.02, -187500.02, -181111.31, -187500.02, -187500.02, 0.000, 0.000, 0.000, 14:56:40.019
200, 41156.02, 25545.12, -187500.02, -187500.02, -187500.02, -180992.42, -187500.02, -187500.02, 0.000, 0.000, 0.000, 14:56:40.019
201, 41293.86, 25600.41, -187500.02, -187500.02, -187500.02, -180633.63, -187500.02, -187500.02, 0.000, 0.000, 0.000, 14:56:40.019
202, 41020.32, 25452.06, -187500.02, -187500.02, -187500.02, -180569.77, -187500.02, -187500.02, 0.000, 0.000, 0.000, 14:56:40.019
203, 40695.57, 25295.33, -187500.02, -187500.02, -187500.02, -180928.89, -187500.02, -187500.02, 0.000, 0.000, 0.000, 14:56:40.019
204, 40947.34, 25437.33, -187500.02, -187500.02, -187500.02, -181087.38, -187500.02, -187500.02, 0.000, 0.000, 0.000, 14:56:40.020
205, 41171.22, 25556.92, -187500.02, -187500.02, -187500.02, -180986.36, -187500.02, -187500.02, 0.010, -0.018, 1.036, 14:56:40.020
206, 41305.15, 25605.89, -187500.02, -187500.02, -187500.02, -180612.14, -187500.02, -187500.02, 0.000, 0.000, 0.000, 14:56:40.020
207, 41026.92, 25467.26, -187500.02, -187500.02, -187500.02, -180516.61, -187500.02, -187500.02, 0.000, 0.000, 0.000, 14:56:40.020
208, 40700.80, 25323.43, -187500.02, -187500.02, -187500.02, -180935.83, -187500.02, -187500.02, 0.000, 0.000, 0.000, 14:56:40.020
209, 40947.10, 25450.61, -187500.02, -187500.02, -187500.02, -181127.00, -187500.02, -187500.02, 0.000, 0.000, 0.000, 14:56:40.020
210, 41172.25, 25558.59, -187500.02, -187500.02, -187500.02, -181025.45, -187500.02, -187500.02, 0.000, 0.000, 0.000, 14:56:40.020
211, 41304.21, 25603.16, -187500.02, -187500.02, -187500.02, -180617.64, -187500.02, -187500.02, 0.000, 0.000, 0.000, 14:56:40.020
212, 41038.79, 25473.75, -187500.02, -187500.02, -187500.02, -180566.58, -187500.02, -187500.02, 0.000, 0.000, 0.000, 14:56:40.021
213, 40724.72, 25334.12, -187500.02, -187500.02, -187500.02, -180982.78, -187500.02, -187500.02, 0.000, 0.000, 0.000, 14:56:40.021
214, 40963.46, 25463.17, -187500.02, -187500.02, -187500.02, -181145.14, -187500.02, -187500.02, 0.000, 0.000, 0.000, 14:56:40.021
215, 41201.77, 25587.70, -187500.02, -187500.02, -187500.02, -181047.69, -187500.02, -187500.02, 0.006, -0.014, 1.030, 14:56:40.021
216, 41334.90, 25632.96, -187500.02, -187500.02, -187500.02, -180683.42, -187500.02, -187500.02, 0.000, 0.000, 0.000, 14:56:40.021
217, 41041.36, 25479.27, -187500.02, -187500.02, -187500.02, -180578.86, -187500.02, -187500.02, 0.000, 0.000, 0.000, 14:56:40.021
218, 40711.64, 25324.44, -187500.02, -187500.02, -187500.02, -180923.94, -187500.02, -187500.02, 0.000, 0.000, 0.000, 14:56:40.021
219, 40988.80, 25484.92, -187500.02, -187500.02, -187500.02, -181117.94, -187500.02, -187500.02, 0.000, 0.000, 0.000, 14:56:40.022
220, 41211.43, 25594.31, -187500.02, -187500.02, -187500.02, -181032.84, -187500.02, -187500.02, 0.000, 0.000, 0.000, 14:56:40.022
221, 41337.05, 25637.58, -187500.02, -187500.02, -187500.02, -180643.08, -187500.02, -187500.02, 0.000, 0.000, 0.000, 14:56:40.022
222, 41063.46, 25504.21, -187500.02, -187500.02, -187500.02, -180564.38, -187500.02, -187500.02, 0.000, 0.000, 0.000, 14:56:40.022
223, 40743.65, 25365.05, -187500.02, -187500.02, -187500.02, -180991.86, -187500.02, -187500.02, 0.000, 0.000, 0.000, 14:56:40.022
224, 40991.89, 25499.83, -187500.02, -187500.02, -187500.02, -181151.73, -187500.02, -187500.02, 0.000, 0.000, 0.000, 14:56:40.022
225, 41221.15, 25624.24, -187500.02, -187500.02, -187500.02, -181004.67, -187500.02, -187500.02, 0.004, -0.016, 1.036, 14:56:40.022
226, 41350.59, 25668.83, -187500.02, -187500.02, -187500.02, -180639.55, -187500.02, -187500.02, 0.000, 0.000, 0.000, 14:56:40.022
227, 41068.69, 25518.00, -187500.02, -187500.02, -187500.02, -180570.27, -187500.02, -187500.02, 0.000, 0.000, 0.000, 14:56:40.023
228, 40738.76, 25370.75, -187500.02, -187500.02, -187500.02, -180968.44, -187500.02, -187500.02, 0.000, 0.000, 0.000, 14:56:40.023
229, 40990.66, 25512.26, -187500.02, -187500.02, -187500.02, -181134.02, -187500.02, -187500.02, 0.000, 0.000, 0.000, 14:56:40.023
230, 41217.09, 25630.07, -187500.02, -187500.02, -187500.02, -181003.91, -187500.02, -187500.02, 0.000, 0.000, 0.000, 14:56:40.023
231, 41354.68, 25676.30, -187500.02, -187500.02, -187500.02, -180668.89, -187500.02, -187500.02, 0.000, 0.000, 0.000, 14:56:40.023
232, 41072.40, 25530.74, -187500.02, -187500.02, -187500.02, -180562.14, -187500.02, -187500.02, 0.000, 0.000, 0.000, 14:56:40.023
233, 40738.42, 25371.29, -187500.02, -187500.02, -187500.02, -180932.98, -187500.02, -187500.02, 0.000, 0.000, 0.000, 14:56:40.023
234, 40983.20, 25513.98, -187500.02, -187500.02, -187500.02, -181108.95, -187500.02, -187500.02, 0.000, 0.000, 0.000, 14:56:40.023
235, 41218.38, 25645.07, -187500.02, -187500.02, -187500.02, -180977.23, -187500.02, -187500.02, 0.008, -0.018, 1.034, 14:56:40.024
236, 41351.51, 25689.75, -187500.02, -187500.02, -187500.02, -180605.94, -187500.02, -187500.02, 0.000, 0.000, 0.000, 14:56:40.024
237, 41083.24, 25547.57, -187500.02, -187500.02, -187500.02, -180547.64, -187500.02, -187500.02, 0.000, 0.000, 0.000, 14:56:40.024
238, 40766.99, 25397.86, -187500.02, -187500.02, -187500.02, -180993.80, -187500.02, -187500.02, 0.000, 0.000, 0.000, 14:56:40.024
239, 41010.84, 25531.12, -187500.02, -187500.02, -187500.02, -181168.58, -187500.02, -187500.02, 0.000, 0.000, 0.000, 14:56:40.024
240, 41243.73, 25664.70, -187500.02, -187500.02, -187500.02, -181070.94, -187500.02, -187500.02, 0.000, 0.000, 0.000, 14:56:40.488
241, 41368.41, 25711.05, -187500.02, -187500.02, -187500.02, -180712.89, -187500.02, -187500.02, 0.000, 0.000, 0.000, 14:56:40.488
242, 41102.35, 25567.87, -187500.02, -187500.02, -187500.02, -180611.36, -187500.02, -187500.02, 0.000, 0.000, 0.000, 14:56:40.488
243, 40774.12, 25414.09, -187500.02, -187500.02, -187500.02, -181006.30, -187500.02, -187500.02, 0.000, 0.000, 0.000, 14:56:40.488
244, 41016.84, 25558.12, -187500.02, -187500.02, -187500.02, -181175.25, -187500.02, -187500.02, 0.000, 0.000, 0.000, 14:56:40.489
245, 41247.53, 25679.96, -187500.02, -187500.02, -187500.02, -181056.86, -187500.02, -187500.02, 0.008, -0.018, 1.030, 14:56:40.489
246, 41382.44, 25722.52, -187500.02, -187500.02, -187500.02, -180696.41, -187500.02, -187500.02, 0.000, 0.000, 0.000, 14:56:40.489
247, 41111.45, 25580.05, -187500.02, -187500.02, -187500.02, -180623.81, -187500.02, -187500.02, 0.000, 0.000, 0.000, 14:56:40.489
248, 40784.54, 25430.47, -187500.02, -187500.02, -187500.02, -180994.19, -187500.02, -187500.02, 0.000, 0.000, 0.000, 14:56:40.489
249, 41027.27, 25559.00, -187500.02, -187500.02, -187500.02, -181151.36, -187500.02, -187500.02, 0.000, 0.000, 0.000, 14:56:40.489
250, 41248.85, 25674.84, -187500.02, -187500.02, -187500.02, -181017.36, -187500.02, -187500.02, 0.000, 0.000, 0.000, 14:56:40.489
251, 41379.65, 25721.18, -187500.02, -187500.02, -187500.02, -180626.72, -187500.02, -187500.02, 0.000, 0.000, 0.000, 14:56:40.490
252, 41118.11, 25587.31, -187500.02, -187500.02, -187500.02, -180549.89, -187500.02, -187500.02, 0.000, 0.000, 0.000, 14:56:40.490
253, 40795.80, 25436.60, -187500.02, -187500.02, -187500.02, -180981.00, -187500.02, -187500.02, 0.000, 0.000, 0.000, 14:56:40.490
254, 41039.34, 25564.11, -187500.02, -187500.02, -187500.02, -181139.67, -187500.02, -187500.02, 0.000, 0.000, 0.000, 14:56:40.490
255, 41267.55, 25690.00, -187500.02, -187500.02, -187500.02, -181002.77, -187500.02, -187500.02, 0.004, -0.014, 1.036, 14:56:40.490
0, 41410.70, 25750.17, -187500.02, -187500.02, -187500.02, -180681.80, -187500.02, -187500.02, 0.000, 0.000, 0.000, 14:56:40.490
1, 41128.06, 25598.18, -187500.02, -187500.02, -187500.02, -180604.53, -187500.02, -187500.02, 0.000, 0.000, 0.000, 14:56:40.490
2, 40793.45, 25438.70, -187500.02, -187500.02, -187500.02, -180981.88, -187500.02, -187500.02, 0.000, 0.000, 0.000, 14:56:40.490
3, 41041.24, 25581.28, -187500.02, -187500.02, -187500.02, -181149.95, -187500.02, -187500.02, 0.000, 0.000, 0.000, 14:56:40.491
4, 41264.58, 25707.81, -187500.02, -187500.02, -187500.02, -181022.53, -187500.02, -187500.02, 0.000, 0.000, 0.000, 14:56:40.491
5, 41400.68, 25757.90, -187500.02, -187500.02, -187500.02, -180666.89, -187500.02, -187500.02, 0.000, 0.000, 0.000, 14:56:40.491
6, 41128.55, 25602.58, -187500.02, -187500.02, -187500.02, -180600.95, -187500.02, -187500.02, 0.000, 0.000, 0.000, 14:56:40.491
7, 40809.77, 25463.62, -187500.02, -187500.02, -187500.02, -181000.55, -187500.02, -187500.02, 0.000, 0.000, 0.000, 14:56:40.491
8, 41053.07, 25596.61, -187500.02, -187500.02, -187500.02, -181174.70, -187500.02, -187500.02, 0.000, 0.000, 0.000, 14:56:40.491
9, 41268.79, 25706.56, -187500.02, -187500.02, -187500.02, -181044.00, -187500.02, -187500.02, 0.008, -0.014, 1.032, 14:56:40.491
10, 41397.95, 25757.88, -187500.02, -187500.02, -187500.02, -180674.27, -187500.02, -187500.02, 0.000, 0.000, 0.000, 14:56:40.491
11, 41128.91, 25607.30, -187500.02, -187500.02, -187500.02, -180611.67, -187500.02, -187500.02, 0.000, 0.000, 0.000, 14:56:40.491
12, 40803.02, 25453.96, -187500.02, -187500.02, -187500.02, -180974.89, -187500.02, -187500.02, 0.000, 0.000, 0.000, 14:56:40.492
13, 41053.80, 25601.44, -187500.02, -187500.02, -187500.02, -181150.22, -187500.02, -187500.02, 0.000, 0.000, 0.000, 14:56:40.492
14, 41282.08, 25720.35, -187500.02, -187500.02, -187500.02, -181074.30, -187500.02, -187500.02, 0.000, 0.000, 0.000, 14:56:40.492
15, 41411.54, 25766.29, -187500.02, -187500.02, -187500.02, -180684.25, -187500.02, -187500.02, 0.000, 0.000, 0.000, 14:56:40.492
16, 41146.52, 25625.80, -187500.02, -187500.02, -187500.02, -180577.81, -187500.02, -187500.02, 0.000, 0.000, 0.000, 14:56:40.492
17, 40817.82, 25468.65, -187500.02, -187500.02, -187500.02, -180937.72, -187500.02, -187500.02, 0.000, 0.000, 0.000, 14:56:40.492
18, 41065.34, 25613.98, -187500.02, -187500.02, -187500.02, -181134.17, -187500.02, -187500.02, 0.010, -0.016, 1.026, 14:56:40.492
19, 41289.55, 25732.45, -187500.02, -187500.02, -187500.02, -181023.86, -187500.02, -187500.02, 0.000, 0.000, 0.000, 14:56:40.493
20, 41420.13, 25778.18, -187500.02, -187500.02, -187500.02, -180641.00, -187500.02, -187500.02, 0.000, 0.000, 0.000, 14:56:40.493
21, 41165.43, 25642.48, -187500.02, -187500.02, -187500.02, -180579.36, -187500.02, -187500.02, 0.000, 0.000, 0.000, 14:56:40.493
22, 40841.82, 25486.89, -187500.02, -187500.02, -187500.02, -180980.09, -187500.02, -187500.02, 0.000, 0.000, 0.000, 14:56:40.493
23, 41081.03, 25619.21, -187500.02, -187500.02, -187500.02, -181152.34, -187500.02, -187500.02, 0.000, 0.000, 0.000, 14:56:40.493
24, 41302.36, 25751.47, -187500.02, -187500.02, -187500.02, -181039.09, -187500.02, -187500.02, 0.000, 0.000, 0.000, 14:56:40.493
25, 41448.38, 25804.46, -187500.02, -187500.02, -187500.02, -180654.14, -187500.02, -187500.02, 0.000, 0.000, 0.000, 14:56:40.493
26, 41177.63, 25652.85, -187500.02, -187500.02, -187500.02, -180570.28, -187500.02, -187500.02, 0.000, 0.000, 0.000, 14:56:40.493
27, 40848.17, 25501.82, -187500.02, -187500.02, -187500.02, -180969.97, -187500.02, -187500.02, 0.000, 0.000, 0.000, 14:56:40.493
28, 41091.80, 25635.91, -187500.02, -187500.02, -187500.02, -181143.61, -187500.02, -187500.02, 0.006, -0.014, 1.030, 14:56:40.494
29, 41321.96, 25756.16, -187500.02, -187500.02, -187500.02, -181030.66, -187500.02, -187500.02, 0.000, 0.000, 0.000, 14:56:40.494
30, 41457.77, 25806.00, -187500.02, -187500.02, -187500.02, -180652.61, -187500.02, -187500.02, 0.000, 0.000, 0.000, 14:56:40.494
31, 41179.67, 25650.93, -187500.02, -187500.02, -187500.02, -180584.75, -187500.02, -187500.02, 0.000, 0.000, 0.000, 14:56:40.494
32, 40864.02, 25513.38, -187500.02, -187500.02, -187500.02, -180986.45, -187500.02, -187500.02, 0.000, 0.000, 0.000, 14:56:40.494
33, 41106.76, 25650.88, -187500.02, -187500.02, -187500.02, -181165.17, -187500.02, -187500.02, 0.000, 0.000, 0.000, 14:56:40.494
34, 41333.61, 25774.60, -187500.02, -187500.02, -187500.02, -181040.58, -187500.02, -187500.02, 0.000, 0.000, 0.000, 14:56:40.494
35, 41460.85, 25819.48, -187500.02, -187500.02, -187500.02, -180655.33, -187500.02, -187500.02, 0.000, 0.000, 0.000, 14:56:40.494
36, 41179.85, 25665.79, -187500.02, -187500.02, -187500.02, -180561.77, -187500.02, -187500.02, 0.000, 0.000, 0.000, 14:56:40.495
37, 40858.63, 25526.45, -187500.02, -187500.02, -187500.02, -180950.13, -187500.02, -187500.02, 0.000, 0.000, 0.000, 14:56:40.495
38, 41114.07, 25673.73, -187500.02, -187500.02, -187500.02, -181149.61, -187500.02, -187500.02, 0.008, -0.010, 1.026, 14:56:40.495
39, 41348.78, 25799.32, -187500.02, -187500.02, -187500.02, -181074.97, -187500.02, -187500.02, 0.000, 0.000, 0.000, 14:56:40.495
40, 41477.62, 25835.51, -187500.02, -187500.02, -187500.02, -180701.05, -187500.02, -187500.02, 0.000, 0.000, 0.000, 14:56:40.495
41, 41203.34, 25692.08, -187500.02, -187500.02, -187500.02, -180597.33, -187500.02, -187500.02, 0.000, 0.000, 0.000, 14:56:40.495
42, 40887.08, 25549.50, -187500.02, -187500.02, -187500.02, -181019.66, -187500.02, -187500.02, 0.000, 0.000, 0.000, 14:56:40.495
43, 41116.46, 25677.04, -187500.02, -187500.02, -187500.02, -181174.03, -187500.02, -187500.02, 0.000, 0.000, 0.000, 14:56:40.495
44, 41353.48, 25811.23, -187500.02, -187500.02, -187500.02, -181081.73, -187500.02, -187500.02, 0.000, 0.000, 0.000, 14:56:40.496
45, 41475.76, 25838.30, -187500.02, -187500.02, -187500.02, -180704.11, -187500.02, -187500.02, 0.000, 0.000, 0.000, 14:56:40.496
46, 41195.56, 25690.04, -187500.02, -187500.02, -187500.02, -180610.03, -187500.02, -187500.02, 0.000, 0.000, 0.000, 14:56:40.496
47, 40870.57, 25540.46, -187500.02, -187500.02, -187500.02, -181012.58, -187500.02, -187500.02, 0.000, 0.000, 0.000, 14:56:40.496
48, 41115.05, 25680.14, -187500.02, -187500.02, -187500.02, -181205.00, -187500.02, -187500.02, 0.006, -0.008, 1.028, 14:56:40.496
49, 41350.66, 25811.95, -187500.02, -187500.02, -187500.02, -181088.53, -187500.02, -187500.02, 0.000, 0.000, 0.000, 14:56:40.496
50, 41475.09, 25851.27, -187500.02, -187500.02, -187500.02, -180720.23, -187500.02, -187500.02, 0.000, 0.000, 0.000, 14:56:40.496
51, 41196.66, 25699.14, -187500.02, -187500.02, -187500.02, -180609.95, -187500.02, -187500.02, 0.000, 0.000, 0.000, 14:56:40.496
52, 40886.79, 25558.01, -187500.02, -187500.02, -187500.02, -181011.55, -187500.02, -187500.02, 0.000, 0.000, 0.000, 14:56:40.496
53, 41133.80, 25686.54, -187500.02, -187500.02, -187500.02, -181170.66, -187500.02, -187500.02, 0.000, 0.000, 0.000, 14:56:40.497
54, 41375.22, 25810.79, -187500.02, -187500.02, -187500.02, -181054.63, -187500.02, -187500.02, 0.000, 0.000, 0.000, 14:56:40.497
55, 41494.74, 25840.61, -187500.02, -187500.02, -187500.02, -180668.45, -187500.02, -187500.02, 0.000, 0.000, 0.000, 14:56:40.497
56, 41216.28, 25707.05, -187500.02, -187500.02, -187500.02, -180582.67, -187500.02, -187500.02, 0.000, 0.000, 0.000, 14:56:40.497
57, 40887.33, 25557.72, -187500.02, -187500.02, -187500.02, -180931.20, -187500.02, -187500.02, 0.000, 0.000, 0.000, 14:56:40.497
58, 41135.41, 25696.88, -187500.02, -187500.02, -187500.02, -181097.56, -187500.02, -187500.02, 0.010, -0.008, 1.026, 14:56:40.497
59, 41377.28, 25825.41, -187500.02, -187500.02, -187500.02, -181029.16, -187500.02, -187500.02, 0.000, 0.000, 0.000, 14:56:40.497
60, 41507.66, 25873.95, -187500.02, -187500.02, -187500.02, -180686.89, -187500.02, -187500.02, 0.000, 0.000, 0.000, 14:56:40.498
61, 41226.14, 25725.11, -187500.02, -187500.02, -187500.02, -180599.39, -187500.02, -187500.02, 0.000, 0.000, 0.000, 14:56:40.498
62, 40911.20, 25578.02, -187500.02, -187500.02, -187500.02, -181016.48, -187500.02, -187500.02, 0.000, 0.000, 0.000, 14:56:40.498
63, 41156.96, 25709.67, -187500.02, -187500.02, -187500.02, -181190.63, -187500.02, -187500.02, 0.000, 0.000, 0.000, 14:56:40.498
64, 41387.41, 25837.36, -187500.02, -187500.02, -187500.02, -181075.59, -187500.02, -187500.02, 0.000, 0.000, 0.000, 14:56:40.498
65, 41512.26, 25877.80, -187500.02, -187500.02, -187500.02, -180712.16, -187500.02, -187500.02, 0.000, 0.000, 0.000, 14:56:40.498
66, 41240.29, 25732.69, -187500.02, -187500.02, -187500.02, -180606.72, -187500.02, -187500.02, 0.000, 0.000, 0.000, 14:56:40.498
67, 40915.16, 25584.72, -187500.02, -187500.02, -187500.02, -180976.88, -187500.02, -187500.02, 0.000, 0.000, 0.000, 14:56:40.499
68, 41168.98, 25729.05, -187500.02, -187500.02, -187500.02, -181169.20, -187500.02, -187500.02, 0.004, -0.012, 1.032, 14:56:40.499
69, 41403.43, 25849.05, -187500.02, -187500.02, -187500.02, -181066.14, -187500.02, -187500.02, 0.000, 0.000, 0.000, 14:56:40.499
70, 41527.21, 25885.13, -187500.02, -187500.02, -187500.02, -180701.86, -187500.02, -187500.02, 0.000, 0.000, 0.000, 14:56:40.499
71, 41265.50, 25745.95, -187500.02, -187500.02, -187500.02, -180608.91, -187500.02, -187500.02, 0.000, 0.000, 0.000, 14:56:40.499
72, 40951.32, 25606.40, -187500.02, -187500.02, -187500.02, -180996.39, -187500.02, -187500.02, 0.000, 0.000, 0.000, 14:56:40.499
73, 41173.54, 25722.59, -187500.02, -187500.02, -187500.02, -181146.27, -187500.02, -187500.02, 0.000, 0.000, 0.000, 14:56:40.499
74, 41392.55, 25831.80, -187500.02, -187500.02, -187500.02, -180997.11, -187500.02, -187500.02, 0.000, 0.000, 0.000, 14:56:40.499
75, 41530.86, 25877.87, -187500.02, -187500.02, -187500.02, -180635.08, -187500.02, -187500.02, 0.000, 0.000, 0.000, 14:56:40.499
76, 41274.75, 25749.68, -187500.02, -187500.02, -187500.02, -180590.08, -187500.02, -187500.02, 0.000, 0.000, 0.000, 14:56:40.500
77, 40946.18, 25601.64, -187500.02, -187500.02, -187500.02, -181012.00, -187500.02, -187500.02, 0.000, 0.000, 0.000, 14:56:40.500
78, 41187.38, 25725.83, -187500.02, -187500.02, -187500.02, -181172.64, -187500.02, -187500.02, 0.006, -0.006, 1.026, 14:56:40.500
79, 41412.26, 25841.48, -187500.02, -187500.02, -187500.02, -181054.67, -187500.02, -187500.02, 0.000, 0.000, 0.000, 14:56:40.500
80, 41543.84, 25889.98, -187500.02, -187500.02, -187500.02, -180683.05, -187500.02, -187500.02, 0.000, 0.000, 0.000, 14:56:40.500
81, 41273.46, 25746.04, -187500.02, -187500.02, -187500.02, -180614.66, -187500.02, -187500.02, 0.000, 0.000, 0.000, 14:56:40.500
82, 40947.77, 25598.22, -187500.02, -187500.02, -187500.02, -181001.20, -187500.02, -187500.02, 0.000, 0.000, 0.000, 14:56:40.500
83, 41199.18, 25736.18, -187500.02, -187500.02, -187500.02, -181169.84, -187500.02, -187500.02, 0.000, 0.000, 0.000, 14:56:40.500
84, 41432.53, 25873.17, -187500.02, -187500.02, -187500.02, -181077.72, -187500.02, -187500.02, 0.000, 0.000, 0.000, 14:56:40.501
85, 41553.32, 25900.02, -187500.02, -187500.02, -187500.02, -180730.91, -187500.02, -187500.02, 0.000, 0.000, 0.000, 14:56:40.501
86, 41290.33, 25764.07, -187500.02, -187500.02, -187500.02, -180656.89, -187500.02, -187500.02, 0.000, 0.000, 0.000, 14:56:40.501
87, 40963.26, 25619.81, -187500.02, -187500.02, -187500.02, -181063.41, -187500.02, -187500.02, 0.000, 0.000, 0.000, 14:56:40.501
88, 41203.85, 25756.85, -187500.02, -187500.02, -187500.02, -181238.05, -187500.02, -187500.02, 0.004, -0.008, 1.030, 14:56:40.501
89, 41438.72, 25877.13, -187500.02, -187500.02, -187500.02, -181129.14, -187500.02, -187500.02, 0.000, 0.000, 0.000, 14:56:40.501
90, 41583.43, 25919.33, -187500.02, -187500.02, -187500.02, -180758.27, -187500.02, -187500.02, 0.000, 0.000, 0.000, 14:56:40.501
91, 41307.65, 25761.26, -187500.02, -187500.02, -187500.02, -180651.59, -187500.02, -187500.02, 0.000, 0.000, 0.000, 14:56:40.501
92, 40976.31, 25619.57, -187500.02, -187500.02, -187500.02, -181018.75, -187500.02, -187500.02, 0.000, 0.000, 0.000, 14:56:40.502
93, 41220.57, 25763.27, -187500.02, -187500.02, -187500.02, -181185.89, -187500.02, -187500.02, 0.000, 0.000, 0.000, 14:56:40.502
94, 41455.76, 25882.29, -187500.02, -187500.02, -187500.02, -181081.22, -187500.02, -187500.02, 0.000, 0.000, 0.000, 14:56:40.502
95, 41592.32, 25932.02, -187500.02, -187500.02, -187500.02, -180713.22, -187500.02, -187500.02, 0.000, 0.000, 0.000, 14:56:40.502
96, 41322.07, 25790.49, -187500.02, -187500.02, -187500.02, -180641.45, -187500.02, -187500.02, 0.000, 0.000, 0.000, 14:56:40.502
97, 40976.25, 25629.76, -187500.02, -187500.02, -187500.02, -181004.47, -187500.02, -187500.02, 0.000, 0.000, 0.000, 14:56:40.502
98, 41217.02, 25763.02, -187500.02, -187500.02, -187500.02, -181163.78, -187500.02, -187500.02, 0.004, -0.008, 1.034, 14:56:40.502
99, 41456.16, 25890.96, -187500.02, -187500.02, -187500.02, -181043.64, -187500.02, -187500.02, 0.000, 0.000, 0.000, 14:56:40.502
100, 41581.46, 25941.79, -187500.02, -187500.02, -187500.02, -180671.84, -187500.02, -187500.02, 0.000, 0.000, 0.000, 14:56:40.503
101, 41313.15, 25795.72, -187500.02, -187500.02, -187500.02, -180591.50, -187500.02, -187500.02, 0.000, 0.000, 0.000, 14:56:40.503
102, 40986.44, 25644.98, -187500.02, -187500.02, -187500.02, -180990.77, -187500.02, -187500.02, 0.000, 0.000, 0.000, 14:56:40.503
103, 41222.56, 25782.36, -187500.02, -187500.02, -187500.02, -181154.33, -187500.02, -187500.02, 0.000, 0.000, 0.000, 14:56:40.503
104, 41456.81, 25905.96, -187500.02, -187500.02, -187500.02, -181039.42, -187500.02, -187500.02, 0.000, 0.000, 0.000, 14:56:40.968
105, 41596.55, 25952.41, -187500.02, -187500.02, -187500.02, -180694.36, -187500.02, -187500.02, 0.000, 0.000, 0.000, 14:56:40.968
106, 41315.88, 25795.34, -187500.02, -187500.02, -187500.02, -180622.81, -187500.02, -187500.02, 0.000, 0.000, 0.000, 14:56:40.968
107, 40990.15, 25651.93, -187500.02, -187500.02, -187500.02, -181029.55, -187500.02, -187500.02, 0.000, 0.000, 0.000, 14:56:40.968
108, 41235.14, 25790.85, -187500.02, -187500.02, -187500.02, -181197.88, -187500.02, -187500.02, 0.004, -0.010, 1.026, 14:56:40.969
109, 41460.90, 25915.57, -187500.02, -187500.02, -187500.02, -181079.48, -187500.02, -187500.02, 0.000, 0.000, 0.000, 14:56:40.969
110, 41598.25, 25955.83, -187500.02, -187500.02, -187500.02, -180711.48, -187500.02, -187500.02, 0.000, 0.000, 0.000, 14:56:40.969
111, 41335.55, 25816.55, -187500.02, -187500.02, -187500.02, -180625.38, -187500.02, -187500.02, 0.000, 0.000, 0.000, 14:56:40.969
112, 40996.29, 25659.91, -187500.02, -187500.02, -187500.02, -180997.25, -187500.02, -187500.02, 0.000, 0.000, 0.000, 14:56:40.969
113, 41240.91, 25795.01, -187500.02, -187500.02, -187500.02, -181157.95, -187500.02, -187500.02, 0.000, 0.000, 0.000, 14:56:40.969
114, 41477.21, 25921.67, -187500.02, -187500.02, -187500.02, -181042.00, -187500.02, -187500.02, 0.000, 0.000, 0.000, 14:56:40.969
115, 41607.17, 25959.52, -187500.02, -187500.02, -187500.02, -180675.73, -187500.02, -187500.02, 0.000, 0.000, 0.000, 14:56:40.969
116, 41340.04, 25822.61, -187500.02, -187500.02, -187500.02, -180624.42, -187500.02, -187500.02, 0.000, 0.000, 0.000, 14:56:40.969
117, 41003.16, 25668.21, -187500.02, -187500.02, -187500.02, -181034.30, -187500.02, -187500.02, 0.000, 0.000, 0.000, 14:56:40.970
118, 41244.33, 25807.41, -187500.02, -187500.02, -187500.02, -181183.25, -187500.02, -187500.02, 0.002, -0.016, 1.030, 14:56:40.970
119, 41470.06, 25918.84, -187500.02, -187500.02, -187500.02, -181030.22, -187500.02, -187500.02, 0.000, 0.000, 0.000, 14:56:40.970
120, 41611.88, 25966.69, -187500.02, -187500.02, -187500.02, -180690.61, -187500.02, -187500.02, 0.000, 0.000, 0.000, 14:56:40.970
121, 41342.68, 25821.56, -187500.02, -187500.02, -187500.02, -180649.98, -187500.02, -187500.02, 0.000, 0.000, 0.000, 14:56:40.970
122, 41010.67, 25666.71, -187500.02, -187500.02, -187500.02, -181043.00, -187500.02, -187500.02, 0.000, 0.000, 0.000, 14:56:40.970
123, 41257.99, 25802.47, -187500.02, -187500.02, -187500.02, -181196.47, -187500.02, -187500.02, 0.000, 0.000, 0.000, 14:56:40.970
124, 41486.58, 25931.64, -187500.02, -187500.02, -187500.02, -181091.75, -187500.02, -187500.02, 0.000, 0.000, 0.000, 14:56:40.970
125, 41610.63, 25969.73, -187500.02, -187500.02, -187500.02, -180744.83, -187500.02, -187500.02, 0.000, 0.000, 0.000, 14:56:40.971
126, 41341.65, 25829.03, -187500.02, -187500.02, -187500.02, -180699.86, -187500.02, -187500.02, 0.000, 0.000, 0.000, 14:56:40.971
127, 41004.96, 25673.28, -187500.02, -187500.02, -187500.02, -181066.69, -187500.02, -187500.02, 0.000, 0.000, 0.000, 14:56:40.971
128, 41251.11, 25809.94, -187500.02, -187500.02, -187500.02, -181235.22, -187500.02, -187500.02, 0.004, -0.012, 1.026, 14:56:40.971
129, 41485.02, 25940.12, -187500.02, -187500.02, -187500.02, -181130.19, -187500.02, -187500.02, 0.000, 0.000, 0.000, 14:56:40.971
130, 41618.10, 25977.33, -187500.02, -187500.02, -187500.02, -180763.22, -187500.02, -187500.02, 0.000, 0.000, 0.000, 14:56:40.971
131, 41344.89, 25835.67, -187500.02, -187500.02, -187500.02, -180688.25, -187500.02, -187500.02, 0.000, 0.000, 0.000, 14:56:40.971
132, 41004.86, 25680.95, -187500.02, -187500.02, -187500.02, -181073.06, -187500.02, -187500.02, 0.000, 0.000, 0.000, 14:56:40.971
133, 41258.32, 25821.49, -187500.02, -187500.02, -187500.02, -181246.80, -187500.02, -187500.02, 0.000, 0.000, 0.000, 14:56:40.972
134, 41485.20, 25935.53, -187500.02, -187500.02, -187500.02, -181119.36, -187500.02, -187500.02, 0.000, 0.000, 0.000, 14:56:40.972
135, 41622.84, 25985.36, -187500.02, -187500.02, -187500.02, -180766.19, -187500.02, -187500.02, 0.000, 0.000, 0.000, 14:56:40.972
136, 41351.98, 25844.31, -187500.02, -187500.02, -187500.02, -180681.77, -187500.02, -187500.02, 0.000, 0.000, 0.000, 14:56:40.972
137, 41008.07, 25682.96, -187500.02, -187500.02, -187500.02, -181053.45, -187500.02, -187500.02, 0.000, 0.000, 0.000, 14:56:40.972
138, 41260.67, 25826.41, -187500.02, -187500.02, -187500.02, -181223.13, -187500.02, -187500.02, 0.008, -0.018, 1.026, 14:56:40.972
139, 41507.14, 25958.80, -187500.02, -187500.02, -187500.02, -181123.20, -187500.02, -187500.02, 0.000, 0.000, 0.000, 14:56:40.972
140, 41640.36, 26002.43, -187500.02, -187500.02, -187500.02, -180770.98, -187500.02, -187500.02, 0.000, 0.000, 0.000, 14:56:40.972
141, 41359.55, 25849.32, -187500.02, -187500.02, -187500.02, -180661.52, -187500.02, -187500.02, 0.000, 0.000, 0.000, 14:56:40.973
142, 41026.16, 25705.85, -187500.02, -187500.02, -187500.02, -181045.86, -187500.02, -187500.02, 0.000, 0.000, 0.000, 14:56:40.973
143, 41282.75, 25846.28, -187500.02, -187500.02, -187500.02, -181233.09, -187500.02, -187500.02, 0.000, 0.000, 0.000, 14:56:40.973
144, 41520.40, 25976.84, -187500.02, -187500.02, -187500.02, -181132.72, -187500.02, -187500.02, 0.000, 0.000, 0.000, 14:56:40.973
145, 41659.65, 26020.25, -187500.02, -187500.02, -187500.02, -180767.17, -187500.02, -187500.02, 0.000, 0.000, 0.000, 14:56:40.973
146, 41387.16, 25875.50, -187500.02, -187500.02, -187500.02, -180651.52, -187500.02, -187500.02, 0.000, 0.000, 0.000, 14:56:40.973
147, 41053.43, 25724.67, -187500.02, -187500.02, -187500.02, -181059.56, -187500.02, -187500.02, 0.006, -0.012, 1.032, 14:56:40.973
148, 41297.62, 25861.59, -187500.02, -187500.02, -187500.02, -181247.81, -187500.02, -187500.02, 0.000, 0.000, 0.000, 14:56:40.973
149, 41516.84, 25973.73, -187500.02, -187500.02, -187500.02, -181110.75, -187500.02, -187500.02, 0.000, 0.000, 0.000, 14:56:40.974
150, 41662.00, 26021.16, -187500.02, -187500.02, -187500.02, -180728.47, -187500.02, -187500.02, 0.000, 0.000, 0.000, 14:56:40.974
151, 41403.77, 25888.28, -187500.02, -187500.02, -187500.02, -180685.53, -187500.02, -187500.02, 0.000, 0.000, 0.000, 14:56:40.974
152, 41064.20, 25738.70, -187500.02, -187500.02, -187500.02, -181123.23, -187500.02, -187500.02, 0.000, 0.000, 0.000, 14:56:40.974
153, 41303.41, 25881.22, -187500.02, -187500.02, -187500.02, -181285.19, -187500.02, -187500.02, 0.000, 0.000, 0.000, 14:56:40.974
154, 41533.77, 26000.06, -187500.02, -187500.02, -187500.02, -181148.61, -187500.02, -187500.02, 0.000, 0.000, 0.000, 14:56:40.974
155, 41675.07, 26048.54, -187500.02, -187500.02, -187500.02, -180802.63, -187500.02, -187500.02, 0.000, 0.000, 0.000, 14:56:40.974
156, 41403.16, 25899.81, -187500.02, -187500.02, -187500.02, -180701.89, -187500.02, -187500.02, 0.000, 0.000, 0.000, 14:56:40.974
157, 41056.75, 25734.66, -187500.02, -187500.02, -187500.02, -181078.16, -187500.02, -187500.02, 0.006, -0.012, 1.026, 14:56:40.974
158, 41302.58, 25877.08, -187500.02, -187500.02, -187500.02, -181245.17, -187500.02, -187500.02, 0.000, 0.000, 0.000, 14:56:40.975
159, 41540.16, 26019.87, -187500.02, -187500.02, -187500.02, -181131.00, -187500.02, -187500.02, 0.000, 0.000, 0.000, 14:56:40.975
160, 41677.20, 26059.00, -187500.02, -187500.02, -187500.02, -180739.58, -187500.02, -187500.02, 0.000, 0.000, 0.000, 14:56:40.975
161, 41413.15, 25925.01, -187500.02, -187500.02, -187500.02, -180672.19, -187500.02, -187500.02, 0.000, 0.000, 0.000, 14:56:40.975
162, 41069.41, 25765.30, -187500.02, -187500.02, -187500.02, -181056.95, -187500.02, -187500.02, 0.000, 0.000, 0.000, 14:56:40.975
163, 41319.84, 25906.39, -187500.02, -187500.02, -187500.02, -181253.69, -187500.02, -187500.02, 0.000, 0.000, 0.000, 14:56:40.975
164, 41540.52, 26028.11, -187500.02, -187500.02, -187500.02, -181117.31, -187500.02, -187500.02, 0.000, 0.000, 0.000, 14:56:40.975
165, 41667.45, 26069.64, -187500.02, -187500.02, -187500.02, -180712.50, -187500.02, -187500.02, 0.000, 0.000, 0.000, 14:56:40.976
166, 41404.13, 25930.19, -187500.02, -187500.02, -187500.02, -180622.73, -187500.02, -187500.02, 0.000, 0.000, 0.000, 14:56:40.976
167, 41072.11, 25773.75, -187500.02, -187500.02, -187500.02, -181061.97, -187500.02, -187500.02, 0.006, -0.012, 1.032, 14:56:40.976
168, 41312.48, 25908.69, -187500.02, -187500.02, -187500.02, -181228.41, -187500.02, -187500.02, 0.000, 0.000, 0.000, 14:56:40.976
169, 41552.81, 26038.57, -187500.02, -187500.02, -187500.02, -181143.88, -187500.02, -187500.02, 0.000, 0.000, 0.000, 14:56:40.976
170, 41684.26, 26075.72, -187500.02, -187500.02, -187500.02, -180792.53, -187500.02, -187500.02, 0.000, 0.000, 0.000, 14:56:40.976
171, 41412.11, 25929.83, -187500.02, -187500.02, -187500.02, -180652.25, -187500.02, -187500.02, 0.000, 0.000, 0.000, 14:56:40.976
172, 41075.84, 25782.65, -187500.02, -187500.02, -187500.02, -181027.31, -187500.02, -187500.02, 0.000, 0.000, 0.000, 14:56:40.976
173, 41327.95, 25920.20, -187500.02, -187500.02, -187500.02, -181206.95, -187500.02, -187500.02, 0.000, 0.000, 0.000, 14:56:40.976
174, 41560.21, 26045.57, -187500.02, -187500.02, -187500.02, -181102.45, -187500.02, -187500.02, 0.000, 0.000, 0.000, 14:56:40.977
175, 41696.84, 26089.92, -187500.02, -187500.02, -187500.02, -180739.22, -187500.02, -187500.02, 0.000, 0.000, 0.000, 14:56:40.977
176, 41427.14, 25942.46, -187500.02, -187500.02, -187500.02, -180660.92, -187500.02, -187500.02, 0.000, 0.000, 0.000, 14:56:40.977
177, 41088.29, 25784.21, -187500.02, -187500.02, -187500.02, -181056.59, -187500.02, -187500.02, 0.002, -0.010, 1.030, 14:56:40.977
178, 41339.84, 25926.50, -187500.02, -187500.02, -187500.02, -181210.41, -187500.02, -187500.02, 0.000, 0.000, 0.000, 14:56:40.977
179, 41577.55, 26059.34, -187500.02, -187500.02, -187500.02, -181116.11, -187500.02, -187500.02, 0.000, 0.000, 0.000, 14:56:40.977
180, 41704.04, 26095.06, -187500.02, -187500.02, -187500.02, -180759.98, -187500.02, -187500.02, 0.000, 0.000, 0.000, 14:56:40.977
181, 41440.29, 25944.18, -187500.02, -187500.02, -187500.02, -180643.75, -187500.02, -187500.02, 0.000, 0.000, 0.000, 14:56:40.978
182, 41104.68, 25796.55, -187500.02, -187500.02, -187500.02, -181023.16, -187500.02, -187500.02, 0.000, 0.000, 0.000, 14:56:40.978
183, 41343.02, 25939.27, -187500.02, -187500.02, -187500.02, -181195.45, -187500.02, -187500.02, 0.000, 0.000, 0.000, 14:56:40.978
184, 41580.46, 26062.69, -187500.02, -187500.02, -187500.02, -181075.97, -187500.02, -187500.02, 0.000, 0.000, 0.000, 14:56:40.978
185, 41717.88, 26106.23, -187500.02, -187500.02, -187500.02, -180701.31, -187500.02, -187500.02, 0.000, 0.000, 0.000, 14:56:40.978
186, 41453.07, 25968.79, -187500.02, -187500.02, -187500.02, -180631.59, -187500.02, -187500.02, 0.000, 0.000, 0.000, 14:56:40.978
187, 41113.35, 25824.36, -187500.02, -187500.02, -187500.02, -181040.16, -187500.02, -187500.02, 0.008, -0.010, 1.028, 14:56:40.978
188, 41358.23, 25961.82, -187500.02, -187500.02, -187500.02, -181231.95, -187500.02, -187500.02, 0.000, 0.000, 0.000, 14:56:40.978
189, 41610.21, 26094.50, -187500.02, -187500.02, -187500.02, -181117.41, -187500.02, -187500.02, 0.000, 0.000, 0.000, 14:56:40.978
190, 41734.26, 26127.27, -187500.02, -187500.02, -187500.02, -180728.73, -187500.02, -187500.02, 0.000, 0.000, 0.000, 14:56:40.979
191, 41461.23, 25985.09, -187500.02, -187500.02, -187500.02, -180645.41, -187500.02, -187500.02, 0.000, 0.000, 0.000, 14:56:40.979
192, 41121.80, 25828.38, -187500.02, -187500.02, -187500.02, -181033.03, -187500.02, -187500.02, 0.000, 0.000, 0.000, 14:56:40.979
193, 41359.18, 25961.91, -187500.02, -187500.02, -187500.02, -181190.30, -187500.02, -187500.02, 0.000, 0.000, 0.000, 14:56:40.979
194, 41595.43, 26089.71, -187500.02, -187500.02, -187500.02, -181081.00, -187500.02, -187500.02, 0.000, 0.000, 0.000, 14:56:40.979
195, 41724.29, 26132.34, -187500.02, -187500.02, -187500.02, -180736.94, -187500.02, -187500.02, 0.000, 0.000, 0.000, 14:56:40.979
196, 41448.02, 25973.93, -187500.02, -187500.02, -187500.02, -180625.67, -187500.02, -187500.02, 0.000, 0.000, 0.000, 14:56:40.979
197, 41116.93, 25824.82, -187500.02, -187500.02, -187500.02, -180978.52, -187500.02, -187500.02, 0.008, -0.012, 1.024, 14:56:40.979
198, 41365.88, 25966.27, -187500.02, -187500.02, -187500.02, -181158.98, -187500.02, -187500.02, 0.000, 0.000, 0.000, 14:56:40.980
199, 41612.82, 26091.53, -187500.02, -187500.02, -187500.02, -181066.77, -187500.02, -187500.02, 0.000, 0.000, 0.000, 14:56:40.980
200, 41743.54, 26132.59, -187500.02, -187500.02, -187500.02, -180682.72, -187500.02, -187500.02, 0.000, 0.000, 0.000, 14:56:40.980
201, 41471.52, 25978.40, -187500.02, -187500.02, -187500.02, -180535.95, -187500.02, -187500.02, 0.000, 0.000, 0.000, 14:56:40.980
202, 41154.28, 25844.29, -187500.02, -187500.02, -187500.02, -180982.89, -187500.02, -187500.02, 0.000, 0.000, 0.000, 14:56:40.980
203, 41387.32, 25969.66, -187500.02, -187500.02, -187500.02, -181172.86, -187500.02, -187500.02, 0.000, 0.000, 0.000, 14:56:40.980
204, 41616.84, 26084.62, -187500.02, -187500.02, -187500.02, -181071.05, -187500.02, -187500.02, 0.000, 0.000, 0.000, 14:56:40.980
205, 41754.71, 26136.92, -187500.02, -187500.02, -187500.02, -180721.97, -187500.02, -187500.02, 0.000, 0.000, 0.000, 14:56:40.980
206, 41489.71, 25992.06, -187500.02, -187500.02, -187500.02, -180665.59, -187500.02, -187500.02, 0.000, 0.000, 0.000, 14:56:40.981
207, 41149.85, 25832.04, -187500.02, -187500.02, -187500.02, -181080.89, -187500.02, -187500.02, 0.008, -0.012, 1.022, 14:56:40.981
208, 41388.30, 25970.47, -187500.02, -187500.02, -187500.02, -181237.86, -187500.02, -187500.02, 0.000, 0.000, 0.000, 14:56:40.981
209, 41619.66, 26094.39, -187500.02, -187500.02, -187500.02, -181108.78, -187500.02, -187500.02, 0.000, 0.000, 0.000, 14:56:40.981
210, 41749.55, 26136.34, -187500.02, -187500.02, -187500.02, -180725.42, -187500.02, -187500.02, 0.000, 0.000, 0.000, 14:56:40.981
211, 41484.88, 25997.22, -187500.02, -187500.02, -187500.02, -180626.19, -187500.02, -187500.02, 0.000, 0.000, 0.000, 14:56:40.981
212, 41146.52, 25849.77, -187500.02, -187500.02, -187500.02, -181016.20, -187500.02, -187500.02, 0.000, 0.000, 0.000, 14:56:40.981
213, 41393.57, 25984.17, -187500.02, -187500.02, -187500.02, -181193.72, -187500.02, -187500.02, 0.000, 0.000, 0.000, 14:56:40.981
214, 41627.13, 26096.42, -187500.02, -187500.02, -187500.02, -181066.02, -187500.02, -187500.02, 0.000, 0.000, 0.000, 14:56:40.982
215, 41754.51, 26148.32, -187500.02, -187500.02, -187500.02, -180714.31, -187500.02, -187500.02, 0.000, 0.000, 0.000, 14:56:40.982
216, 41481.04, 26001.09, -187500.02, -187500.02, -187500.02, -180604.02, -187500.02, -187500.02, 0.000, 0.000, 0.000, 14:56:40.982
217, 41146.52, 25847.69, -187500.02, -187500.02, -187500.02, -180986.36, -187500.02, -187500.02, 0.004, -0.012, 1.026, 14:56:40.982
218, 41388.41, 25988.08, -187500.02, -187500.02, -187500.02, -181184.16, -187500.02, -187500.02, 0.000, 0.000, 0.000, 14:56:40.982
219, 41621.45, 26113.47, -187500.02, -187500.02, -187500.02, -181074.69, -187500.02, -187500.02, 0.000, 0.000, 0.000, 14:56:40.982
220, 41752.75, 26145.55, -187500.02, -187500.02, -187500.02, -180702.25, -187500.02, -187500.02, 0.000, 0.000, 0.000, 14:56:40.982
221, 41491.74, 26001.96, -187500.02, -187500.02, -187500.02, -180583.67, -187500.02, -187500.02, 0.000, 0.000, 0.000, 14:56:40.982
222, 41168.69, 25872.39, -187500.02, -187500.02, -187500.02, -181002.78, -187500.02, -187500.02, 0.000, 0.000, 0.000, 14:56:40.983
223, 41409.42, 26006.92, -187500.02, -187500.02, -187500.02, -181192.89, -187500.02, -187500.02, 0.000, 0.000, 0.000, 14:56:40.983
224, 41655.31, 26137.26, -187500.02, -187500.02, -187500.02, -181119.36, -187500.02, -187500.02, 0.000, 0.000, 0.000, 14:56:41.448
225, 41775.21, 26173.65, -187500.02, -187500.02, -187500.02, -180753.98, -187500.02, -187500.02, 0.000, 0.000, 0.000, 14:56:41.448
226, 41496.62, 26024.27, -187500.02, -187500.02, -187500.02, -180651.13, -187500.02, -187500.02, 0.000, 0.000, 0.000, 14:56:41.448
227, 41152.82, 25879.74, -187500.02, -187500.02, -187500.02, -181028.88, -187500.02, -187500.02, 0.006, -0.020, 1.030, 14:56:41.448
228, 41397.66, 26015.46, -187500.02, -187500.02, -187500.02, -181237.23, -187500.02, -187500.02, 0.000, 0.000, 0.000, 14:56:41.449
229, 41632.34, 26136.25, -187500.02, -187500.02, -187500.02, -181102.66, -187500.02, -187500.02, 0.000, 0.000, 0.000, 14:56:41.449
230, 41768.73, 26184.13, -187500.02, -187500.02, -187500.02, -180744.09, -187500.02, -187500.02, 0.000, 0.000, 0.000, 14:56:41.449
231, 41502.96, 26044.34, -187500.02, -187500.02, -187500.02, -180634.52, -187500.02, -187500.02, 0.000, 0.000, 0.000, 14:56:41.449
232, 41165.23, 25889.78, -187500.02, -187500.02, -187500.02, -181046.58, -187500.02, -187500.02, 0.000, 0.000, 0.000, 14:56:41.449
233, 41404.84, 26015.37, -187500.02, -187500.02, -187500.02, -181214.48, -187500.02, -187500.02, 0.000, 0.000, 0.000, 14:56:41.449
234, 41633.50, 26137.86, -187500.02, -187500.02, -187500.02, -181085.88, -187500.02, -187500.02, 0.000, 0.000, 0.000, 14:56:41.449
235, 41774.27, 26177.20, -187500.02, -187500.02, -187500.02, -180722.25, -187500.02, -187500.02, 0.000, 0.000, 0.000, 14:56:41.449
236, 41515.59, 26029.90, -187500.02, -187500.02, -187500.02, -180639.06, -187500.02, -187500.02, 0.000, 0.000, 0.000, 14:56:41.449
237, 41179.55, 25897.85, -187500.02, -187500.02, -187500.02, -181042.02, -187500.02, -187500.02, 0.006, -0.016, 1.034, 14:56:41.450
238, 41421.49, 26029.70, -187500.02, -187500.02, -187500.02, -181237.38, -187500.02, -187500.02, 0.000, 0.000, 0.000, 14:56:41.450
239, 41654.57, 26150.38, -187500.02, -187500.02, -187500.02, -181142.16, -187500.02, -187500.02, 0.000, 0.000, 0.000, 14:56:41.450
240, 41783.59, 26192.13, -187500.02, -187500.02, -187500.02, -180780.05, -187500.02, -187500.02, 0.000, 0.000, 0.000, 14:56:41.450
241, 41506.50, 26033.34, -187500.02, -187500.02, -187500.02, -180674.27, -187500.02, -187500.02, 0.000, 0.000, 0.000, 14:56:41.450
242, 41172.65, 25882.27, -187500.02, -187500.02, -187500.02, -181042.94, -187500.02, -187500.02, 0.000, 0.000, 0.000, 14:56:41.450
243, 41420.98, 26018.79, -187500.02, -187500.02, -187500.02, -181215.95, -187500.02, -187500.02, 0.000, 0.000, 0.000, 14:56:41.450
244, 41653.08, 26137.84, -187500.02, -187500.02, -187500.02, -181094.41, -187500.02, -187500.02, 0.000, 0.000, 0.000, 14:56:41.450
245, 41781.91, 26179.66, -187500.02, -187500.02, -187500.02, -180693.33, -187500.02, -187500.02, 0.000, 0.000, 0.000, 14:56:41.451
246, 41525.27, 26048.34, -187500.02, -187500.02, -187500.02, -180593.42, -187500.02, -187500.02, 0.000, 0.000, 0.000, 14:56:41.451
247, 41198.00, 25910.48, -187500.02, -187500.02, -187500.02, -181032.89, -187500.02, -187500.02, 0.002, -0.014, 1.038, 14:56:41.451
248, 41433.45, 26035.65, -187500.02, -187500.02, -187500.02, -181221.28, -187500.02, -187500.02, 0.000, 0.000, 0.000, 14:56:41.451
249, 41669.26, 26159.12, -187500.02, -187500.02, -187500.02, -181112.41, -187500.02, -187500.02, 0.000, 0.000, 0.000, 14:56:41.451
250, 41798.92, 26201.34, -187500.02, -187500.02, -187500.02, -180748.38, -187500.02, -187500.02, 0.000, 0.000, 0.000, 14:56:41.451
251, 41533.18, 26049.17, -187500.02, -187500.02, -187500.02, -180649.03, -187500.02, -187500.02, 0.000, 0.000, 0.000, 14:56:41.451
252, 41193.88, 25888.66, -187500.02, -187500.02, -187500.02, -181014.19, -187500.02, -187500.02, 0.000, 0.000, 0.000, 14:56:41.451
253, 41439.24, 26023.35, -187500.02, -187500.02, -187500.02, -181181.98, -187500.02, -187500.02, 0.000, 0.000, 0.000, 14:56:41.452
254, 41669.46, 26145.08, -187500.02, -187500.02, -187500.02, -181066.72, -187500.02, -187500.02, 0.000, 0.000, 0.000, 14:56:41.452
255, 41808.24, 26204.27, -187500.02, -187500.02, -187500.02, -180709.83, -187500.02, -187500.02, 0.000, 0.000, 0.000, 14:56:41.452
0, 41554.15, 26072.73, -187500.02, -187500.02, -187500.02, -180634.97, -187500.02, -187500.02, 0.000, 0.000, 0.000, 14:56:41.452
1, 41214.92, 25917.14, -187500.02, -187500.02, -187500.02, -181038.58, -187500.02, -187500.02, 0.006, -0.016, 1.024, 14:56:41.452
2, 41447.15, 26046.06, -187500.02, -187500.02, -187500.02, -181200.25, -187500.02, -187500.02, 0.000, 0.000, 0.000, 14:56:41.452
3, 41686.25, 26170.63, -187500.02, -187500.02, -187500.02, -181103.27, -187500.02, -187500.02, 0.000, 0.000, 0.000, 14:56:41.452
4, 41819.96, 26220.00, -187500.02, -187500.02, -187500.02, -180780.03, -187500.02, -187500.02, 0.000, 0.000, 0.000, 14:56:41.452
5, 41549.84, 26072.44, -187500.02, -187500.02, -187500.02, -180683.41, -187500.02, -187500.02, 0.000, 0.000, 0.000, 14:56:41.452
6, 41205.75, 25911.68, -187500.02, -187500.02, -187500.02, -181057.53, -187500.02, -187500.02, 0.000, 0.000, 0.000, 14:56:41.453
7, 41451.49, 26048.79, -187500.02, -187500.02, -187500.02, -181213.78, -187500.02, -187500.02, 0.000, 0.000, 0.000, 14:56:41.453
8, 41682.34, 26174.43, -187500.02, -187500.02, -187500.02, -181101.11, -187500.02, -187500.02, 0.000, 0.000, 0.000, 14:56:41.453
9, 41814.34, 26221.79, -187500.02, -187500.02, -187500.02, -180753.61, -187500.02, -187500.02, 0.000, 0.000, 0.000, 14:56:41.453
10, 41545.81, 26076.57, -187500.02, -187500.02, -187500.02, -180674.06, -187500.02, -187500.02, 0.000, 0.000, 0.000, 14:56:41.453
11, 41202.71, 25918.21, -187500.02, -187500.02, -187500.02, -181046.33, -187500.02, -187500.02, 0.006, -0.018, 1.028, 14:56:41.453
12, 41439.80, 26053.55, -187500.02, -187500.02, -187500.02, -181226.47, -187500.02, -187500.02, 0.000, 0.000, 0.000, 14:56:41.453
13, 41674.76, 26169.51, -187500.02, -187500.02, -187500.02, -181091.19, -187500.02, -187500.02, 0.000, 0.000, 0.000, 14:56:41.453
14, 41810.95, 26211.89, -187500.02, -187500.02, -187500.02, -180699.16, -187500.02, -187500.02, 0.000, 0.000, 0.000, 14:56:41.454
15, 41549.21, 26076.84, -187500.02, -187500.02, -187500.02, -180593.27, -187500.02, -187500.02, 0.000, 0.000, 0.000, 14:56:41.454
16, 41216.64, 25925.41, -187500.02, -187500.02, -187500.02, -181015.81, -187500.02, -187500.02, 0.000, 0.000, 0.000, 14:56:41.454
17, 41473.32, 26075.72, -187500.02, -187500.02, -187500.02, -181228.31, -187500.02, -187500.02, 0.000, 0.000, 0.000, 14:56:41.454
18, 41704.51, 26201.79, -187500.02, -187500.02, -187500.02, -181147.45, -187500.02, -187500.02, 0.000, 0.000, 0.000, 14:56:41.454
19, 41842.31, 26244.48, -187500.02, -187500.02, -187500.02, -180792.77, -187500.02, -187500.02, 0.000, 0.000, 0.000, 14:56:41.454
20, 41577.06, 26091.75, -187500.02, -187500.02, -187500.02, -180695.72, -187500.02, -187500.02, 0.004, -0.014, 1.034, 14:56:41.454
21, 41233.71, 25936.43, -187500.02, -187500.02, -187500.02, -181092.64, -187500.02, -187500.02, 0.000, 0.000, 0.000, 14:56:41.454
22, 41464.74, 26069.02, -187500.02, -187500.02, -187500.02, -181236.14, -187500.02, -187500.02, 0.000, 0.000, 0.000, 14:56:41.454
23, 41692.93, 26196.56, -187500.02, -187500.02, -187500.02, -181099.11, -187500.02, -187500.02, 0.000, 0.000, 0.000, 14:56:41.455
24, 41836.68, 26245.84, -187500.02, -187500.02, -187500.02, -180761.64, -187500.02, -187500.02, 0.000, 0.000, 0.000, 14:56:41.455
25, 41576.21, 26104.69, -187500.02, -187500.02, -187500.02, -180695.55, -187500.02, -187500.02, 0.000, 0.000, 0.000, 14:56:41.455
26, 41235.08, 25956.25, -187500.02, -187500.02, -187500.02, -181079.81, -187500.02, -187500.02, 0.000, 0.000, 0.000, 14:56:41.455
27, 41481.17, 26092.24, -187500.02, -187500.02, -187500.02, -181255.59, -187500.02, -187500.02, 0.000, 0.000, 0.000, 14:56:41.455
28, 41713.36, 26213.92, -187500.02, -187500.02, -187500.02, -181153.08, -187500.02, -187500.02, 0.000, 0.000, 0.000, 14:56:41.455
29, 41840.45, 26263.81, -187500.02, -187500.02, -187500.02, -180755.42, -187500.02, -187500.02, 0.000, 0.000, 0.000, 14:56:41.455
30, 41590.54, 26141.91, -187500.02, -187500.02, -187500.02, -180676.08, -187500.02, -187500.02, 0.006, -0.014, 1.030, 14:56:41.455
31, 41249.83, 25984.30, -187500.02, -187500.02, -187500.02, -181073.48, -187500.02, -187500.02, 0.000, 0.000, 0.000, 14:56:41.456
32, 41489.02, 26115.06, -187500.02, -187500.02, -187500.02, -181252.48, -187500.02, -187500.02, 0.000, 0.000, 0.000, 14:56:41.456
33, 41723.38, 26238.33, -187500.02, -187500.02, -187500.02, -181142.69, -187500.02, -187500.02, 0.000, 0.000, 0.000, 14:56:41.456
34, 41855.83, 26275.66, -187500.02, -187500.02, -187500.02, -180762.33, -187500.02, -187500.02, 0.000, 0.000, 0.000, 14:56:41.456
35, 41594.41, 26136.43, -187500.02, -187500.02, -187500.02, -180654.08, -187500.02, -187500.02, 0.000, 0.000, 0.000, 14:56:41.456
36, 41261.09, 25981.35, -187500.02, -187500.02, -187500.02, -181064.75, -187500.02, -187500.02, 0.000, 0.000, 0.000, 14:56:41.456
37, 41503.21, 26119.15, -187500.02, -187500.02, -187500.02, -181244.19, -187500.02, -187500.02, 0.000, 0.000, 0.000, 14:56:41.457
38, 41729.18, 26241.37, -187500.02, -187500.02, -187500.02, -181126.39, -187500.02, -187500.02, 0.000, 0.000, 0.000, 14:56:41.457
39, 41854.71, 26271.14, -187500.02, -187500.02, -187500.02, -180751.11, -187500.02, -187500.02, 0.000, 0.000, 0.000, 14:56:41.457
40, 41601.16, 26142.98, -187500.02, -187500.02, -187500.02, -180683.53, -187500.02, -187500.02, 0.004, -0.012, 1.032, 14:56:41.457
41, 41255.93, 25982.99, -187500.02, -187500.02, -187500.02, -181086.50, -187500.02, -187500.02, 0.000, 0.000, 0.000, 14:56:41.457
42, 41484.68, 26097.14, -187500.02, -187500.02, -187500.02, -181231.20, -187500.02, -187500.02, 0.000, 0.000, 0.000, 14:56:41.458
43, 41724.74, 26229.50, -187500.02, -187500.02, -187500.02, -181103.69, -187500.02, -187500.02, 0.000, 0.000, 0.000, 14:56:41.458
44, 41866.52, 26279.44, -187500.02, -187500.02, -187500.02, -180779.63, -187500.02, -187500.02, 0.000, 0.000, 0.000, 14:56:41.458
45, 41601.54, 26121.66, -187500.02, -187500.02, -187500.02, -180687.06, -187500.02, -187500.02, 0.000, 0.000, 0.000, 14:56:41.458
46, 41262.28, 25963.74, -187500.02, -187500.02, -187500.02, -181057.69, -187500.02, -187500.02, 0.000, 0.000, 0.000, 14:56:41.458
47, 41504.48, 26104.85, -187500.02, -187500.02, -187500.02, -181247.31, -187500.02, -187500.02, 0.000, 0.000, 0.000, 14:56:41.458
48, 41739.60, 26228.38, -187500.02, -187500.02, -187500.02, -181142.63, -187500.02, -187500.02, 0.000, 0.000, 0.000, 14:56:41.459
49, 41867.14, 26262.99, -187500.02, -187500.02, -187500.02, -180751.27, -187500.02, -187500.02, 0.000, 0.000, 0.000, 14:56:41.459
50, 41612.26, 26128.65, -187500.02, -187500.02, -187500.02, -180663.06, -187500.02, -187500.02, 0.008, -0.014, 1.022, 14:56:41.459
51, 41275.16, 25974.98, -187500.02, -187500.02, -187500.02, -181051.94, -187500.02, -187500.02, 0.000, 0.000, 0.000, 14:56:41.459
52, 41523.15, 26107.13, -187500.02, -187500.02, -187500.02, -181224.89, -187500.02, -187500.02, 0.000, 0.000, 0.000, 14:56:41.459
53, 41754.20, 26227.18, -187500.02, -187500.02, -187500.02, -181124.38, -187500.02, -187500.02, 0.000, 0.000, 0.000, 14:56:41.460
54, 41878.70, 26273.65, -187500.02, -187500.02, -187500.02, -180714.20, -187500.02, -187500.02, 0.000, 0.000, 0.000, 14:56:41.460
55, 41633.65, 26152.03, -187500.02, -187500.02, -187500.02, -180626.09, -187500.02, -187500.02, 0.000, 0.000, 0.000, 14:56:41.460
56, 41311.01, 26009.29, -187500.02, -187500.02, -187500.02, -181098.05, -187500.02, -187500.02, 0.000, 0.000, 0.000, 14:56:41.460
57, 41554.35, 26144.41, -187500.02, -187500.02, -187500.02, -181314.02, -187500.02, -187500.02, 0.000, 0.000, 0.000, 14:56:41.460
58, 41782.38, 26261.71, -187500.02, -187500.02, -187500.02, -181182.03, -187500.02, -187500.02, 0.000, 0.000, 0.000, 14:56:41.460
59, 41905.61, 26296.92, -187500.02, -187500.02, -187500.02, -180783.50, -187500.02, -187500.02, 0.000, 0.000, 0.000, 14:56:41.460
60, 41643.89, 26155.43, -187500.02, -187500.02, -187500.02, -180674.53, -187500.02, -187500.02, 0.008, -0.012, 1.032, 14:56:41.461
61, 41289.10, 25987.41, -187500.02, -187500.02, -187500.02, -181038.13, -187500.02, -187500.02, 0.000, 0.000, 0.000, 14:56:41.461
62, 41531.04, 26121.83, -187500.02, -187500.02, -187500.02, -181234.58, -187500.02, -187500.02, 0.000, 0.000, 0.000, 14:56:41.461
63, 41771.14, 26257.11, -187500.02, -187500.02, -187500.02, -181137.64, -187500.02, -187500.02, 0.000, 0.000, 0.000, 14:56:41.461
64, 41903.98, 26300.31, -187500.02, -187500.02, -187500.02, -180785.89, -187500.02, -187500.02, 0.000, 0.000, 0.000, 14:56:41.461
65, 41650.89, 26155.63, -187500.02, -187500.02, -187500.02, -180684.75, -187500.02, -187500.02, 0.000, 0.000, 0.000, 14:56:41.461
66, 41301.55, 25991.23, -187500.02, -187500.02, -187500.02, -181049.95, -187500.02, -187500.02, 0.000, 0.000, 0.000, 14:56:41.461
67, 41535.93, 26121.54, -187500.02, -187500.02, -187500.02, -181207.64, -187500.02, -187500.02, 0.000, 0.000, 0.000, 14:56:41.461
68, 41778.72, 26263.66, -187500.02, -187500.02, -187500.02, -181100.94, -187500.02, -187500.02, 0.000, 0.000, 0.000, 14:56:41.461
69, 41918.08, 26303.76, -187500.02, -187500.02, -187500.02, -180747.16, -187500.02, -187500.02, 0.000, 0.000, 0.000, 14:56:41.462
70, 41663.07, 26171.70, -187500.02, -187500.02, -187500.02, -180697.58, -187500.02, -187500.02, 0.006, -0.014, 1.032, 14:56:41.462
71, 41321.51, 26011.06, -187500.02, -187500.02, -187500.02, -181093.02, -187500.02, -187500.02, 0.000, 0.000, 0.000, 14:56:41.462
72, 41567.40, 26152.95, -187500.02, -187500.02, -187500.02, -181264.39, -187500.02, -187500.02, 0.000, 0.000, 0.000, 14:56:41.462
73, 41808.94, 26282.92, -187500.02, -187500.02, -187500.02, -181174.98, -187500.02, -187500.02, 0.000, 0.000, 0.000, 14:56:41.462
74, 41938.00, 26318.37, -187500.02, -187500.02, -187500.02, -180810.97, -187500.02, -187500.02, 0.000, 0.000, 0.000, 14:56:41.462
75, 41674.91, 26170.52, -187500.02, -187500.02, -187500.02, -180711.55, -187500.02, -187500.02, 0.000, 0.000, 0.000, 14:56:41.462
76, 41322.25, 26008.15, -187500.02, -187500.02, -187500.02, -181094.41, -187500.02, -187500.02, 0.000, 0.000, 0.000, 14:56:41.462
77, 41560.72, 26146.98, -187500.02, -187500.02, -187500.02, -181271.95, -187500.02, -187500.02, 0.000, 0.000, 0.000, 14:56:41.463
78, 41796.02, 26269.33, -187500.02, -187500.02, -187500.02, -181147.27, -187500.02, -187500.02, 0.000, 0.000, 0.000, 14:56:41.463
79, 41922.71, 26303.02, -187500.02, -187500.02, -187500.02, -180763.89, -187500.02, -187500.02, 0.000, 0.000, 0.000, 14:56:41.463
80, 41671.88, 26172.21, -187500.02, -187500.02, -187500.02, -180687.61, -187500.02, -187500.02, 0.010, -0.016, 1.034, 14:56:41.463
81, 41328.24, 26011.42, -187500.02, -187500.02, -187500.02, -181110.05, -187500.02, -187500.02, 0.000, 0.000, 0.000, 14:56:41.463
82, 41563.18, 26141.66, -187500.02, -187500.02, -187500.02, -181291.91, -187500.02, -187500.02, 0.000, 0.000, 0.000, 14:56:41.463
83, 41802.70, 26263.50, -187500.02, -187500.02, -187500.02, -181199.28, -187500.02, -187500.02, 0.000, 0.000, 0.000, 14:56:41.463
84, 41928.59, 26291.30, -187500.02, -187500.02, -187500.02, -180811.17, -187500.02, -187500.02, 0.000, 0.000, 0.000, 14:56:41.463
85, 41681.55, 26159.23, -187500.02, -187500.02, -187500.02, -180728.13, -187500.02, -187500.02, 0.000, 0.000, 0.000, 14:56:41.464
86, 41339.80, 26014.57, -187500.02, -187500.02, -187500.02, -181109.88, -187500.02, -187500.02, 0.000, 0.000, 0.000, 14:56:41.464
87, 41583.50, 26147.12, -187500.02, -187500.02, -187500.02, -181288.25, -187500.02, -187500.02, 0.000, 0.000, 0.000, 14:56:41.464
88, 41822.23, 26271.81, -187500.02, -187500.02, -187500.02, -181186.20, -187500.02, -187500.02, 0.000, 0.000, 0.000, 14:56:41.464
89, 41954.22, 26322.78, -187500.02, -187500.02, -187500.02, -180795.77, -187500.02, -187500.02, 0.000, 0.000, 0.000, 14:56:41.929
90, 41692.33, 26182.52, -187500.02, -187500.02, -187500.02, -180719.34, -187500.02, -187500.02, 0.012, -0.010, 1.026, 14:56:41.929
91, 41346.68, 26029.25, -187500.02, -187500.02, -187500.02, -181139.47, -187500.02, -187500.02, 0.000, 0.000, 0.000, 14:56:41.929
92, 41585.48, 26152.70, -187500.02, -187500.02, -187500.02, -181296.48, -187500.02, -187500.02, 0.000, 0.000, 0.000, 14:56:41.930
93, 41828.63, 26278.36, -187500.02, -187500.02, -187500.02, -181162.05, -187500.02, -187500.02, 0.000, 0.000, 0.000, 14:56:41.930
94, 41967.21, 26330.62, -187500.02, -187500.02, -187500.02, -180811.17, -187500.02, -187500.02, 0.000, 0.000, 0.000, 14:56:41.930
95, 41709.58, 26193.14, -187500.02, -187500.02, -187500.02, -180757.59, -187500.02, -187500.02, 0.000, 0.000, 0.000, 14:56:41.930
96, 41347.35, 26018.88, -187500.02, -187500.02, -187500.02, -181087.28, -187500.02, -187500.02, 0.000, 0.000, 0.000, 14:56:41.930
97, 41578.33, 26148.32, -187500.02, -187500.02, -187500.02, -181233.97, -187500.02, -187500.02, 0.000, 0.000, 0.000, 14:56:41.930
98, 41824.45, 26283.19, -187500.02, -187500.02, -187500.02, -181115.38, -187500.02, -187500.02, 0.000, 0.000, 0.000, 14:56:41.930
99, 41962.18, 26326.53, -187500.02, -187500.02, -187500.02, -180739.38, -187500.02, -187500.02, 0.000, 0.000, 0.000, 14:56:41.930
100, 41718.99, 26199.62, -187500.02, -187500.02, -187500.02, -180656.89, -187500.02, -187500.02, 0.008, -0.010, 1.024, 14:56:41.931
101, 41369.23, 26039.74, -187500.02, -187500.02, -187500.02, -181049.25, -187500.02, -187500.02, 0.000, 0.000, 0.000, 14:56:41.931
102, 41611.04, 26176.98, -187500.02, -187500.02, -187500.02, -181277.31, -187500.02, -187500.02, 0.000, 0.000, 0.000, 14:56:41.931
103, 41835.07, 26290.10, -187500.02, -187500.02, -187500.02, -181206.23, -187500.02, -187500.02, 0.000, 0.000, 0.000, 14:56:41.931
104, 41962.70, 26334.69, -187500.02, -187500.02, -187500.02, -180831.50, -187500.02, -187500.02, 0.000, 0.000, 0.000, 14:56:41.931
105, 41698.99, 26190.83, -187500.02, -187500.02, -187500.02, -180738.41, -187500.02, -187500.02, 0.000, 0.000, 0.000, 14:56:41.931
106, 41343.91, 26026.26, -187500.02, -187500.02, -187500.02, -181081.91, -187500.02, -187500.02, 0.000, 0.000, 0.000, 14:56:41.931
107, 41583.39, 26161.55, -187500.02, -187500.02, -187500.02, -181258.52, -187500.02, -187500.02, 0.000, 0.000, 0.000, 14:56:41.932
108, 41818.79, 26288.18, -187500.02, -187500.02, -187500.02, -181134.70, -187500.02, -187500.02, 0.000, 0.000, 0.000, 14:56:41.932
109, 41961.35, 26348.32, -187500.02, -187500.02, -187500.02, -180776.14, -187500.02, -187500.02, 0.000, 0.000, 0.000, 14:56:41.932
110, 41700.39, 26210.08, -187500.02, -187500.02, -187500.02, -180693.16, -187500.02, -187500.02, 0.006, -0.016, 1.026, 14:56:41.932
111, 41356.05, 26049.08, -187500.02, -187500.02, -187500.02, -181095.03, -187500.02, -187500.02, 0.000, 0.000, 0.000, 14:56:41.932
112, 41606.12, 26187.19, -187500.02, -187500.02, -187500.02, -181285.77, -187500.02, -187500.02, 0.000, 0.000, 0.000, 14:56:41.932
113, 41847.29, 26319.09, -187500.02, -187500.02, -187500.02, -181173.75, -187500.02, -187500.02, 0.000, 0.000, 0.000, 14:56:41.932
114, 41981.02, 26367.30, -187500.02, -187500.02, -187500.02, -180829.25, -187500.02, -187500.02, 0.000, 0.000, 0.000, 14:56:41.932
115, 41710.88, 26214.88, -187500.02, -187500.02, -187500.02, -180711.14, -187500.02, -187500.02, 0.000, 0.000, 0.000, 14:56:41.933
116, 41364.00, 26059.27, -187500.02, -187500.02, -187500.02, -181099.66, -187500.02, -187500.02, 0.000, 0.000, 0.000, 14:56:41.933
117, 41593.38, 26193.52, -187500.02, -187500.02, -187500.02, -181271.69, -187500.02, -187500.02, 0.000, 0.000, 0.000, 14:56:41.933
118, 41835.13, 26331.45, -187500.02, -187500.02, -187500.02, -181153.22, -187500.02, -187500.02, 0.000, 0.000, 0.000, 14:56:41.933
119, 41980.08, 26380.33, -187500.02, -187500.02, -187500.02, -180779.67, -187500.02, -187500.02, 0.000, 0.000, 0.000, 14:56:41.933
120, 41725.90, 26242.71, -187500.02, -187500.02, -187500.02, -180683.61, -187500.02, -187500.02, 0.004, -0.018, 1.034, 14:56:41.933
121, 41370.26, 26078.36, -187500.02, -187500.02, -187500.02, -181065.95, -187500.02, -187500.02, 0.000, 0.000, 0.000, 14:56:41.933
122, 41610.54, 26216.67, -187500.02, -187500.02, -187500.02, -181275.38, -187500.02, -187500.02, 0.000, 0.000, 0.000, 14:56:41.933
123, 41850.22, 26339.76, -187500.02, -187500.02, -187500.02, -181160.23, -187500.02, -187500.02, 0.000, 0.000, 0.000, 14:56:41.933
124, 41987.28, 26382.75, -187500.02, -187500.02, -187500.02, -180785.58, -187500.02, -187500.02, 0.000, 0.000, 0.000, 14:56:41.934
125, 41724.69, 26231.22, -187500.02, -187500.02, -187500.02, -180696.23, -187500.02, -187500.02, 0.000, 0.000, 0.000, 14:56:41.934
126, 41380.79, 26072.28, -187500.02, -187500.02, -187500.02, -181106.36, -187500.02, -187500.02, 0.000, 0.000, 0.000, 14:56:41.934
127, 41615.64, 26215.53, -187500.02, -187500.02, -187500.02, -181284.06, -187500.02, -187500.02, 0.000, 0.000, 0.000, 14:56:41.934
128, 41855.23, 26346.85, -187500.02, -187500.02, -187500.02, -181192.72, -187500.02, -187500.02, 0.000, 0.000, 0.000, 14:56:41.934
129, 41984.53, 26377.94, -187500.02, -187500.02, -187500.02, -180817.58, -187500.02, -187500.02, 0.000, 0.000, 0.000, 14:56:41.934
130, 41727.04, 26238.42, -187500.02, -187500.02, -187500.02, -180691.70, -187500.02, -187500.02, 0.006, -0.014, 1.028, 14:56:41.934
131, 41382.93, 26085.69, -187500.02, -187500.02, -187500.02, -181101.45, -187500.02, -187500.02, 0.000, 0.000, 0.000, 14:56:41.934
132, 41618.01, 26213.54, -187500.02, -187500.02, -187500.02, -181297.05, -187500.02, -187500.02, 0.000, 0.000, 0.000, 14:56:41.935
133, 41851.81, 26337.93, -187500.02, -187500.02, -187500.02, -181179.53, -187500.02, -187500.02, 0.000, 0.000, 0.000, 14:56:41.935
134, 41991.24, 26387.87, -187500.02, -187500.02, -187500.02, -180812.02, -187500.02, -187500.02, 0.000, 0.000, 0.000, 14:56:41.935
135, 41727.55, 26246.76, -187500.02, -187500.02, -187500.02, -180711.83, -187500.02, -187500.02, 0.000, 0.000, 0.000, 14:56:41.935
136, 41377.95, 26082.12, -187500.02, -187500.02, -187500.02, -181100.33, -187500.02, -187500.02, 0.000, 0.000, 0.000, 14:56:41.935
137, 41616.51, 26215.78, -187500.02, -187500.02, -187500.02, -181267.30, -187500.02, -187500.02, 0.000, 0.000, 0.000, 14:56:41.935
138, 41852.97, 26346.92, -187500.02, -187500.02, -187500.02, -181167.66, -187500.02, -187500.02, 0.000, 0.000, 0.000, 14:56:41.935
139, 41995.98, 26405.46, -187500.02, -187500.02, -187500.02, -180806.42, -187500.02, -187500.02, 0.000, 0.000, 0.000, 14:56:41.935
140, 41735.11, 26252.55, -187500.02, -187500.02, -187500.02, -180685.23, -187500.02, -187500.02, 0.006, -0.010, 1.028, 14:56:41.935
141, 41390.49, 26087.81, -187500.02, -187500.02, -187500.02, -181082.89, -187500.02, -187500.02, 0.000, 0.000, 0.000, 14:56:41.937
142, 41628.31, 26223.15, -187500.02, -187500.02, -187500.02, -181275.19, -187500.02, -187500.02, 0.000, 0.000, 0.000, 14:56:41.937
143, 41867.07, 26349.76, -187500.02, -187500.02, -187500.02, -181159.42, -187500.02, -187500.02, 0.000, 0.000, 0.000, 14:56:41.937
144, 42004.27, 26401.83, -187500.02, -187500.02, -187500.02, -180785.11, -187500.02, -187500.02, 0.000, 0.000, 0.000, 14:56:41.937
145, 41743.20, 26261.20, -187500.02, -187500.02, -187500.02, -180698.36, -187500.02, -187500.02, 0.000, 0.000, 0.000, 14:56:41.938
146, 41403.68, 26098.30, -187500.02, -187500.02, -187500.02, -181087.55, -187500.02, -187500.02, 0.000, 0.000, 0.000, 14:56:41.938
147, 41641.39, 26232.28, -187500.02, -187500.02, -187500.02, -181262.05, -187500.02, -187500.02, 0.000, 0.000, 0.000, 14:56:41.938
148, 41881.00, 26365.36, -187500.02, -187500.02, -187500.02, -181143.92, -187500.02, -187500.02, 0.000, 0.000, 0.000, 14:56:41.938
149, 42017.59, 26412.32, -187500.02, -187500.02, -187500.02, -180789.94, -187500.02, -187500.02, 0.008, -0.016, 1.030, 14:56:41.938
150, 41761.04, 26272.66, -187500.02, -187500.02, -187500.02, -180707.30, -187500.02, -187500.02, 0.000, 0.000, 0.000, 14:56:41.938
151, 41418.63, 26122.68, -187500.02, -187500.02, -187500.02, -181145.70, -187500.02, -187500.02, 0.000, 0.000, 0.000, 14:56:41.939
152, 41658.91, 26254.56, -187500.02, -187500.02, -187500.02, -181310.11, -187500.02, -187500.02, 0.000, 0.000, 0.000, 14:56:41.939
153, 41887.68, 26367.99, -187500.02, -187500.02, -187500.02, -181154.72, -187500.02, -187500.02, 0.000, 0.000, 0.000, 14:56:41.939
154, 42024.23, 26410.69, -187500.02, -187500.02, -187500.02, -180789.38, -187500.02, -187500.02, 0.000, 0.000, 0.000, 14:56:41.939
155, 41759.63, 26266.16, -187500.02, -187500.02, -187500.02, -180714.50, -187500.02, -187500.02, 0.000, 0.000, 0.000, 14:56:41.939
156, 41415.14, 26112.76, -187500.02, -187500.02, -187500.02, -181145.13, -187500.02, -187500.02, 0.000, 0.000, 0.000, 14:56:41.939
157, 41654.84, 26257.13, -187500.02, -187500.02, -187500.02, -181333.45, -187500.02, -187500.02, 0.000, 0.000, 0.000, 14:56:41.940
158, 41884.22, 26379.66, -187500.02, -187500.02, -187500.02, -181193.61, -187500.02, -187500.02, 0.000, 0.000, 0.000, 14:56:41.940
159, 42019.85, 26419.47, -187500.02, -187500.02, -187500.02, -180804.03, -187500.02, -187500.02, 0.008, -0.020, 1.032, 14:56:41.940
160, 41771.14, 26288.04, -187500.02, -187500.02, -187500.02, -180725.52, -187500.02, -187500.02, 0.000, 0.000, 0.000, 14:56:41.940
161, 41416.98, 26120.07, -187500.02, -187500.02, -187500.02, -181124.20, -187500.02, -187500.02, 0.000, 0.000, 0.000, 14:56:41.940
162, 41654.55, 26251.99, -187500.02, -187500.02, -187500.02, -181284.36, -187500.02, -187500.02, 0.000, 0.000, 0.000, 14:56:41.940
163, 41898.05, 26384.24, -187500.02, -187500.02, -187500.02, -181158.41, -187500.02, -187500.02, 0.000, 0.000, 0.000, 14:56:41.941
164, 42017.90, 26419.98, -187500.02, -187500.02, -187500.02, -180793.70, -187500.02, -187500.02, 0.000, 0.000, 0.000, 14:56:41.941
165, 41757.77, 26275.57, -187500.02, -187500.02, -187500.02, -180696.92, -187500.02, -187500.02, 0.000, 0.000, 0.000, 14:56:41.941
166, 41408.08, 26117.14, -187500.02, -187500.02, -187500.02, -181073.36, -187500.02, -187500.02, 0.000, 0.000, 0.000, 14:56:41.941
167, 41654.62, 26261.53, -187500.02, -187500.02, -187500.02, -181269.11, -187500.02, -187500.02, 0.000, 0.000, 0.000, 14:56:41.941
168, 41900.04, 26381.70, -187500.02, -187500.02, -187500.02, -181120.58, -187500.02, -187500.02, 0.000, 0.000, 0.000, 14:56:41.942
169, 42031.98, 26422.76, -187500.02, -187500.02, -187500.02, -180763.69, -187500.02, -187500.02, 0.008, -0.014, 1.034, 14:56:41.942
170, 41773.82, 26278.45, -187500.02, -187500.02, -187500.02, -180670.34, -187500.02, -187500.02, 0.000, 0.000, 0.000, 14:56:41.942
171, 41433.83, 26137.99, -187500.02, -187500.02, -187500.02, -181074.14, -187500.02, -187500.02, 0.000, 0.000, 0.000, 14:56:41.942
172, 41677.46, 26279.01, -187500.02, -187500.02, -187500.02, -181290.80, -187500.02, -187500.02, 0.000, 0.000, 0.000, 14:56:41.942
173, 41907.93, 26403.60, -187500.02, -187500.02, -187500.02, -181193.88, -187500.02, -187500.02, 0.000, 0.000, 0.000, 14:56:41.942
174, 42031.83, 26444.88, -187500.02, -187500.02, -187500.02, -180837.36, -187500.02, -187500.02, 0.000, 0.000, 0.000, 14:56:41.943
175, 41772.61, 26298.06, -187500.02, -187500.02, -187500.02, -180732.59, -187500.02, -187500.02, 0.000, 0.000, 0.000, 14:56:41.943
176, 41434.50, 26143.29, -187500.02, -187500.02, -187500.02, -181088.89, -187500.02, -187500.02, 0.000, 0.000, 0.000, 14:56:41.943
177, 41665.77, 26259.86, -187500.02, -187500.02, -187500.02, -181238.23, -187500.02, -187500.02, 0.000, 0.000, 0.000, 14:56:41.943
178, 41909.50, 26382.68, -187500.02, -187500.02, -187500.02, -181134.81, -187500.02, -187500.02, 0.000, 0.000, 0.000, 14:56:41.943
179, 42044.10, 26438.80, -187500.02, -187500.02, -187500.02, -180770.38, -187500.02, -187500.02, 0.008, -0.014, 1.032, 14:56:41.944
180, 41788.62, 26299.46, -187500.02, -187500.02, -187500.02, -180667.83, -187500.02, -187500.02, 0.000, 0.000, 0.000, 14:56:41.944
181, 41441.59, 26145.26, -187500.02, -187500.02, -187500.02, -181060.95, -187500.02, -187500.02, 0.000, 0.000, 0.000, 14:56:41.944
182, 41671.90, 26276.98, -187500.02, -187500.02, -187500.02, -181238.20, -187500.02, -187500.02, 0.000, 0.000, 0.000, 14:56:41.944
183, 41908.47, 26402.30, -187500.02, -187500.02, -187500.02, -181140.00, -187500.02, -187500.02, 0.000, 0.000, 0.000, 14:56:41.944
184, 42047.41, 26445.82, -187500.02, -187500.02, -187500.02, -180803.95, -187500.02, -187500.02, 0.000, 0.000, 0.000, 14:56:41.944
185, 41798.16, 26314.66, -187500.02, -187500.02, -187500.02, -180704.17, -187500.02, -187500.02, 0.000, 0.000, 0.000, 14:56:41.945
186, 41446.97, 26156.86, -187500.02, -187500.02, -187500.02, -181113.05, -187500.02, -187500.02, 0.000, 0.000, 0.000, 14:56:41.945
187, 41681.22, 26292.20, -187500.02, -187500.02, -187500.02, -181285.09, -187500.02, -187500.02, 0.000, 0.000, 0.000, 14:56:41.945
188, 41922.35, 26408.34, -187500.02, -187500.02, -187500.02, -181132.05, -187500.02, -187500.02, 0.000, 0.000, 0.000, 14:56:41.945
189, 42061.22, 26455.12, -187500.02, -187500.02, -187500.02, -180778.38, -187500.02, -187500.02, 0.008, -0.014, 1.028, 14:56:41.945
190, 41798.83, 26323.34, -187500.02, -187500.02, -187500.02, -180707.03, -187500.02, -187500.02, 0.000, 0.000, 0.000, 14:56:41.946
191, 41452.83, 26160.84, -187500.02, -187500.02, -187500.02, -181073.84, -187500.02, -187500.02, 0.000, 0.000, 0.000, 14:56:41.946
192, 41691.70, 26286.30, -187500.02, -187500.02, -187500.02, -181247.98, -187500.02, -187500.02, 0.000, 0.000, 0.000, 14:56:41.946
193, 41935.43, 26411.24, -187500.02, -187500.02, -187500.02, -181127.11, -187500.02, -187500.02, 0.000, 0.000, 0.000, 14:56:41.946
194, 42070.68, 26460.31, -187500.02, -187500.02, -187500.02, -180757.30, -187500.02, -187500.02, 0.000, 0.000, 0.000, 14:56:41.946
195, 41816.27, 26328.70, -187500.02, -187500.02, -187500.02, -180655.17, -187500.02, -187500.02, 0.000, 0.000, 0.000, 14:56:41.946
196, 41483.74, 26188.15, -187500.02, -187500.02, -187500.02, -181097.45, -187500.02, -187500.02, 0.000, 0.000, 0.000, 14:56:41.946
197, 41714.86, 26316.05, -187500.02, -187500.02, -187500.02, -181328.70, -187500.02, -187500.02, 0.000, 0.000, 0.000, 14:56:41.946
198, 41940.32, 26423.87, -187500.02, -187500.02, -187500.02, -181229.77, -187500.02, -187500.02, 0.000, 0.000, 0.000, 14:56:41.947
199, 42073.31, 26465.16, -187500.02, -187500.02, -187500.02, -180889.69, -187500.02, -187500.02, 0.006, -0.012, 1.030, 14:56:41.947
200, 41811.93, 26316.92, -187500.02, -187500.02, -187500.02, -180771.14, -187500.02, -187500.02, 0.000, 0.000, 0.000, 14:56:41.947
201, 41465.68, 26157.57, -187500.02, -187500.02, -187500.02, -181143.53, -187500.02, -187500.02, 0.000, 0.000, 0.000, 14:56:41.947
202, 41694.50, 26297.77, -187500.02, -187500.02, -187500.02, -181302.84, -187500.02, -187500.02, 0.000, 0.000, 0.000, 14:56:41.947
203, 41934.42, 26431.96, -187500.02, -187500.02, -187500.02, -181167.16, -187500.02, -187500.02, 0.000, 0.000, 0.000, 14:56:41.947
204, 42064.64, 26470.59, -187500.02, -187500.02, -187500.02, -180804.84, -187500.02, -187500.02, 0.000, 0.000, 0.000, 14:56:41.947
205, 41806.46, 26324.54, -187500.02, -187500.02, -187500.02, -180747.70, -187500.02, -187500.02, 0.000, 0.000, 0.000, 14:56:41.948
206, 41461.12, 26168.06, -187500.02, -187500.02, -187500.02, -181140.75, -187500.02, -187500.02, 0.000, 0.000, 0.000, 14:56:41.948
207, 41690.76, 26297.63, -187500.02, -187500.02, -187500.02, -181305.19, -187500.02, -187500.02, 0.000, 0.000, 0.000, 14:56:41.948
208, 41934.93, 26428.66, -187500.02, -187500.02, -187500.02, -181221.08, -187500.02, -187500.02, 0.000, 0.000, 0.000, 14:56:41.948
209, 42065.96, 26461.76, -187500.02, -187500.02, -187500.02, -180846.53, -187500.02, -187500.02, 0.010, -0.012, 1.030, 14:56:42.410
210, 41815.38, 26325.41, -187500.02, -187500.02, -187500.02, -180731.94, -187500.02, -187500.02, 0.000, 0.000, 0.000, 14:56:42.411
211, 41463.67, 26178.68, -187500.02, -187500.02, -187500.02, -181123.95, -187500.02, -187500.02, 0.000, 0.000, 0.000, 14:56:42.411
212, 41700.04, 26313.37, -187500.02, -187500.02, -187500.02, -181287.66, -187500.02, -187500.02, 0.000, 0.000, 0.000, 14:56:42.411
213, 41950.31, 26444.55, -187500.02, -187500.02, -187500.02, -181164.25, -187500.02, -187500.02, 0.000, 0.000, 0.000, 14:56:42.411
214, 42091.82, 26489.79, -187500.02, -187500.02, -187500.02, -180811.88, -187500.02, -187500.02, 0.000, 0.000, 0.000, 14:56:42.411
215, 41832.68, 26351.57, -187500.02, -187500.02, -187500.02, -180713.67, -187500.02, -187500.02, 0.000, 0.000, 0.000, 14:56:42.411
216, 41494.89, 26194.41, -187500.02, -187500.02, -187500.02, -181103.75, -187500.02, -187500.02, 0.000, 0.000, 0.000, 14:56:42.412
217, 41730.53, 26326.08, -187500.02, -187500.02, -187500.02, -181262.83, -187500.02, -187500.02, 0.000, 0.000, 0.000, 14:56:42.412
218, 41961.96, 26459.05, -187500.02, -187500.02, -187500.02, -181178.50, -187500.02, -187500.02, 0.000, 0.000, 0.000, 14:56:42.412
219, 42101.45, 26507.20, -187500.02, -187500.02, -187500.02, -180782.53, -187500.02, -187500.02, 0.006, -0.016, 1.032, 14:56:42.412
220, 41854.58, 26365.92, -187500.02, -187500.02, -187500.02, -180704.33, -187500.02, -187500.02, 0.000, 0.000, 0.000, 14:56:42.412
221, 41516.71, 26215.87, -187500.02, -187500.02, -187500.02, -181139.11, -187500.02, -187500.02, 0.000, 0.000, 0.000, 14:56:42.412
222, 41752.30, 26345.62, -187500.02, -187500.02, -187500.02, -181345.98, -187500.02, -187500.02, 0.000, 0.000, 0.000, 14:56:42.413
223, 41978.83, 26459.86, -187500.02, -187500.02, -187500.02, -181224.00, -187500.02, -187500.02, 0.000, 0.000, 0.000, 14:56:42.413
224, 42111.60, 26504.65, -187500.02, -187500.02, -187500.02, -180851.28, -187500.02, -187500.02, 0.000, 0.000, 0.000, 14:56:42.413
225, 41849.71, 26366.97, -187500.02, -187500.02, -187500.02, -180740.31, -187500.02, -187500.02, 0.000, 0.000, 0.000, 14:56:42.413
226, 41500.84, 26201.45, -187500.02, -187500.02, -187500.02, -181152.59, -187500.02, -187500.02, 0.000, 0.000, 0.000, 14:56:42.413
227, 41727.51, 26324.68, -187500.02, -187500.02, -187500.02, -181310.97, -187500.02, -187500.02, 0.000, 0.000, 0.000, 14:56:42.413
228, 41966.38, 26452.04, -187500.02, -187500.02, -187500.02, -181200.64, -187500.02, -187500.02, 0.000, 0.000, 0.000, 14:56:42.414
229, 42098.88, 26494.59, -187500.02, -187500.02, -187500.02, -180840.98, -187500.02, -187500.02, 0.006, -0.020, 1.030, 14:56:42.414
230, 41836.05, 26350.38, -187500.02, -187500.02, -187500.02, -180723.48, -187500.02, -187500.02, 0.000, 0.000, 0.000, 14:56:42.414
231, 41494.00, 26191.17, -187500.02, -187500.02, -187500.02, -181093.58, -187500.02, -187500.02, 0.000, 0.000, 0.000, 14:56:42.414
232, 41732.02, 26327.81, -187500.02, -187500.02, -187500.02, -181281.41, -187500.02, -187500.02, 0.000, 0.000, 0.000, 14:56:42.414
233, 41967.61, 26453.15, -187500.02, -187500.02, -187500.02, -181164.03, -187500.02, -187500.02, 0.000, 0.000, 0.000, 14:56:42.415
234, 42106.73, 26499.13, -187500.02, -187500.02, -187500.02, -180853.70, -187500.02, -187500.02, 0.000, 0.000, 0.000, 14:56:42.415
235, 41849.15, 26351.54, -187500.02, -187500.02, -187500.02, -180755.28, -187500.02, -187500.02, 0.000, 0.000, 0.000, 14:56:42.415
236, 41498.98, 26188.78, -187500.02, -187500.02, -187500.02, -181126.42, -187500.02, -187500.02, 0.000, 0.000, 0.000, 14:56:42.415
237, 41729.23, 26310.42, -187500.02, -187500.02, -187500.02, -181297.05, -187500.02, -187500.02, 0.000, 0.000, 0.000, 14:56:42.415
238, 41973.25, 26434.69, -187500.02, -187500.02, -187500.02, -181183.72, -187500.02, -187500.02, 0.000, 0.000, 0.000, 14:56:42.416
239, 42109.03, 26495.40, -187500.02, -187500.02, -187500.02, -180853.02, -187500.02, -187500.02, 0.004, -0.020, 1.030, 14:56:42.416
240, 41857.30, 26360.89, -187500.02, -187500.02, -187500.02, -180773.48, -187500.02, -187500.02, 0.000, 0.000, 0.000, 14:56:42.416
241, 41510.61, 26192.96, -187500.02, -187500.02, -187500.02, -181128.61, -187500.02, -187500.02, 0.000, 0.000, 0.000, 14:56:42.416
242, 41751.05, 26329.13, -187500.02, -187500.02, -187500.02, -181301.97, -187500.02, -187500.02, 0.000, 0.000, 0.000, 14:56:42.416
243, 41977.71, 26451.30, -187500.02, -187500.02, -187500.02, -181142.95, -187500.02, -187500.02, 0.000, 0.000, 0.000, 14:56:42.416
244, 42120.45, 26499.15, -187500.02, -187500.02, -187500.02, -180770.20, -187500.02, -187500.02, 0.000, 0.000, 0.000, 14:56:42.417
245, 41878.72, 26376.11, -187500.02, -187500.02, -187500.02, -180695.72, -187500.02, -187500.02, 0.000, 0.000, 0.000, 14:56:42.417
246, 41539.29, 26223.51, -187500.02, -187500.02, -187500.02, -181125.92, -187500.02, -187500.02, 0.000, 0.000, 0.000, 14:56:42.417
247, 41762.80, 26340.81, -187500.02, -187500.02, -187500.02, -181306.44, -187500.02, -187500.02, 0.000, 0.000, 0.000, 14:56:42.417
248, 41998.43, 26469.02, -187500.02, -187500.02, -187500.02, -181187.86, -187500.02, -187500.02, 0.000, 0.000, 0.000, 14:56:42.417
249, 42133.68, 26520.59, -187500.02, -187500.02, -187500.02, -180847.38, -187500.02, -187500.02, 0.010, -0.012, 1.024, 14:56:42.418
250, 41880.71, 26385.85, -187500.02, -187500.02, -187500.02, -180736.88, -187500.02, -187500.02, 0.000, 0.000, 0.000, 14:56:42.418
251, 41534.26, 26217.23, -187500.02, -187500.02, -187500.02, -181105.31, -187500.02, -187500.02, 0.000, 0.000, 0.000, 14:56:42.418
252, 41763.05, 26348.57, -187500.02, -187500.02, -187500.02, -181296.13, -187500.02, -187500.02, 0.000, 0.000, 0.000, 14:56:42.418
253, 42005.59, 26484.02, -187500.02, -187500.02, -187500.02, -181174.72, -187500.02, -187500.02, 0.000, 0.000, 0.000, 14:56:42.418
254, 42140.57, 26534.56, -187500.02, -187500.02, -187500.02, -180846.81, -187500.02, -187500.02, 0.000, 0.000, 0.000, 14:56:42.418
255, 41889.02, 26402.62, -187500.02, -187500.02, -187500.02, -180768.09, -187500.02, -187500.02, 0.000, 0.000, 0.000, 14:56:42.419
0, 41536.89, 26238.02, -187500.02, -187500.02, -187500.02, -181134.22, -187500.02, -187500.02, 0.000, 0.000, 0.000, 14:56:42.419
1, 41771.65, 26364.96, -187500.02, -187500.02, -187500.02, -181293.58, -187500.02, -187500.02, 0.000, 0.000, 0.000, 14:56:42.419
2, 42013.16, 26489.39, -187500.02, -187500.02, -187500.02, -181197.42, -187500.02, -187500.02, 0.000, 0.000, 0.000, 14:56:42.419
3, 42151.45, 26539.07, -187500.02, -187500.02, -187500.02, -180842.81, -187500.02, -187500.02, 0.012, -0.012, 1.022, 14:56:42.419
4, 41894.99, 26400.72, -187500.02, -187500.02, -187500.02, -180763.30, -187500.02, -187500.02, 0.000, 0.000, 0.000, 14:56:42.419
5, 41534.48, 26237.66, -187500.02, -187500.02, -187500.02, -181127.16, -187500.02, -187500.02, 0.000, 0.000, 0.000, 14:56:42.419
6, 41758.67, 26365.38, -187500.02, -187500.02, -187500.02, -181286.28, -187500.02, -187500.02, 0.000, 0.000, 0.000, 14:56:42.420
7, 41999.55, 26497.08, -187500.02, -187500.02, -187500.02, -181168.84, -187500.02, -187500.02, 0.000, 0.000, 0.000, 14:56:42.420
8, 42139.27, 26542.70, -187500.02, -187500.02, -187500.02, -180797.53, -187500.02, -187500.02, 0.000, 0.000, 0.000, 14:56:42.420
9, 41887.12, 26408.79, -187500.02, -187500.02, -187500.02, -180711.52, -187500.02, -187500.02, 0.000, 0.000, 0.000, 14:56:42.420
10, 41530.32, 26241.77, -187500.02, -187500.02, -187500.02, -181110.59, -187500.02, -187500.02, 0.000, 0.000, 0.000, 14:56:42.420
11, 41768.77, 26374.34, -187500.02, -187500.02, -187500.02, -181286.09, -187500.02, -187500.02, 0.000, 0.000, 0.000, 14:56:42.420
12, 42010.35, 26496.90, -187500.02, -187500.02, -187500.02, -181190.03, -187500.02, -187500.02, 0.000, 0.000, 0.000, 14:56:42.420
13, 42141.84, 26547.39, -187500.02, -187500.02, -187500.02, -180829.66, -187500.02, -187500.02, 0.004, -0.010, 1.024, 14:56:42.420
14, 41891.17, 26408.16, -187500.02, -187500.02, -187500.02, -180772.72, -187500.02, -187500.02, 0.000, 0.000, 0.000, 14:56:42.421
15, 41530.14, 26235.16, -187500.02, -187500.02, -187500.02, -181136.27, -187500.02, -187500.02, 0.000, 0.000, 0.000, 14:56:42.421
16, 41766.00, 26362.79, -187500.02, -187500.02, -187500.02, -181316.00, -187500.02, -187500.02, 0.000, 0.000, 0.000, 14:56:42.421
17, 42017.55, 26497.46, -187500.02, -187500.02, -187500.02, -181197.22, -187500.02, -187500.02, 0.000, 0.000, 0.000, 14:56:42.421
18, 42148.37, 26542.20, -187500.02, -187500.02, -187500.02, -180822.52, -187500.02, -187500.02, 0.000, 0.000, 0.000, 14:56:42.421
19, 41888.35, 26400.52, -187500.02, -187500.02, -187500.02, -180709.88, -187500.02, -187500.02, 0.000, 0.000, 0.000, 14:56:42.421
20, 41539.22, 26240.79, -187500.02, -187500.02, -187500.02, -181110.17, -187500.02, -187500.02, 0.000, 0.000, 0.000, 14:56:42.421
21, 41770.49, 26370.99, -187500.02, -187500.02, -187500.02, -181280.02, -187500.02, -187500.02, 0.000, 0.000, 0.000, 14:56:42.421
22, 42013.16, 26498.93, -187500.02, -187500.02, -187500.02, -181164.55, -187500.02, -187500.02, 0.006, -0.004, 1.024, 14:56:42.422
23, 42154.27, 26555.50, -187500.02, -187500.02, -187500.02, -180822.48, -187500.02, -187500.02, 0.000, 0.000, 0.000, 14:56:42.422
24, 41897.79, 26409.61, -187500.02, -187500.02, -187500.02, -180715.56, -187500.02, -187500.02, 0.000, 0.000, 0.000, 14:56:42.422
25, 41544.83, 26247.74, -187500.02, -187500.02, -187500.02, -181110.56, -187500.02, -187500.02, 0.000, 0.000, 0.000, 14:56:42.422
26, 41790.25, 26387.60, -187500.02, -187500.02, -187500.02, -181301.19, -187500.02, -187500.02, 0.000, 0.000, 0.000, 14:56:42.422
27, 42023.67, 26508.90, -187500.02, -187500.02, -187500.02, -181182.77, -187500.02, -187500.02, 0.000, 0.000, 0.000, 14:56:42.422
28, 42164.91, 26557.13, -187500.02, -187500.02, -187500.02, -180818.36, -187500.02, -187500.02, 0.000, 0.000, 0.000, 14:56:42.422
29, 41910.46, 26411.36, -187500.02, -187500.02, -187500.02, -180697.20, -187500.02, -187500.02, 0.000, 0.000, 0.000, 14:56:42.422
30, 41561.93, 26261.87, -187500.02, -187500.02, -187500.02, -181111.94, -187500.02, -187500.02, 0.000, 0.000, 0.000, 14:56:42.422
31, 41791.61, 26400.49, -187500.02, -187500.02, -187500.02, -181293.23, -187500.02, -187500.02, 0.000, 0.000, 0.000, 14:56:42.423
32, 42040.16, 26527.90, -187500.02, -187500.02, -187500.02, -181208.88, -187500.02, -187500.02, 0.006, -0.012, 1.018, 14:56:42.423
33, 42172.33, 26571.28, -187500.02, -187500.02, -187500.02, -180873.81, -187500.02, -187500.02, 0.000, 0.000, 0.000, 14:56:42.423
34, 41922.35, 26434.47, -187500.02, -187500.02, -187500.02, -180776.08, -187500.02, -187500.02, 0.000, 0.000, 0.000, 14:56:42.423
35, 41563.96, 26269.74, -187500.02, -187500.02, -187500.02, -181173.58, -187500.02, -187500.02, 0.000, 0.000, 0.000, 14:56:42.423
36, 41789.13, 26401.79, -187500.02, -187500.02, -187500.02, -181338.28, -187500.02, -187500.02, 0.000, 0.000, 0.000, 14:56:42.423
37, 42034.42, 26526.85, -187500.02, -187500.02, -187500.02, -181234.28, -187500.02, -187500.02, 0.000, 0.000, 0.000, 14:56:42.423
38, 42170.12, 26567.33, -187500.02, -187500.02, -187500.02, -180882.88, -187500.02, -187500.02, 0.000, 0.000, 0.000, 14:56:42.423
39, 41909.21, 26427.74, -187500.02, -187500.02, -187500.02, -180765.56, -187500.02, -187500.02, 0.000, 0.000, 0.000, 14:56:42.424
40, 41550.06, 26261.00, -187500.02, -187500.02, -187500.02, -181131.47, -187500.02, -187500.02, 0.000, 0.000, 0.000, 14:56:42.424
41, 41788.75, 26404.05, -187500.02, -187500.02, -187500.02, -181335.56, -187500.02, -187500.02, 0.000, 0.000, 0.000, 14:56:42.424
42, 42042.13, 26543.32, -187500.02, -187500.02, -187500.02, -181231.20, -187500.02, -187500.02, 0.010, -0.016, 1.028, 14:56:42.424
43, 42183.02, 26587.02, -187500.02, -187500.02, -187500.02, -180852.36, -187500.02, -187500.02, 0.000, 0.000, 0.000, 14:56:42.424
44, 41924.23, 26442.52, -187500.02, -187500.02, -187500.02, -180735.22, -187500.02, -187500.02, 0.000, 0.000, 0.000, 14:56:42.424
45, 41565.21, 26280.44, -187500.02, -187500.02, -187500.02, -181134.38, -187500.02, -187500.02, 0.000, 0.000, 0.000, 14:56:42.424
46, 41800.13, 26414.87, -187500.02, -187500.02, -187500.02, -181335.20, -187500.02, -187500.02, 0.000, 0.000, 0.000, 14:56:42.424
47, 42039.11, 26536.17, -187500.02, -187500.02, -187500.02, -181241.61, -187500.02, -187500.02, 0.000, 0.000, 0.000, 14:56:42.425
48, 42176.49, 26586.08, -187500.02, -187500.02, -187500.02, -180848.94, -187500.02, -187500.02, 0.000, 0.000, 0.000, 14:56:42.425
49, 41918.88, 26447.88, -187500.02, -187500.02, -187500.02, -180749.23, -187500.02, -187500.02, 0.000, 0.000, 0.000, 14:56:42.425
50, 41562.06, 26279.30, -187500.02, -187500.02, -187500.02, -181158.30, -187500.02, -187500.02, 0.000, 0.000, 0.000, 14:56:42.425
51, 41791.77, 26408.07, -187500.02, -187500.02, -187500.02, -181341.63, -187500.02, -187500.02, 0.000, 0.000, 0.000, 14:56:42.425
52, 42039.25, 26542.67, -187500.02, -187500.02, -187500.02, -181238.47, -187500.02, -187500.02, 0.012, -0.020, 1.032, 14:56:42.425
53, 42178.75, 26592.92, -187500.02, -187500.02, -187500.02, -180855.80, -187500.02, -187500.02, 0.000, 0.000, 0.000, 14:56:42.425
54, 41927.54, 26453.56, -187500.02, -187500.02, -187500.02, -180769.59, -187500.02, -187500.02, 0.000, 0.000, 0.000, 14:56:42.425
55, 41576.88, 26287.08, -187500.02, -187500.02, -187500.02, -181186.13, -187500.02, -187500.02, 0.000, 0.000, 0.000, 14:56:42.425
56, 41805.58, 26426.15, -187500.02, -187500.02, -187500.02, -181394.13, -187500.02, -187500.02, 0.000, 0.000, 0.000, 14:56:42.426
57, 42054.71, 26558.16, -187500.02, -187500.02, -187500.02, -181288.78, -187500.02, -187500.02, 0.000, 0.000, 0.000, 14:56:42.426
58, 42188.87, 26591.67, -187500.02, -187500.02, -187500.02, -180897.28, -187500.02, -187500.02, 0.000, 0.000, 0.000, 14:56:42.426
59, 41933.23, 26449.18, -187500.02, -187500.02, -187500.02, -180779.31, -187500.02, -187500.02, 0.000, 0.000, 0.000, 14:56:42.426
60, 41575.16, 26282.77, -187500.02, -187500.02, -187500.02, -181158.00, -187500.02, -187500.02, 0.000, 0.000, 0.000, 14:56:42.426
61, 41803.37, 26418.62, -187500.02, -187500.02, -187500.02, -181345.59, -187500.02, -187500.02, 0.000, 0.000, 0.000, 14:56:42.426
62, 42044.61, 26546.90, -187500.02, -187500.02, -187500.02, -181237.58, -187500.02, -187500.02, 0.012, -0.012, 1.030, 14:56:42.426
63, 42183.37, 26588.65, -187500.02, -187500.02, -187500.02, -180897.05, -187500.02, -187500.02, 0.000, 0.000, 0.000, 14:56:42.427
64, 41926.57, 26441.29, -187500.02, -187500.02, -187500.02, -180774.73, -187500.02, -187500.02, 0.000, 0.000, 0.000, 14:56:42.427
65, 41569.55, 26278.07, -187500.02, -187500.02, -187500.02, -181147.09, -187500.02, -187500.02, 0.000, 0.000, 0.000, 14:56:42.427
66, 41803.66, 26416.72, -187500.02, -187500.02, -187500.02, -181347.28, -187500.02, -187500.02, 0.000, 0.000, 0.000, 14:56:42.427
67, 42049.53, 26552.49, -187500.02, -187500.02, -187500.02, -181241.08, -187500.02, -187500.02, 0.000, 0.000, 0.000, 14:56:42.427
68, 42190.44, 26604.92, -187500.02, -187500.02, -187500.02, -180906.34, -187500.02, -187500.02, 0.000, 0.000, 0.000, 14:56:42.427
69, 41925.25, 26460.46, -187500.02, -187500.02, -187500.02, -180808.13, -187500.02, -187500.02, 0.000, 0.000, 0.000, 14:56:42.427
70, 41568.72, 26293.61, -187500.02, -187500.02, -187500.02, -181177.56, -187500.02, -187500.02, 0.000, 0.000, 0.000, 14:56:42.427
71, 41808.36, 26426.82, -187500.02, -187500.02, -187500.02, -181342.56, -187500.02, -187500.02, 0.000, 0.000, 0.000, 14:56:42.427
72, 42052.41, 26555.88, -187500.02, -187500.02, -187500.02, -181218.84, -187500.02, -187500.02, 0.010, -0.012, 1.034, 14:56:42.428
73, 42184.27, 26597.26, -187500.02, -187500.02, -187500.02, -180835.78, -187500.02, -187500.02, 0.000, 0.000, 0.000, 14:56:42.890
74, 41944.81, 26465.76, -187500.02, -187500.02, -187500.02, -180740.83, -187500.02, -187500.02, 0.000, 0.000, 0.000, 14:56:42.890
75, 41589.24, 26303.64, -187500.02, -187500.02, -187500.02, -181160.02, -187500.02, -187500.02, 0.000, 0.000, 0.000, 14:56:42.890
76, 41821.25, 26440.39, -187500.02, -187500.02, -187500.02, -181368.47, -187500.02, -187500.02, 0.000, 0.000, 0.000, 14:56:42.890
77, 42070.47, 26575.69, -187500.02, -187500.02, -187500.02, -181266.70, -187500.02, -187500.02, 0.000, 0.000, 0.000, 14:56:42.890
78, 42202.64, 26610.31, -187500.02, -187500.02, -187500.02, -180890.00, -187500.02, -187500.02, 0.000, 0.000, 0.000, 14:56:42.891
79, 41955.21, 26470.41, -187500.02, -187500.02, -187500.02, -180779.98, -187500.02, -187500.02, 0.000, 0.000, 0.000, 14:56:42.891
80, 41597.94, 26311.96, -187500.02, -187500.02, -187500.02, -181167.19, -187500.02, -187500.02, 0.000, 0.000, 0.000, 14:56:42.891
81, 41822.86, 26445.11, -187500.02, -187500.02, -187500.02, -181341.97, -187500.02, -187500.02, 0.000, 0.000, 0.000, 14:56:42.891
82, 42066.79, 26581.65, -187500.02, -187500.02, -187500.02, -181259.09, -187500.02, -187500.02, 0.006, -0.014, 1.034, 14:56:42.891
83, 42201.72, 26614.53, -187500.02, -187500.02, -187500.02, -180869.92, -187500.02, -187500.02, 0.000, 0.000, 0.000, 14:56:42.891
84, 41953.44, 26476.47, -187500.02, -187500.02, -187500.02, -180784.05, -187500.02, -187500.02, 0.000, 0.000, 0.000, 14:56:42.891
85, 41586.49, 26305.41, -187500.02, -187500.02, -187500.02, -181138.48, -187500.02, -187500.02, 0.000, 0.000, 0.000, 14:56:42.891
86, 41825.75, 26443.88, -187500.02, -187500.02, -187500.02, -181319.41, -187500.02, -187500.02, 0.000, 0.000, 0.000, 14:56:42.892
87, 42062.14, 26572.15, -187500.02, -187500.02, -187500.02, -181204.52, -187500.02, -187500.02, 0.000, 0.000, 0.000, 14:56:42.892
88, 42206.24, 26624.77, -187500.02, -187500.02, -187500.02, -180863.98, -187500.02, -187500.02, 0.000, 0.000, 0.000, 14:56:42.892
89, 41956.70, 26482.88, -187500.02, -187500.02, -187500.02, -180787.30, -187500.02, -187500.02, 0.000, 0.000, 0.000, 14:56:42.892
90, 41606.23, 26313.39, -187500.02, -187500.02, -187500.02, -181202.53, -187500.02, -187500.02, 0.000, 0.000, 0.000, 14:56:42.892
91, 41827.85, 26436.08, -187500.02, -187500.02, -187500.02, -181354.30, -187500.02, -187500.02, 0.000, 0.000, 0.000, 14:56:42.892
92, 42069.27, 26566.46, -187500.02, -187500.02, -187500.02, -181255.61, -187500.02, -187500.02, 0.008, -0.008, 1.034, 14:56:42.892
93, 42201.90, 26611.67, -187500.02, -187500.02, -187500.02, -180901.45, -187500.02, -187500.02, 0.000, 0.000, 0.000, 14:56:42.892
94, 41941.91, 26471.26, -187500.02, -187500.02, -187500.02, -180781.50, -187500.02, -187500.02, 0.000, 0.000, 0.000, 14:56:42.892
95, 41587.95, 26300.27, -187500.02, -187500.02, -187500.02, -181151.61, -187500.02, -187500.02, 0.000, 0.000, 0.000, 14:56:42.893
96, 41825.12, 26434.24, -187500.02, -187500.02, -187500.02, -181357.95, -187500.02, -187500.02, 0.000, 0.000, 0.000, 14:56:42.893
97, 42051.57, 26562.50, -187500.02, -187500.02, -187500.02, -181239.20, -187500.02, -187500.02, 0.000, 0.000, 0.000, 14:56:42.893
98, 42186.86, 26604.07, -187500.02, -187500.02, -187500.02, -180871.89, -187500.02, -187500.02, 0.000, 0.000, 0.000, 14:56:42.893
99, 41946.87, 26462.99, -187500.02, -187500.02, -187500.02, -180762.44, -187500.02, -187500.02, 0.000, 0.000, 0.000, 14:56:42.893
100, 41591.90, 26301.83, -187500.02, -187500.02, -187500.02, -181167.66, -187500.02, -187500.02, 0.000, 0.000, 0.000, 14:56:42.893
101, 41824.70, 26441.00, -187500.02, -187500.02, -187500.02, -181380.69, -187500.02, -187500.02, 0.000, 0.000, 0.000, 14:56:42.893
102, 42064.20, 26568.02, -187500.02, -187500.02, -187500.02, -181282.25, -187500.02, -187500.02, 0.008, -0.014, 1.030, 14:56:42.893
103, 42199.06, 26610.89, -187500.02, -187500.02, -187500.02, -180918.98, -187500.02, -187500.02, 0.000, 0.000, 0.000, 14:56:42.894
104, 41945.26, 26466.28, -187500.02, -187500.02, -187500.02, -180819.17, -187500.02, -187500.02, 0.000, 0.000, 0.000, 14:56:42.894
105, 41583.61, 26299.33, -187500.02, -187500.02, -187500.02, -181195.02, -187500.02, -187500.02, 0.000, 0.000, 0.000, 14:56:42.894
106, 41810.64, 26431.14, -187500.02, -187500.02, -187500.02, -181372.95, -187500.02, -187500.02, 0.000, 0.000, 0.000, 14:56:42.894
107, 42058.52, 26569.70, -187500.02, -187500.02, -187500.02, -181263.20, -187500.02, -187500.02, 0.000, 0.000, 0.000, 14:56:42.894
108, 42191.80, 26613.19, -187500.02, -187500.02, -187500.02, -180879.83, -187500.02, -187500.02, 0.000, 0.000, 0.000, 14:56:42.894
109, 41934.42, 26470.34, -187500.02, -187500.02, -187500.02, -180762.81, -187500.02, -187500.02, 0.000, 0.000, 0.000, 14:56:42.894
110, 41586.00, 26310.26, -187500.02, -187500.02, -187500.02, -181194.14, -187500.02, -187500.02, 0.000, 0.000, 0.000, 14:56:42.894
111, 41819.55, 26442.92, -187500.02, -187500.02, -187500.02, -181403.64, -187500.02, -187500.02, 0.000, 0.000, 0.000, 14:56:42.895
112, 42065.82, 26565.58, -187500.02, -187500.02, -187500.02, -181291.34, -187500.02, -187500.02, 0.008, -0.012, 1.028, 14:56:42.895
113, 42193.25, 26593.10, -187500.02, -187500.02, -187500.02, -180912.47, -187500.02, -187500.02, 0.000, 0.000, 0.000, 14:56:42.895
114, 41934.96, 26456.26, -187500.02, -187500.02, -187500.02, -180783.30, -187500.02, -187500.02, 0.000, 0.000, 0.000, 14:56:42.895
115, 41582.04, 26306.19, -187500.02, -187500.02, -187500.02, -181183.72, -187500.02, -187500.02, 0.000, 0.000, 0.000, 14:56:42.895
116, 41818.95, 26435.81, -187500.02, -187500.02, -187500.02, -181394.14, -187500.02, -187500.02, 0.000, 0.000, 0.000, 14:56:42.895
117, 42068.84, 26573.12, -187500.02, -187500.02, -187500.02, -181304.45, -187500.02, -187500.02, 0.000, 0.000, 0.000, 14:56:42.895
118, 42193.39, 26600.25, -187500.02, -187500.02, -187500.02, -180898.19, -187500.02, -187500.02, 0.000, 0.000, 0.000, 14:56:42.895
119, 41942.38, 26467.57, -187500.02, -187500.02, -187500.02, -180776.64, -187500.02, -187500.02, 0.000, 0.000, 0.000, 14:56:42.895
120, 41593.60, 26305.25, -187500.02, -187500.02, -187500.02, -181202.02, -187500.02, -187500.02, 0.000, 0.000, 0.000, 14:56:42.896
121, 41833.55, 26436.23, -187500.02, -187500.02, -187500.02, -181406.48, -187500.02, -187500.02, 0.000, 0.000, 0.000, 14:56:42.896
122, 42070.41, 26563.01, -187500.02, -187500.02, -187500.02, -181308.97, -187500.02, -187500.02, 0.004, -0.018, 1.030, 14:56:42.896
123, 42199.38, 26611.74, -187500.02, -187500.02, -187500.02, -180960.64, -187500.02, -187500.02, 0.000, 0.000, 0.000, 14:56:42.896
124, 41950.47, 26477.76, -187500.02, -187500.02, -187500.02, -180844.81, -187500.02, -187500.02, 0.000, 0.000, 0.000, 14:56:42.896
125, 41597.06, 26308.54, -187500.02, -187500.02, -187500.02, -181225.91, -187500.02, -187500.02, 0.000, 0.000, 0.000, 14:56:42.896
126, 41833.66, 26443.41, -187500.02, -187500.02, -187500.02, -181436.13, -187500.02, -187500.02, 0.000, 0.000, 0.000, 14:56:42.896
127, 42063.66, 26569.99, -187500.02, -187500.02, -187500.02, -181294.69, -187500.02, -187500.02, 0.000, 0.000, 0.000, 14:56:42.896
128, 42199.04, 26617.78, -187500.02, -187500.02, -187500.02, -180911.91, -187500.02, -187500.02, 0.000, 0.000, 0.000, 14:56:42.897
129, 41955.59, 26485.34, -187500.02, -187500.02, -187500.02, -180824.09, -187500.02, -187500.02, 0.000, 0.000, 0.000, 14:56:42.897
130, 41603.50, 26322.87, -187500.02, -187500.02, -187500.02, -181227.89, -187500.02, -187500.02, 0.000, 0.000, 0.000, 14:56:42.897
131, 41831.58, 26447.72, -187500.02, -187500.02, -187500.02, -181413.09, -187500.02, -187500.02, 0.000, 0.000, 0.000, 14:56:42.897
132, 42060.26, 26564.35, -187500.02, -187500.02, -187500.02, -181294.08, -187500.02, -187500.02, 0.006, -0.008, 1.028, 14:56:42.897
133, 42193.97, 26608.66, -187500.02, -187500.02, -187500.02, -180902.52, -187500.02, -187500.02, 0.000, 0.000, 0.000, 14:56:42.897
134, 41944.21, 26474.43, -187500.02, -187500.02, -187500.02, -180742.06, -187500.02, -187500.02, 0.000, 0.000, 0.000, 14:56:42.898
135, 41595.59, 26331.31, -187500.02, -187500.02, -187500.02, -181157.81, -187500.02, -187500.02, 0.000, 0.000, 0.000, 14:56:42.898
136, 41825.97, 26464.42, -187500.02, -187500.02, -187500.02, -181359.92, -187500.02, -187500.02, 0.000, 0.000, 0.000, 14:56:42.898
137, 42072.48, 26592.03, -187500.02, -187500.02, -187500.02, -181289.45, -187500.02, -187500.02, 0.000, 0.000, 0.000, 14:56:42.898
138, 42203.87, 26638.61, -187500.02, -187500.02, -187500.02, -180952.98, -187500.02, -187500.02, 0.000, 0.000, 0.000, 14:56:42.898
139, 41945.75, 26485.86, -187500.02, -187500.02, -187500.02, -180805.73, -187500.02, -187500.02, 0.000, 0.000, 0.000, 14:56:42.898
140, 41594.29, 26319.96, -187500.02, -187500.02, -187500.02, -181180.13, -187500.02, -187500.02, 0.000, 0.000, 0.000, 14:56:42.898
141, 41834.62, 26458.72, -187500.02, -187500.02, -187500.02, -181402.48, -187500.02, -187500.02, 0.000, 0.000, 0.000, 14:56:42.899
142, 42068.80, 26576.31, -187500.02, -187500.02, -187500.02, -181289.83, -187500.02, -187500.02, 0.008, -0.020, 1.028, 14:56:42.899
143, 42209.23, 26611.38, -187500.02, -187500.02, -187500.02, -180921.88, -187500.02, -187500.02, 0.000, 0.000, 0.000, 14:56:42.899
144, 41967.21, 26485.83, -187500.02, -187500.02, -187500.02, -180818.31, -187500.02, -187500.02, 0.000, 0.000, 0.000, 14:56:42.899
145, 41612.53, 26331.90, -187500.02, -187500.02, -187500.02, -181232.00, -187500.02, -187500.02, 0.000, 0.000, 0.000, 14:56:42.899
146, 41833.86, 26452.24, -187500.02, -187500.02, -187500.02, -181406.30, -187500.02, -187500.02, 0.000, 0.000, 0.000, 14:56:42.899
147, 42081.27, 26579.67, -187500.02, -187500.02, -187500.02, -181314.38, -187500.02, -187500.02, 0.000, 0.000, 0.000, 14:56:42.899
148, 42218.18, 26622.02, -187500.02, -187500.02, -187500.02, -180947.13, -187500.02, -187500.02, 0.000, 0.000, 0.000, 14:56:42.899
