%OpenBCI Raw EEG Data
%
%Sample Rate = 250.0 Hz
%First Column = SampleIndex
%Last Column = Timestamp 
%Other Columns = EEG data in microvolts followed by Accel Data (in G) interleaved with Aux Data
0, -31102.85, 49534.17, -187500.02, -187500.02, -187500.02, -187500.02, -187500.02, -187500.02, 0.010, -0.018, 1.000, 18:01:00.093
1, -32422.90, 48250.71, -187500.02, -187500.02, -187500.02, -187500.02, -187500.02, -187500.02, 0.000, 0.000, 0.000, 18:01:00.094
2, -37812.09, 42917.29, -187500.02, -187500.02, -187500.02, -187500.02, -187500.02, -187500.02, 0.000, 0.000, 0.000, 18:01:00.094
3, -40386.29, 40243.22, -187500.02, -187500.02, -187500.02, -187500.02, -187500.02, -187500.02, 0.000, 0.000, 0.000, 18:01:00.094
4, -33817.16, 46724.15, -187500.02, -187500.02, -187500.02, -187500.02, -187500.02, -187500.02, 0.000, 0.000, 0.000, 18:01:00.094
5, -31103.99, 49527.46, -187500.02, -187500.02, -187500.02, -187500.02, -187500.02, -187500.02, 0.000, 0.000, 0.000, 18:01:00.094
6, -32407.50, 48267.79, -187500.02, -187500.02, -187500.02, -187500.02, -187500.02, -187500.02, 0.000, 0.000, 0.000, 18:01:00.094
7, -37778.07, 42957.39, -187500.02, -187500.02, -187500.02, -187500.02, -187500.02, -187500.02, -0.004, -0.016, 0.964, 18:01:00.094
8, -40407.28, 40224.36, -187500.02, -187500.02, -187500.02, -187500.02, -187500.02, -187500.02, 0.000, 0.000, 0.000, 18:01:00.094
9, -33831.46, 46709.13, -187500.02, -187500.02, -187500.02, -187500.02, -187500.02, -187500.02, 0.000, 0.000, 0.000, 18:01:00.095
10, -31082.60, 49545.68, -187500.02, -187500.02, -187500.02, -187500.02, -187500.02, -187500.02, 0.000, 0.000, 0.000, 18:01:00.095
11, -32358.51, 48314.21, -187500.02, -187500.02, -187500.02, -187500.02, -187500.02, -187500.02, 0.000, 0.000, 0.000, 18:01:00.095
12, -37710.12, 43026.73, -187500.02, -187500.02, -187500.02, -187500.02, -187500.02, -187500.02, 0.000, 0.000, 0.000, 18:01:00.095
13, -40399.12, 40239.20, -187500.02, -187500.02, -187500.02, -187500.02, -187500.02, -187500.02, 0.000, 0.000, 0.000, 18:01:00.095
14, -33847.60, 46696.84, -187500.02, -187500.02, -187500.02, -187500.02, -187500.02, -187500.02, 0.000, 0.000, 0.000, 18:01:00.095
15, -31074.76, 49558.11, -187500.02, -187500.02, -187500.02, -187500.02, -187500.02, -187500.02, 0.000, 0.000, 0.000, 18:01:00.095
16, -32353.68, 48321.07, -187500.02, -187500.02, -187500.02, -187500.02, -187500.02, -187500.02, 0.000, 0.000, 0.000, 18:01:00.095
17, -37698.23, 43038.35, -187500.02, -187500.02, -187500.02, -187500.02, -187500.02, -187500.02, 0.002, -0.012, 1.002, 18:01:00.096
18, -40444.50, 40192.75, -187500.02, -187500.02, -187500.02, -187500.02, -187500.02, -187500.02, 0.000, 0.000, 0.000, 18:01:00.096
19, -33886.59, 46657.43, -187500.02, -187500.02, -187500.02, -187500.02, -187500.02, -187500.02, 0.000, 0.000, 0.000, 18:01:00.096
20, -31062.33, 49567.94, -187500.02, -187500.02, -187500.02, -187500.02, -187500.02, -187500.02, 0.000, 0.000, 0.000, 18:01:00.096
21, -32344.40, 48327.18, -187500.02, -187500.02, -187500.02, -187500.02, -187500.02, -187500.02, 0.000, 0.000, 0.000, 18:01:00.096
22, -37678.80, 43055.96, -187500.02, -187500.02, -187500.02, -187500.02, -187500.02, -187500.02, 0.000, 0.000, 0.000, 18:01:00.096
23, -40466.80, 40169.10, -187500.02, -187500.02, -187500.02, -187500.02, -187500.02, -187500.02, 0.000, 0.000, 0.000, 18:01:00.096
24, -33920.78, 46619.99, -187500.02, -187500.02, -187500.02, -187500.02, -187500.02, -187500.02, 0.000, 0.000, 0.000, 18:01:00.096
25, -31074.47, 49557.70, -187500.02, -187500.02, -187500.02, -187500.02, -187500.02, -187500.02, 0.000, 0.000, 0.000, 18:01:00.097
26, -32325.74, 48350.49, -187500.02, -187500.02, -187500.02, -187500.02, -187500.02, -187500.02, 0.000, 0.000, 0.000, 18:01:00.097
27, -37643.87, 43093.80, -187500.02, -187500.02, -187500.02, -187500.02, -187500.02, -187500.02, 0.002, -0.016, 1.012, 18:01:00.097
28, -40487.39, 40150.64, -187500.02, -187500.02, -187500.02, -187500.02, -187500.02, -187500.02, 0.000, 0.000, 0.000, 18:01:00.097
29, -33943.94, 46601.46, -187500.02, -187500.02, -187500.02, -187500.02, -187500.02, -187500.02, 0.000, 0.000, 0.000, 18:01:00.097
30, -31056.79, 49572.68, -187500.02, -187500.02, -187500.02, -187500.02, -187500.02, -187500.02, 0.000, 0.000, 0.000, 18:01:00.097
31, -32284.68, 48383.68, -187500.02, -187500.02, -187500.02, -187500.02, -187500.02, -187500.02, 0.000, 0.000, 0.000, 18:01:00.097
32, -37579.90, 43148.95, -187500.02, -187500.02, -187500.02, -187500.02, -187500.02, -187500.02, 0.000, 0.000, 0.000, 18:01:00.097
33, -40481.51, 40148.85, -187500.02, -187500.02, -187500.02, -187500.02, -187500.02, -187500.02, 0.000, 0.000, 0.000, 18:01:00.098
34, -33953.50, 46583.83, -187500.02, -187500.02, -187500.02, -187500.02, -187500.02, -187500.02, 0.000, 0.000, 0.000, 18:01:00.098
35, -31036.65, 49589.40, -187500.02, -187500.02, -187500.02, -187500.02, -187500.02, -187500.02, 0.000, 0.000, 0.000, 18:01:00.098
36, -32276.19, 48391.12, -187500.02, -187500.02, -187500.02, -187500.02, -187500.02, -187500.02, 0.002, -0.014, 1.018, 18:01:00.098
37, -37573.15, 43155.32, -187500.02, -187500.02, -187500.02, -187500.02, -187500.02, -187500.02, 0.000, 0.000, 0.000, 18:01:00.098
38, -40522.88, 40111.07, -187500.02, -187500.02, -187500.02, -187500.02, -187500.02, -187500.02, 0.000, 0.000, 0.000, 18:01:00.098
39, -33982.16, 46557.12, -187500.02, -187500.02, -187500.02, -187500.02, -187500.02, -187500.02, 0.000, 0.000, 0.000, 18:01:00.098
40, -31025.05, 49601.69, -187500.02, -187500.02, -187500.02, -187500.02, -187500.02, -187500.02, 0.000, 0.000, 0.000, 18:01:00.098
41, -32257.19, 48409.05, -187500.02, -187500.02, -187500.02, -187500.02, -187500.02, -187500.02, 0.000, 0.000, 0.000, 18:01:00.099
42, -37539.22, 43188.13, -187500.02, -187500.02, -187500.02, -187500.02, -187500.02, -187500.02, 0.000, 0.000, 0.000, 18:01:00.099
43, -40530.13, 40102.27, -187500.02, -187500.02, -187500.02, -187500.02, -187500.02, -187500.02, 0.000, 0.000, 0.000, 18:01:00.099
44, -33994.45, 46541.76, -187500.02, -187500.02, -187500.02, -187500.02, -187500.02, -187500.02, 0.000, 0.000, 0.000, 18:01:00.099
45, -31014.97, 49611.44, -187500.02, -187500.02, -187500.02, -187500.02, -187500.02, -187500.02, 0.000, 0.000, 0.000, 18:01:00.099
46, -32228.85, 48438.26, -187500.02, -187500.02, -187500.02, -187500.02, -187500.02, -187500.02, 0.004, -0.014, 1.024, 18:01:00.099
47, -37501.49, 43227.18, -187500.02, -187500.02, -187500.02, -187500.02, -187500.02, -187500.02, 0.000, 0.000, 0.000, 18:01:00.099
48, -40557.39, 40076.36, -187500.02, -187500.02, -187500.02, -187500.02, -187500.02, -187500.02, 0.000, 0.000, 0.000, 18:01:00.099
49, -34039.54, 46499.67, -187500.02, -187500.02, -187500.02, -187500.02, -187500.02, -187500.02, 0.000, 0.000, 0.000, 18:01:00.100
50, -31011.93, 49610.99, -187500.02, -187500.02, -187500.02, -187500.02, -187500.02, -187500.02, 0.000, 0.000, 0.000, 18:01:00.100
51, -32225.83, 48429.37, -187500.02, -187500.02, -187500.02, -187500.02, -187500.02, -187500.02, 0.000, 0.000, 0.000, 18:01:00.100
52, -37475.98, 43235.49, -187500.02, -187500.02, -187500.02, -187500.02, -187500.02, -187500.02, 0.000, 0.000, 0.000, 18:01:00.100
53, -40578.92, 40043.06, -187500.02, -187500.02, -187500.02, -187500.02, -187500.02, -187500.02, 0.000, 0.000, 0.000, 18:01:00.100
54, -34098.57, 46436.33, -187500.02, -187500.02, -187500.02, -187500.02, -187500.02, -187500.02, 0.000, 0.000, 0.000, 18:01:00.100
55, -31063.94, 49554.17, -187500.02, -187500.02, -187500.02, -187500.02, -187500.02, -187500.02, 0.000, 0.000, 0.000, 18:01:00.100
56, -32283.61, 48371.07, -187500.02, -187500.02, -187500.02, -187500.02, -187500.02, -187500.02, 0.008, -0.008, 1.026, 18:01:00.100
57, -37532.91, 43180.30, -187500.02, -187500.02, -187500.02, -187500.02, -187500.02, -187500.02, 0.000, 0.000, 0.000, 18:01:00.101
58, -40708.47, 39916.55, -187500.02, -187500.02, -187500.02, -187500.02, -187500.02, -187500.02, 0.000, 0.000, 0.000, 18:01:00.101
59, -34236.64, 46296.25, -187500.02, -187500.02, -187500.02, -187500.02, -187500.02, -187500.02, 0.000, 0.000, 0.000, 18:01:00.101
60, -31153.23, 49468.23, -187500.02, -187500.02, -187500.02, -187500.02, -187500.02, -187500.02, 0.000, 0.000, 0.000, 18:01:00.101
61, -32358.53, 48302.48, -187500.02, -187500.02, -187500.02, -187500.02, -187500.02, -187500.02, 0.000, 0.000, 0.000, 18:01:00.101
62, -37592.55, 43128.09, -187500.02, -187500.02, -187500.02, -187500.02, -187500.02, -187500.02, 0.000, 0.000, 0.000, 18:01:00.101
63, -40796.52, 39833.96, -187500.02, -187500.02, -187500.02, -187500.02, -187500.02, -187500.02, 0.000, 0.000, 0.000, 18:01:00.102
64, -34330.22, 46200.96, -187500.02, -187500.02, -187500.02, -187500.02, -187500.02, -187500.02, 0.000, 0.000, 0.000, 18:01:00.102
65, -31206.74, 49412.53, -187500.02, -187500.02, -187500.02, -187500.02, -187500.02, -187500.02, 0.000, 0.000, 0.000, 18:01:00.102
66, -32394.11, 48269.51, -187500.02, -187500.02, -187500.02, -187500.02, -187500.02, -187500.02, 0.010, -0.016, 1.030, 18:01:00.102
67, -37612.02, 43116.09, -187500.02, -187500.02, -187500.02, -187500.02, -187500.02, -187500.02, 0.000, 0.000, 0.000, 18:01:00.102
68, -40854.05, 39787.54, -187500.02, -187500.02, -187500.02, -187500.02, -187500.02, -187500.02, 0.000, 0.000, 0.000, 18:01:00.103
69, -34407.85, 46136.03, -187500.02, -187500.02, -187500.02, -187500.02, -187500.02, -187500.02, 0.000, 0.000, 0.000, 18:01:00.103
70, -31251.31, 49374.20, -187500.02, -187500.02, -187500.02, -187500.02, -187500.02, -187500.02, 0.000, 0.000, 0.000, 18:01:00.103
71, -32419.37, 48249.61, -187500.02, -187500.02, -187500.02, -187500.02, -187500.02, -187500.02, 0.000, 0.000, 0.000, 18:01:00.103
72, -37610.68, 43118.04, -187500.02, -187500.02, -187500.02, -187500.02, -187500.02, -187500.02, 0.000, 0.000, 0.000, 18:01:00.103
73, -40897.23, 39741.36, -187500.02, -187500.02, -187500.02, -187500.02, -187500.02, -187500.02, 0.000, 0.000, 0.000, 18:01:00.103
74, -34447.55, 46090.82, -187500.02, -187500.02, -187500.02, -187500.02, -187500.02, -187500.02, 0.000, 0.000, 0.000, 18:01:00.103
75, -31254.98, 49367.89, -187500.02, -187500.02, -187500.02, -187500.02, -187500.02, -187500.02, 0.000, 0.000, 0.000, 18:01:00.103
76, -32400.17, 48270.33, -187500.02, -187500.02, -187500.02, -187500.02, -187500.02, -187500.02, 0.012, -0.008, 1.024, 18:01:00.103
77, -37566.62, 43165.15, -187500.02, -187500.02, -187500.02, -187500.02, -187500.02, -187500.02, 0.000, 0.000, 0.000, 18:01:00.104
78, -40903.69, 39739.25, -187500.02, -187500.02, -187500.02, -187500.02, -187500.02, -187500.02, 0.000, 0.000, 0.000, 18:01:00.104
79, -34476.94, 46068.66, -187500.02, -187500.02, -187500.02, -187500.02, -187500.02, -187500.02, 0.000, 0.000, 0.000, 18:01:00.104
80, -31251.65, 49380.28, -187500.02, -187500.02, -187500.02, -187500.02, -187500.02, -187500.02, 0.000, 0.000, 0.000, 18:01:00.104
81, -32400.33, 48277.26, -187500.02, -187500.02, -187500.02, -187500.02, -187500.02, -187500.02, 0.000, 0.000, 0.000, 18:01:00.104
82, -37544.58, 43197.18, -187500.02, -187500.02, -187500.02, -187500.02, -187500.02, -187500.02, 0.000, 0.000, 0.000, 18:01:00.104
83, -40920.84, 39737.89, -187500.02, -187500.02, -187500.02, -187500.02, -187500.02, -187500.02, 0.000, 0.000, 0.000, 18:01:00.104
84, -34509.98, 46047.41, -187500.02, -187500.02, -187500.02, -187500.02, -187500.02, -187500.02, 0.000, 0.000, 0.000, 18:01:00.104
85, -31248.56, 49391.36, -187500.02, -187500.02, -187500.02, -187500.02, -187500.02, -187500.02, 0.000, 0.000, 0.000, 18:01:00.105
86, -32383.88, 48304.06, -187500.02, -187500.02, -187500.02, -187500.02, -187500.02, -187500.02, 0.006, -0.008, 1.022, 18:01:00.105
87, -37506.07, 43243.88, -187500.02, -187500.02, -187500.02, -187500.02, -187500.02, -187500.02, 0.000, 0.000, 0.000, 18:01:00.105
88, -40923.34, 39742.70, -187500.02, -187500.02, -187500.02, -187500.02, -187500.02, -187500.02, 0.000, 0.000, 0.000, 18:01:00.105
89, -34515.79, 46054.34, -187500.02, -187500.02, -187500.02, -187500.02, -187500.02, -187500.02, 0.000, 0.000, 0.000, 18:01:00.105
90, -31210.14, 49447.20, -187500.02, -187500.02, -187500.02, -187500.02, -187500.02, -187500.02, 0.000, 0.000, 0.000, 18:01:00.105
91, -32314.59, 48388.48, -187500.02, -187500.02, -187500.02, -187500.02, -187500.02, -187500.02, 0.000, 0.000, 0.000, 18:01:00.105
92, -37406.05, 43355.52, -187500.02, -187500.02, -187500.02, -187500.02, -187500.02, -187500.02, 0.000, 0.000, 0.000, 18:01:00.105
93, -40875.59, 39797.64, -187500.02, -187500.02, -187500.02, -187500.02, -187500.02, -187500.02, 0.000, 0.000, 0.000, 18:01:00.106
94, -34499.27, 46069.61, -187500.02, -187500.02, -187500.02, -187500.02, -187500.02, -187500.02, 0.000, 0.000, 0.000, 18:01:00.106
95, -31170.29, 49484.39, -187500.02, -187500.02, -187500.02, -187500.02, -187500.02, -187500.02, 0.000, 0.000, 0.000, 18:01:00.106
96, -32270.87, 48426.13, -187500.02, -187500.02, -187500.02, -187500.02, -187500.02, -187500.02, 0.008, -0.010, 1.030, 18:01:00.106
97, -37363.09, 43393.74, -187500.02, -187500.02, -187500.02, -187500.02, -187500.02, -187500.02, 0.000, 0.000, 0.000, 18:01:00.106
98, -40889.27, 39786.53, -187500.02, -187500.02, -187500.02, -187500.02, -187500.02, -187500.02, 0.000, 0.000, 0.000, 18:01:00.106
99, -34510.60, 46064.51, -187500.02, -187500.02, -187500.02, -187500.02, -187500.02, -187500.02, 0.000, 0.000, 0.000, 18:01:00.106
100, -31139.60, 49518.19, -187500.02, -187500.02, -187500.02, -187500.02, -187500.02, -187500.02, 0.000, 0.000, 0.000, 18:01:00.106
101, -32244.18, 48453.86, -187500.02, -187500.02, -187500.02, -187500.02, -187500.02, -187500.02, 0.000, 0.000, 0.000, 18:01:00.107
102, -37323.14, 43429.19, -187500.02, -187500.02, -187500.02, -187500.02, -187500.02, -187500.02, 0.000, 0.000, 0.000, 18:01:00.107
103, -40909.57, 39759.77, -187500.02, -187500.02, -187500.02, -187500.02, -187500.02, -187500.02, 0.000, 0.000, 0.000, 18:01:00.107
104, -34553.32, 46018.24, -187500.02, -187500.02, -187500.02, -187500.02, -187500.02, -187500.02, 0.000, 0.000, 0.000, 18:01:00.107
105, -31150.89, 49506.21, -187500.02, -187500.02, -187500.02, -187500.02, -187500.02, -187500.02, 0.000, 0.000, 0.000, 18:01:00.107
106, -32240.87, 48463.65, -187500.02, -187500.02, -187500.02, -187500.02, -187500.02, -187500.02, 0.010, -0.014, 1.034, 18:01:00.107
107, -37291.29, 43469.43, -187500.02, -187500.02, -187500.02, -187500.02, -187500.02, -187500.02, 0.000, 0.000, 0.000, 18:01:00.107
108, -40926.18, 39751.10, -187500.02, -187500.02, -187500.02, -187500.02, -187500.02, -187500.02, 0.000, 0.000, 0.000, 18:01:00.107
109, -34591.43, 45983.86, -187500.02, -187500.02, -187500.02, -187500.02, -187500.02, -187500.02, 0.000, 0.000, 0.000, 18:01:00.107
110, -31126.30, 49528.85, -187500.02, -187500.02, -187500.02, -187500.02, -187500.02, -187500.02, 0.000, 0.000, 0.000, 18:01:00.108
111, -32181.15, 48512.43, -187500.02, -187500.02, -187500.02, -187500.02, -187500.02, -187500.02, 0.000, 0.000, 0.000, 18:01:00.108
112, -37212.84, 43534.47, -187500.02, -187500.02, -187500.02, -187500.02, -187500.02, -187500.02, 0.000, 0.000, 0.000, 18:01:00.108
113, -40910.33, 39759.50, -187500.02, -187500.02, -187500.02, -187500.02, -187500.02, -187500.02, 0.000, 0.000, 0.000, 18:01:00.108
114, -34581.19, 45994.03, -187500.02, -187500.02, -187500.02, -187500.02, -187500.02, -187500.02, 0.000, 0.000, 0.000, 18:01:00.108
115, -31104.20, 49557.53, -187500.02, -187500.02, -187500.02, -187500.02, -187500.02, -187500.02, 0.000, 0.000, 0.000, 18:01:00.108
116, -32185.42, 48515.00, -187500.02, -187500.02, -187500.02, -187500.02, -187500.02, -187500.02, 0.010, -0.010, 1.030, 18:01:00.108
117, -37205.13, 43548.15, -187500.02, -187500.02, -187500.02, -187500.02, -187500.02, -187500.02, 0.000, 0.000, 0.000, 18:01:00.108
118, -40939.50, 39730.22, -187500.02, -187500.02, -187500.02, -187500.02, -187500.02, -187500.02, 0.000, 0.000, 0.000, 18:01:00.109
119, -34618.18, 45950.31, -187500.02, -187500.02, -187500.02, -187500.02, -187500.02, -187500.02, 0.000, 0.000, 0.000, 18:01:00.109
120, -31084.79, 49569.71, -187500.02, -187500.02, -187500.02, -187500.02, -187500.02, -187500.02, 0.000, 0.000, 0.000, 18:01:00.109
121, -32156.54, 48537.44, -187500.02, -187500.02, -187500.02, -187500.02, -187500.02, -187500.02, 0.000, 0.000, 0.000, 18:01:00.574
122, -37193.05, 43553.22, -187500.02, -187500.02, -187500.02, -187500.02, -187500.02, -187500.02, 0.000, 0.000, 0.000, 18:01:00.574
123, -40991.36, 39676.82, -187500.02, -187500.02, -187500.02, -187500.02, -187500.02, -187500.02, 0.000, 0.000, 0.000, 18:01:00.574
124, -34686.91, 45881.58, -187500.02, -187500.02, -187500.02, -187500.02, -187500.02, -187500.02, 0.000, 0.000, 0.000, 18:01:00.574
125, -31117.03, 49535.91, -187500.02, -187500.02, -187500.02, -187500.02, -187500.02, -187500.02, 0.000, 0.000, 0.000, 18:01:00.574
126, -32146.01, 48552.30, -187500.02, -187500.02, -187500.02, -187500.02, -187500.02, -187500.02, 0.014, -0.010, 1.024, 18:01:00.575
127, -37158.03, 43596.54, -187500.02, -187500.02, -187500.02, -187500.02, -187500.02, -187500.02, 0.000, 0.000, 0.000, 18:01:00.575
128, -41001.64, 39672.49, -187500.02, -187500.02, -187500.02, -187500.02, -187500.02, -187500.02, 0.000, 0.000, 0.000, 18:01:00.575
129, -34716.77, 45850.69, -187500.02, -187500.02, -187500.02, -187500.02, -187500.02, -187500.02, 0.000, 0.000, 0.000, 18:01:00.575
130, -31105.16, 49541.61, -187500.02, -187500.02, -187500.02, -187500.02, -187500.02, -187500.02, 0.000, 0.000, 0.000, 18:01:00.575
131, -32130.12, 48558.67, -187500.02, -187500.02, -187500.02, -187500.02, -187500.02, -187500.02, 0.000, 0.000, 0.000, 18:01:00.575
132, -37140.84, 43604.79, -187500.02, -187500.02, -187500.02, -187500.02, -187500.02, -187500.02, 0.000, 0.000, 0.000, 18:01:00.575
133, -41054.70, 39612.41, -187500.02, -187500.02, -187500.02, -187500.02, -187500.02, -187500.02, 0.000, 0.000, 0.000, 18:01:00.576
134, -34760.20, 45800.20, -187500.02, -187500.02, -187500.02, -187500.02, -187500.02, -187500.02, 0.000, 0.000, 0.000, 18:01:00.576
135, -31120.89, 49521.43, -187500.02, -187500.02, -187500.02, -187500.02, -187500.02, -187500.02, 0.000, 0.000, 0.000, 18:01:00.576
136, -32153.43, 48537.06, -187500.02, -187500.02, -187500.02, -187500.02, -187500.02, -187500.02, 0.010, -0.018, 1.026, 18:01:00.576
137, -37151.59, 43599.00, -187500.02, -187500.02, -187500.02, -187500.02, -187500.02, -187500.02, 0.000, 0.000, 0.000, 18:01:00.576
138, -41117.39, 39557.13, -187500.02, -187500.02, -187500.02, -187500.02, -187500.02, -187500.02, 0.000, 0.000, 0.000, 18:01:00.576
139, -34822.23, 45749.41, -187500.02, -187500.02, -187500.02, -187500.02, -187500.02, -187500.02, 0.000, 0.000, 0.000, 18:01:00.577
140, -31112.76, 49545.64, -187500.02, -187500.02, -187500.02, -187500.02, -187500.02, -187500.02, 0.000, 0.000, 0.000, 18:01:00.577
141, -32126.36, 48576.91, -187500.02, -187500.02, -187500.02, -187500.02, -187500.02, -187500.02, 0.000, 0.000, 0.000, 18:01:00.577
142, -37126.56, 43620.28, -187500.02, -187500.02, -187500.02, -187500.02, -187500.02, -187500.02, 0.000, 0.000, 0.000, 18:01:00.577
143, -41142.00, 39524.70, -187500.02, -187500.02, -187500.02, -187500.02, -187500.02, -187500.02, 0.000, 0.000, 0.000, 18:01:00.577
144, -34879.49, 45680.26, -187500.02, -187500.02, -187500.02, -187500.02, -187500.02, -187500.02, 0.000, 0.000, 0.000, 18:01:00.578
145, -31139.26, 49496.89, -187500.02, -187500.02, -187500.02, -187500.02, -187500.02, -187500.02, 0.000, 0.000, 0.000, 18:01:00.578
146, -32138.70, 48536.48, -187500.02, -187500.02, -187500.02, -187500.02, -187500.02, -187500.02, 0.004, -0.012, 1.028, 18:01:00.578
147, -37121.06, 43606.42, -187500.02, -187500.02, -187500.02, -187500.02, -187500.02, -187500.02, 0.000, 0.000, 0.000, 18:01:00.578
148, -41196.66, 39448.39, -187500.02, -187500.02, -187500.02, -187500.02, -187500.02, -187500.02, 0.000, 0.000, 0.000, 18:01:00.578
149, -34939.71, 45595.66, -187500.02, -187500.02, -187500.02, -187500.02, -187500.02, -187500.02, 0.000, 0.000, 0.000, 18:01:00.579
150, -31158.82, 49458.24, -187500.02, -187500.02, -187500.02, -187500.02, -187500.02, -187500.02, 0.000, 0.000, 0.000, 18:01:00.579
151, -32166.66, 48492.53, -187500.02, -187500.02, -187500.02, -187500.02, -187500.02, -187500.02, 0.000, 0.000, 0.000, 18:01:00.579
152, -37122.49, 43587.38, -187500.02, -187500.02, -187500.02, -187500.02, -187500.02, -187500.02, 0.000, 0.000, 0.000, 18:01:00.579
153, -41228.71, 39399.55, -187500.02, -187500.02, -187500.02, -187500.02, -187500.02, -187500.02, 0.000, 0.000, 0.000, 18:01:00.579
154, -34992.19, 45524.31, -187500.02, -187500.02, -187500.02, -187500.02, -187500.02, -187500.02, 0.000, 0.000, 0.000, 18:01:00.579
155, -31171.00, 49424.78, -187500.02, -187500.02, -187500.02, -187500.02, -187500.02, -187500.02, 0.000, 0.000, 0.000, 18:01:00.580
156, -32154.17, 48484.31, -187500.02, -187500.02, -187500.02, -187500.02, -187500.02, -187500.02, 0.004, -0.014, 1.028, 18:01:00.580
157, -37098.13, 43599.80, -187500.02, -187500.02, -187500.02, -187500.02, -187500.02, -187500.02, 0.000, 0.000, 0.000, 18:01:00.580
158, -41253.29, 39365.87, -187500.02, -187500.02, -187500.02, -187500.02, -187500.02, -187500.02, 0.000, 0.000, 0.000, 18:01:00.580
159, -35027.80, 45480.41, -187500.02, -187500.02, -187500.02, -187500.02, -187500.02, -187500.02, 0.000, 0.000, 0.000, 18:01:00.580
160, -31143.04, 49452.99, -187500.02, -187500.02, -187500.02, -187500.02, -187500.02, -187500.02, 0.000, 0.000, 0.000, 18:01:00.581
161, -32121.00, 48522.80, -187500.02, -187500.02, -187500.02, -187500.02, -187500.02, -187500.02, 0.000, 0.000, 0.000, 18:01:00.581
162, -37051.12, 43647.01, -187500.02, -187500.02, -187500.02, -187500.02, -187500.02, -187500.02, 0.000, 0.000, 0.000, 18:01:00.581
163, -41258.08, 39364.35, -187500.02, -187500.02, -187500.02, -187500.02, -187500.02, -187500.02, 0.000, 0.000, 0.000, 18:01:00.581
164, -35040.98, 45469.73, -187500.02, -187500.02, -187500.02, -187500.02, -187500.02, -187500.02, 0.000, 0.000, 0.000, 18:01:00.581
165, -31136.76, 49458.66, -187500.02, -187500.02, -187500.02, -187500.02, -187500.02, -187500.02, 0.004, -0.018, 1.032, 18:01:00.581
166, -32086.96, 48558.14, -187500.02, -187500.02, -187500.02, -187500.02, -187500.02, -187500.02, 0.000, 0.000, 0.000, 18:01:00.582
167, -36992.11, 43714.56, -187500.02, -187500.02, -187500.02, -187500.02, -187500.02, -187500.02, 0.000, 0.000, 0.000, 18:01:00.582
168, -41250.32, 39380.51, -187500.02, -187500.02, -187500.02, -187500.02, -187500.02, -187500.02, 0.000, 0.000, 0.000, 18:01:00.582
169, -35046.82, 45468.14, -187500.02, -187500.02, -187500.02, -187500.02, -187500.02, -187500.02, 0.000, 0.000, 0.000, 18:01:00.582
170, -31101.40, 49495.30, -187500.02, -187500.02, -187500.02, -187500.02, -187500.02, -187500.02, 0.000, 0.000, 0.000, 18:01:00.582
171, -32058.01, 48586.07, -187500.02, -187500.02, -187500.02, -187500.02, -187500.02, -187500.02, 0.000, 0.000, 0.000, 18:01:00.583
172, -36959.52, 43740.29, -187500.02, -187500.02, -187500.02, -187500.02, -187500.02, -187500.02, 0.000, 0.000, 0.000, 18:01:00.583
173, -41257.95, 39364.75, -187500.02, -187500.02, -187500.02, -187500.02, -187500.02, -187500.02, 0.000, 0.000, 0.000, 18:01:00.583
174, -35074.60, 45431.11, -187500.02, -187500.02, -187500.02, -187500.02, -187500.02, -187500.02, 0.000, 0.000, 0.000, 18:01:00.583
175, -31088.86, 49503.21, -187500.02, -187500.02, -187500.02, -187500.02, -187500.02, -187500.02, 0.006, -0.014, 1.022, 18:01:00.583
176, -32028.69, 48616.09, -187500.02, -187500.02, -187500.02, -187500.02, -187500.02, -187500.02, 0.000, 0.000, 0.000, 18:01:00.584
177, -36900.47, 43803.11, -187500.02, -187500.02, -187500.02, -187500.02, -187500.02, -187500.02, 0.000, 0.000, 0.000, 18:01:00.584
178, -41270.13, 39360.95, -187500.02, -187500.02, -187500.02, -187500.02, -187500.02, -187500.02, 0.000, 0.000, 0.000, 18:01:00.584
179, -35115.82, 45398.61, -187500.02, -187500.02, -187500.02, -187500.02, -187500.02, -187500.02, 0.000, 0.000, 0.000, 18:01:00.584
180, -31087.56, 49506.95, -187500.02, -187500.02, -187500.02, -187500.02, -187500.02, -187500.02, 0.000, 0.000, 0.000, 18:01:00.584
181, -32012.14, 48628.18, -187500.02, -187500.02, -187500.02, -187500.02, -187500.02, -187500.02, 0.000, 0.000, 0.000, 18:01:00.584
182, -36867.10, 43832.15, -187500.02, -187500.02, -187500.02, -187500.02, -187500.02, -187500.02, 0.000, 0.000, 0.000, 18:01:00.585
183, -41272.59, 39352.05, -187500.02, -187500.02, -187500.02, -187500.02, -187500.02, -187500.02, 0.000, 0.000, 0.000, 18:01:00.585
184, -35136.43, 45370.84, -187500.02, -187500.02, -187500.02, -187500.02, -187500.02, -187500.02, 0.000, 0.000, 0.000, 18:01:00.585
185, -31060.41, 49531.80, -187500.02, -187500.02, -187500.02, -187500.02, -187500.02, -187500.02, 0.006, -0.016, 1.026, 18:01:00.585
186, -31953.72, 48686.03, -187500.02, -187500.02, -187500.02, -187500.02, -187500.02, -187500.02, 0.000, 0.000, 0.000, 18:01:00.585
187, -36799.78, 43893.37, -187500.02, -187500.02, -187500.02, -187500.02, -187500.02, -187500.02, 0.000, 0.000, 0.000, 18:01:00.586
188, -41264.25, 39352.10, -187500.02, -187500.02, -187500.02, -187500.02, -187500.02, -187500.02, 0.000, 0.000, 0.000, 18:01:00.586
189, -35148.47, 45349.74, -187500.02, -187500.02, -187500.02, -187500.02, -187500.02, -187500.02, 0.000, 0.000, 0.000, 18:01:00.586
190, -31055.33, 49522.08, -187500.02, -187500.02, -187500.02, -187500.02, -187500.02, -187500.02, 0.000, 0.000, 0.000, 18:01:00.586
191, -31968.34, 48657.27, -187500.02, -187500.02, -187500.02, -187500.02, -187500.02, -187500.02, 0.000, 0.000, 0.000, 18:01:00.586
192, -36799.69, 43885.44, -187500.02, -187500.02, -187500.02, -187500.02, -187500.02, -187500.02, 0.000, 0.000, 0.000, 18:01:00.587
193, -41279.31, 39333.91, -187500.02, -187500.02, -187500.02, -187500.02, -187500.02, -187500.02, 0.000, 0.000, 0.000, 18:01:00.587
194, -35190.54, 45300.41, -187500.02, -187500.02, -187500.02, -187500.02, -187500.02, -187500.02, 0.000, 0.000, 0.000, 18:01:00.587
195, -31066.38, 49506.96, -187500.02, -187500.02, -187500.02, -187500.02, -187500.02, -187500.02, 0.008, -0.014, 1.028, 18:01:00.587
196, -31960.42, 48666.94, -187500.02, -187500.02, -187500.02, -187500.02, -187500.02, -187500.02, 0.000, 0.000, 0.000, 18:01:00.587
197, -36741.30, 43944.82, -187500.02, -187500.02, -187500.02, -187500.02, -187500.02, -187500.02, 0.000, 0.000, 0.000, 18:01:00.588
198, -41261.07, 39355.00, -187500.02, -187500.02, -187500.02, -187500.02, -187500.02, -187500.02, 0.000, 0.000, 0.000, 18:01:00.588
199, -35215.42, 45283.27, -187500.02, -187500.02, -187500.02, -187500.02, -187500.02, -187500.02, 0.000, 0.000, 0.000, 18:01:00.588
200, -31053.26, 49523.37, -187500.02, -187500.02, -187500.02, -187500.02, -187500.02, -187500.02, 0.000, 0.000, 0.000, 18:01:00.588
201, -31907.27, 48715.40, -187500.02, -187500.02, -187500.02, -187500.02, -187500.02, -187500.02, 0.000, 0.000, 0.000, 18:01:00.588
202, -36659.07, 44019.10, -187500.02, -187500.02, -187500.02, -187500.02, -187500.02, -187500.02, 0.000, 0.000, 0.000, 18:01:00.589
203, -41220.66, 39387.93, -187500.02, -187500.02, -187500.02, -187500.02, -187500.02, -187500.02, 0.000, 0.000, 0.000, 18:01:00.589
204, -35220.40, 45269.97, -187500.02, -187500.02, -187500.02, -187500.02, -187500.02, -187500.02, 0.000, 0.000, 0.000, 18:01:00.589
205, -31027.93, 49547.09, -187500.02, -187500.02, -187500.02, -187500.02, -187500.02, -187500.02, 0.004, -0.014, 1.034, 18:01:00.589
206, -31891.60, 48736.93, -187500.02, -187500.02, -187500.02, -187500.02, -187500.02, -187500.02, 0.000, 0.000, 0.000, 18:01:00.589
207, -36631.73, 44052.52, -187500.02, -187500.02, -187500.02, -187500.02, -187500.02, -187500.02, 0.000, 0.000, 0.000, 18:01:00.589
208, -41221.96, 39389.09, -187500.02, -187500.02, -187500.02, -187500.02, -187500.02, -187500.02, 0.000, 0.000, 0.000, 18:01:00.590
209, -35224.74, 45263.58, -187500.02, -187500.02, -187500.02, -187500.02, -187500.02, -187500.02, 0.000, 0.000, 0.000, 18:01:00.590
210, -31016.69, 49556.86, -187500.02, -187500.02, -187500.02, -187500.02, -187500.02, -187500.02, 0.000, 0.000, 0.000, 18:01:00.590
211, -31884.61, 48737.78, -187500.02, -187500.02, -187500.02, -187500.02, -187500.02, -187500.02, 0.000, 0.000, 0.000, 18:01:00.590
212, -36603.80, 44077.80, -187500.02, -187500.02, -187500.02, -187500.02, -187500.02, -187500.02, 0.000, 0.000, 0.000, 18:01:00.590
213, -41220.17, 39399.13, -187500.02, -187500.02, -187500.02, -187500.02, -187500.02, -187500.02, 0.000, 0.000, 0.000, 18:01:00.591
214, -35257.68, 45242.57, -187500.02, -187500.02, -187500.02, -187500.02, -187500.02, -187500.02, 0.000, 0.000, 0.000, 18:01:00.591
215, -31008.17, 49570.67, -187500.02, -187500.02, -187500.02, -187500.02, -187500.02, -187500.02, 0.004, -0.016, 1.034, 18:01:00.591
216, -31865.65, 48760.35, -187500.02, -187500.02, -187500.02, -187500.02, -187500.02, -187500.02, 0.000, 0.000, 0.000, 18:01:00.591
217, -36545.70, 44134.48, -187500.02, -187500.02, -187500.02, -187500.02, -187500.02, -187500.02, 0.000, 0.000, 0.000, 18:01:00.591
218, -41202.22, 39412.88, -187500.02, -187500.02, -187500.02, -187500.02, -187500.02, -187500.02, 0.000, 0.000, 0.000, 18:01:00.591
219, -35275.07, 45220.24, -187500.02, -187500.02, -187500.02, -187500.02, -187500.02, -187500.02, 0.000, 0.000, 0.000, 18:01:00.592
220, -30997.26, 49575.36, -187500.02, -187500.02, -187500.02, -187500.02, -187500.02, -187500.02, 0.000, 0.000, 0.000, 18:01:00.592
221, -31817.97, 48800.99, -187500.02, -187500.02, -187500.02, -187500.02, -187500.02, -187500.02, 0.000, 0.000, 0.000, 18:01:00.592
222, -36485.06, 44187.59, -187500.02, -187500.02, -187500.02, -187500.02, -187500.02, -187500.02, 0.000, 0.000, 0.000, 18:01:00.592
223, -41192.68, 39416.23, -187500.02, -187500.02, -187500.02, -187500.02, -187500.02, -187500.02, 0.000, 0.000, 0.000, 18:01:00.592
224, -35279.72, 45211.01, -187500.02, -187500.02, -187500.02, -187500.02, -187500.02, -187500.02, 0.000, 0.000, 0.000, 18:01:00.593
225, -30964.88, 49607.53, -187500.02, -187500.02, -187500.02, -187500.02, -187500.02, -187500.02, 0.004, -0.020, 1.034, 18:01:00.593
226, -31812.41, 48809.88, -187500.02, -187500.02, -187500.02, -187500.02, -187500.02, -187500.02, 0.000, 0.000, 0.000, 18:01:00.593
227, -36456.70, 44218.81, -187500.02, -187500.02, -187500.02, -187500.02, -187500.02, -187500.02, 0.000, 0.000, 0.000, 18:01:00.593
228, -41183.33, 39423.18, -187500.02, -187500.02, -187500.02, -187500.02, -187500.02, -187500.02, 0.000, 0.000, 0.000, 18:01:00.593
229, -35325.63, 45165.54, -187500.02, -187500.02, -187500.02, -187500.02, -187500.02, -187500.02, 0.000, 0.000, 0.000, 18:01:00.593
230, -31006.92, 49566.73, -187500.02, -187500.02, -187500.02, -187500.02, -187500.02, -187500.02, 0.000, 0.000, 0.000, 18:01:00.594
231, -31844.91, 48774.32, -187500.02, -187500.02, -187500.02, -187500.02, -187500.02, -187500.02, 0.000, 0.000, 0.000, 18:01:00.594
232, -36476.30, 44194.34, -187500.02, -187500.02, -187500.02, -187500.02, -187500.02, -187500.02, 0.000, 0.000, 0.000, 18:01:00.594
233, -41250.43, 39349.20, -187500.02, -187500.02, -187500.02, -187500.02, -187500.02, -187500.02, 0.000, 0.000, 0.000, 18:01:00.594
234, -35397.09, 45088.34, -187500.02, -187500.02, -187500.02, -187500.02, -187500.02, -187500.02, 0.000, 0.000, 0.000, 18:01:00.594
235, -31054.48, 49522.72, -187500.02, -187500.02, -187500.02, -187500.02, -187500.02, -187500.02, 0.002, -0.020, 1.036, 18:01:00.595
236, -31896.29, 48725.68, -187500.02, -187500.02, -187500.02, -187500.02, -187500.02, -187500.02, 0.000, 0.000, 0.000, 18:01:00.595
237, -36509.83, 44160.09, -187500.02, -187500.02, -187500.02, -187500.02, -187500.02, -187500.02, 0.000, 0.000, 0.000, 18:01:00.595
238, -41313.38, 39297.90, -187500.02, -187500.02, -187500.02, -187500.02, -187500.02, -187500.02, 0.000, 0.000, 0.000, 18:01:00.595
239, -35534.13, 44961.23, -187500.02, -187500.02, -187500.02, -187500.02, -187500.02, -187500.02, 0.000, 0.000, 0.000, 18:01:00.595
240, -31144.74, 49430.19, -187500.02, -187500.02, -187500.02, -187500.02, -187500.02, -187500.02, 0.000, 0.000, 0.000, 18:01:00.596
241, -31929.33, 48696.13, -187500.02, -187500.02, -187500.02, -187500.02, -187500.02, -187500.02, 0.000, 0.000, 0.000, 18:01:01.054
242, -36524.96, 44148.23, -187500.02, -187500.02, -187500.02, -187500.02, -187500.02, -187500.02, 0.000, 0.000, 0.000, 18:01:01.054
243, -41378.42, 39230.95, -187500.02, -187500.02, -187500.02, -187500.02, -187500.02, -187500.02, 0.000, 0.000, 0.000, 18:01:01.054
244, -35587.53, 44908.99, -187500.02, -187500.02, -187500.02, -187500.02, -187500.02, -187500.02, 0.000, 0.000, 0.000, 18:01:01.054
245, -31154.06, 49423.95, -187500.02, -187500.02, -187500.02, -187500.02, -187500.02, -187500.02, 0.008, -0.022, 1.038, 18:01:01.055
246, -31947.48, 48678.77, -187500.02, -187500.02, -187500.02, -187500.02, -187500.02, -187500.02, 0.000, 0.000, 0.000, 18:01:01.055
247, -36499.75, 44175.81, -187500.02, -187500.02, -187500.02, -187500.02, -187500.02, -187500.02, 0.000, 0.000, 0.000, 18:01:01.055
248, -41373.46, 39245.23, -187500.02, -187500.02, -187500.02, -187500.02, -187500.02, -187500.02, 0.000, 0.000, 0.000, 18:01:01.055
249, -35630.56, 44877.20, -187500.02, -187500.02, -187500.02, -187500.02, -187500.02, -187500.02, 0.000, 0.000, 0.000, 18:01:01.055
250, -31170.09, 49420.33, -187500.02, -187500.02, -187500.02, -187500.02, -187500.02, -187500.02, 0.000, 0.000, 0.000, 18:01:01.055
251, -31933.76, 48706.42, -187500.02, -187500.02, -187500.02, -187500.02, -187500.02, -187500.02, 0.000, 0.000, 0.000, 18:01:01.055
252, -36462.91, 44231.06, -187500.02, -187500.02, -187500.02, -187500.02, -187500.02, -187500.02, 0.000, 0.000, 0.000, 18:01:01.056
253, -41373.97, 39262.40, -187500.02, -187500.02, -187500.02, -187500.02, -187500.02, -187500.02, 0.000, 0.000, 0.000, 18:01:01.056
254, -35633.71, 44889.70, -187500.02, -187500.02, -187500.02, -187500.02, -187500.02, -187500.02, 0.000, 0.000, 0.000, 18:01:01.056
255, -31137.95, 49464.99, -187500.02, -187500.02, -187500.02, -187500.02, -187500.02, -187500.02, 0.008, -0.024, 1.034, 18:01:01.056
0, -31909.24, 48739.41, -187500.02, -187500.02, -187500.02, -187500.02, -187500.02, -187500.02, 0.000, 0.000, 0.000, 18:01:01.056
1, -36410.75, 44288.28, -187500.02, -187500.02, -187500.02, -187500.02, -187500.02, -187500.02, 0.000, 0.000, 0.000, 18:01:01.056
2, -41349.45, 39292.27, -187500.02, -187500.02, -187500.02, -187500.02, -187500.02, -187500.02, 0.000, 0.000, 0.000, 18:01:01.056
3, -35653.33, 44871.93, -187500.02, -187500.02, -187500.02, -187500.02, -187500.02, -187500.02, 0.000, 0.000, 0.000, 18:01:01.056
4, -31115.71, 49488.01, -187500.02, -187500.02, -187500.02, -187500.02, -187500.02, -187500.02, 0.000, 0.000, 0.000, 18:01:01.057
5, -31830.98, 48823.83, -187500.02, -187500.02, -187500.02, -187500.02, -187500.02, -187500.02, 0.000, 0.000, 0.000, 18:01:01.057
6, -36298.89, 44407.84, -187500.02, -187500.02, -187500.02, -187500.02, -187500.02, -187500.02, 0.000, 0.000, 0.000, 18:01:01.057
7, -41289.50, 39362.18, -187500.02, -187500.02, -187500.02, -187500.02, -187500.02, -187500.02, 0.000, 0.000, 0.000, 18:01:01.057
8, -35639.88, 44901.95, -187500.02, -187500.02, -187500.02, -187500.02, -187500.02, -187500.02, 0.000, 0.000, 0.000, 18:01:01.057
9, -31067.54, 49549.73, -187500.02, -187500.02, -187500.02, -187500.02, -187500.02, -187500.02, 0.008, -0.020, 1.026, 18:01:01.057
10, -31795.53, 48867.71, -187500.02, -187500.02, -187500.02, -187500.02, -187500.02, -187500.02, 0.000, 0.000, 0.000, 18:01:01.057
11, -36260.81, 44448.77, -187500.02, -187500.02, -187500.02, -187500.02, -187500.02, -187500.02, 0.000, 0.000, 0.000, 18:01:01.057
12, -41282.35, 39368.55, -187500.02, -187500.02, -187500.02, -187500.02, -187500.02, -187500.02, 0.000, 0.000, 0.000, 18:01:01.057
13, -35660.91, 44876.18, -187500.02, -187500.02, -187500.02, -187500.02, -187500.02, -187500.02, 0.000, 0.000, 0.000, 18:01:01.058
14, -31074.56, 49533.77, -187500.02, -187500.02, -187500.02, -187500.02, -187500.02, -187500.02, 0.000, 0.000, 0.000, 18:01:01.058
15, -31783.40, 48866.88, -187500.02, -187500.02, -187500.02, -187500.02, -187500.02, -187500.02, 0.000, 0.000, 0.000, 18:01:01.058
16, -36218.03, 44478.27, -187500.02, -187500.02, -187500.02, -187500.02, -187500.02, -187500.02, 0.000, 0.000, 0.000, 18:01:01.058
17, -41264.14, 39378.00, -187500.02, -187500.02, -187500.02, -187500.02, -187500.02, -187500.02, 0.000, 0.000, 0.000, 18:01:01.058
18, -35681.65, 44845.27, -187500.02, -187500.02, -187500.02, -187500.02, -187500.02, -187500.02, 0.000, 0.000, 0.000, 18:01:01.058
19, -31056.61, 49546.37, -187500.02, -187500.02, -187500.02, -187500.02, -187500.02, -187500.02, 0.010, -0.020, 1.032, 18:01:01.058
20, -31763.88, 48888.52, -187500.02, -187500.02, -187500.02, -187500.02, -187500.02, -187500.02, 0.000, 0.000, 0.000, 18:01:01.058
21, -36173.04, 44527.67, -187500.02, -187500.02, -187500.02, -187500.02, -187500.02, -187500.02, 0.000, 0.000, 0.000, 18:01:01.059
22, -41254.57, 39389.70, -187500.02, -187500.02, -187500.02, -187500.02, -187500.02, -187500.02, 0.000, 0.000, 0.000, 18:01:01.059
23, -35693.43, 44839.05, -187500.02, -187500.02, -187500.02, -187500.02, -187500.02, -187500.02, 0.000, 0.000, 0.000, 18:01:01.059
24, -31027.51, 49580.66, -187500.02, -187500.02, -187500.02, -187500.02, -187500.02, -187500.02, 0.000, 0.000, 0.000, 18:01:01.059
25, -31719.45, 48936.26, -187500.02, -187500.02, -187500.02, -187500.02, -187500.02, -187500.02, 0.000, 0.000, 0.000, 18:01:01.059
26, -36110.83, 44592.02, -187500.02, -187500.02, -187500.02, -187500.02, -187500.02, -187500.02, 0.000, 0.000, 0.000, 18:01:01.059
27, -41229.67, 39423.87, -187500.02, -187500.02, -187500.02, -187500.02, -187500.02, -187500.02, 0.000, 0.000, 0.000, 18:01:01.059
28, -35719.70, 44819.31, -187500.02, -187500.02, -187500.02, -187500.02, -187500.02, -187500.02, 0.010, -0.022, 1.034, 18:01:01.059
29, -31025.14, 49587.12, -187500.02, -187500.02, -187500.02, -187500.02, -187500.02, -187500.02, 0.000, 0.000, 0.000, 18:01:01.059
30, -31694.62, 48968.18, -187500.02, -187500.02, -187500.02, -187500.02, -187500.02, -187500.02, 0.000, 0.000, 0.000, 18:01:01.060
31, -36081.77, 44629.64, -187500.02, -187500.02, -187500.02, -187500.02, -187500.02, -187500.02, 0.000, 0.000, 0.000, 18:01:01.060
32, -41248.38, 39409.01, -187500.02, -187500.02, -187500.02, -187500.02, -187500.02, -187500.02, 0.000, 0.000, 0.000, 18:01:01.060
33, -35752.48, 44783.95, -187500.02, -187500.02, -187500.02, -187500.02, -187500.02, -187500.02, 0.000, 0.000, 0.000, 18:01:01.060
34, -31027.86, 49582.29, -187500.02, -187500.02, -187500.02, -187500.02, -187500.02, -187500.02, 0.000, 0.000, 0.000, 18:01:01.060
35, -31695.80, 48962.88, -187500.02, -187500.02, -187500.02, -187500.02, -187500.02, -187500.02, 0.000, 0.000, 0.000, 18:01:01.060
36, -36063.44, 44644.34, -187500.02, -187500.02, -187500.02, -187500.02, -187500.02, -187500.02, 0.000, 0.000, 0.000, 18:01:01.060
37, -41259.53, 39401.23, -187500.02, -187500.02, -187500.02, -187500.02, -187500.02, -187500.02, 0.000, 0.000, 0.000, 18:01:01.060
38, -35787.51, 44748.88, -187500.02, -187500.02, -187500.02, -187500.02, -187500.02, -187500.02, 0.010, -0.018, 1.032, 18:01:01.061
39, -31019.10, 49583.75, -187500.02, -187500.02, -187500.02, -187500.02, -187500.02, -187500.02, 0.000, 0.000, 0.000, 18:01:01.061
40, -31698.55, 48954.43, -187500.02, -187500.02, -187500.02, -187500.02, -187500.02, -187500.02, 0.000, 0.000, 0.000, 18:01:01.061
41, -36037.96, 44669.85, -187500.02, -187500.02, -187500.02, -187500.02, -187500.02, -187500.02, 0.000, 0.000, 0.000, 18:01:01.061
42, -41238.68, 39419.76, -187500.02, -187500.02, -187500.02, -187500.02, -187500.02, -187500.02, 0.000, 0.000, 0.000, 18:01:01.061
43, -35823.96, 44708.92, -187500.02, -187500.02, -187500.02, -187500.02, -187500.02, -187500.02, 0.000, 0.000, 0.000, 18:01:01.061
44, -31030.59, 49571.09, -187500.02, -187500.02, -187500.02, -187500.02, -187500.02, -187500.02, 0.000, 0.000, 0.000, 18:01:01.061
45, -31670.14, 48984.38, -187500.02, -187500.02, -187500.02, -187500.02, -187500.02, -187500.02, 0.000, 0.000, 0.000, 18:01:01.061
46, -35958.39, 44744.46, -187500.02, -187500.02, -187500.02, -187500.02, -187500.02, -187500.02, 0.000, 0.000, 0.000, 18:01:01.061
47, -41201.68, 39447.68, -187500.02, -187500.02, -187500.02, -187500.02, -187500.02, -187500.02, 0.000, 0.000, 0.000, 18:01:01.062
48, -35831.92, 44692.27, -187500.02, -187500.02, -187500.02, -187500.02, -187500.02, -187500.02, 0.010, -0.014, 1.034, 18:01:01.062
49, -31011.10, 49586.23, -187500.02, -187500.02, -187500.02, -187500.02, -187500.02, -187500.02, 0.000, 0.000, 0.000, 18:01:01.062
50, -31647.54, 49001.71, -187500.02, -187500.02, -187500.02, -187500.02, -187500.02, -187500.02, 0.000, 0.000, 0.000, 18:01:01.062
51, -35938.83, 44759.41, -187500.02, -187500.02, -187500.02, -187500.02, -187500.02, -187500.02, 0.000, 0.000, 0.000, 18:01:01.062
52, -41228.06, 39421.10, -187500.02, -187500.02, -187500.02, -187500.02, -187500.02, -187500.02, 0.000, 0.000, 0.000, 18:01:01.062
53, -35878.53, 44649.53, -187500.02, -187500.02, -187500.02, -187500.02, -187500.02, -187500.02, 0.000, 0.000, 0.000, 18:01:01.062
54, -31012.75, 49587.88, -187500.02, -187500.02, -187500.02, -187500.02, -187500.02, -187500.02, 0.000, 0.000, 0.000, 18:01:01.063
55, -31645.38, 49007.32, -187500.02, -187500.02, -187500.02, -187500.02, -187500.02, -187500.02, 0.000, 0.000, 0.000, 18:01:01.063
56, -35922.14, 44778.39, -187500.02, -187500.02, -187500.02, -187500.02, -187500.02, -187500.02, 0.000, 0.000, 0.000, 18:01:01.063
57, -41244.42, 39408.67, -187500.02, -187500.02, -187500.02, -187500.02, -187500.02, -187500.02, 0.000, 0.000, 0.000, 18:01:01.063
58, -35910.69, 44619.00, -187500.02, -187500.02, -187500.02, -187500.02, -187500.02, -187500.02, 0.010, -0.018, 1.034, 18:01:01.063
59, -31011.59, 49588.19, -187500.02, -187500.02, -187500.02, -187500.02, -187500.02, -187500.02, 0.000, 0.000, 0.000, 18:01:01.063
60, -31645.89, 49006.69, -187500.02, -187500.02, -187500.02, -187500.02, -187500.02, -187500.02, 0.000, 0.000, 0.000, 18:01:01.063
61, -35885.75, 44817.35, -187500.02, -187500.02, -187500.02, -187500.02, -187500.02, -187500.02, 0.000, 0.000, 0.000, 18:01:01.063
62, -41240.22, 39416.14, -187500.02, -187500.02, -187500.02, -187500.02, -187500.02, -187500.02, 0.000, 0.000, 0.000, 18:01:01.063
63, -35954.75, 44572.91, -187500.02, -187500.02, -187500.02, -187500.02, -187500.02, -187500.02, 0.000, 0.000, 0.000, 18:01:01.064
64, -31030.30, 49565.17, -187500.02, -187500.02, -187500.02, -187500.02, -187500.02, -187500.02, 0.000, 0.000, 0.000, 18:01:01.064
65, -31623.76, 49027.95, -187500.02, -187500.02, -187500.02, -187500.02, -187500.02, -187500.02, 0.000, 0.000, 0.000, 18:01:01.064
66, -35846.18, 44860.66, -187500.02, -187500.02, -187500.02, -187500.02, -187500.02, -187500.02, 0.000, 0.000, 0.000, 18:01:01.064
67, -41237.61, 39421.66, -187500.02, -187500.02, -187500.02, -187500.02, -187500.02, -187500.02, 0.000, 0.000, 0.000, 18:01:01.064
68, -35988.12, 44540.92, -187500.02, -187500.02, -187500.02, -187500.02, -187500.02, -187500.02, 0.008, -0.014, 1.036, 18:01:01.064
69, -31039.67, 49559.52, -187500.02, -187500.02, -187500.02, -187500.02, -187500.02, -187500.02, 0.000, 0.000, 0.000, 18:01:01.064
70, -31627.05, 49024.68, -187500.02, -187500.02, -187500.02, -187500.02, -187500.02, -187500.02, 0.000, 0.000, 0.000, 18:01:01.065
71, -35823.52, 44878.79, -187500.02, -187500.02, -187500.02, -187500.02, -187500.02, -187500.02, 0.000, 0.000, 0.000, 18:01:01.065
72, -41232.48, 39426.33, -187500.02, -187500.02, -187500.02, -187500.02, -187500.02, -187500.02, 0.000, 0.000, 0.000, 18:01:01.065
73, -36039.19, 44491.57, -187500.02, -187500.02, -187500.02, -187500.02, -187500.02, -187500.02, 0.000, 0.000, 0.000, 18:01:01.065
74, -31053.43, 49545.84, -187500.02, -187500.02, -187500.02, -187500.02, -187500.02, -187500.02, 0.000, 0.000, 0.000, 18:01:01.065
75, -31623.78, 49030.41, -187500.02, -187500.02, -187500.02, -187500.02, -187500.02, -187500.02, 0.000, 0.000, 0.000, 18:01:01.065
76, -35791.33, 44915.40, -187500.02, -187500.02, -187500.02, -187500.02, -187500.02, -187500.02, 0.000, 0.000, 0.000, 18:01:01.065
77, -41228.21, 39433.41, -187500.02, -187500.02, -187500.02, -187500.02, -187500.02, -187500.02, 0.000, 0.000, 0.000, 18:01:01.065
78, -36063.44, 44467.99, -187500.02, -187500.02, -187500.02, -187500.02, -187500.02, -187500.02, 0.008, -0.014, 1.028, 18:01:01.066
79, -31057.88, 49544.83, -187500.02, -187500.02, -187500.02, -187500.02, -187500.02, -187500.02, 0.000, 0.000, 0.000, 18:01:01.066
80, -31610.64, 49049.63, -187500.02, -187500.02, -187500.02, -187500.02, -187500.02, -187500.02, 0.000, 0.000, 0.000, 18:01:01.066
81, -35754.43, 44957.67, -187500.02, -187500.02, -187500.02, -187500.02, -187500.02, -187500.02, 0.000, 0.000, 0.000, 18:01:01.066
82, -41224.13, 39442.04, -187500.02, -187500.02, -187500.02, -187500.02, -187500.02, -187500.02, 0.000, 0.000, 0.000, 18:01:01.066
83, -36083.36, 44449.77, -187500.02, -187500.02, -187500.02, -187500.02, -187500.02, -187500.02, 0.000, 0.000, 0.000, 18:01:01.066
84, -31054.75, 49545.52, -187500.02, -187500.02, -187500.02, -187500.02, -187500.02, -187500.02, 0.000, 0.000, 0.000, 18:01:01.066
85, -31583.39, 49072.09, -187500.02, -187500.02, -187500.02, -187500.02, -187500.02, -187500.02, 0.000, 0.000, 0.000, 18:01:01.066
86, -35698.26, 45007.16, -187500.02, -187500.02, -187500.02, -187500.02, -187500.02, -187500.02, 0.000, 0.000, 0.000, 18:01:01.066
87, -41194.96, 39464.86, -187500.02, -187500.02, -187500.02, -187500.02, -187500.02, -187500.02, 0.000, 0.000, 0.000, 18:01:01.067
88, -36107.05, 44416.96, -187500.02, -187500.02, -187500.02, -187500.02, -187500.02, -187500.02, 0.010, -0.012, 1.024, 18:01:01.067
89, -31047.91, 49543.22, -187500.02, -187500.02, -187500.02, -187500.02, -187500.02, -187500.02, 0.000, 0.000, 0.000, 18:01:01.067
90, -31565.40, 49084.59, -187500.02, -187500.02, -187500.02, -187500.02, -187500.02, -187500.02, 0.000, 0.000, 0.000, 18:01:01.067
91, -35664.38, 45036.64, -187500.02, -187500.02, -187500.02, -187500.02, -187500.02, -187500.02, 0.000, 0.000, 0.000, 18:01:01.067
92, -41180.79, 39478.39, -187500.02, -187500.02, -187500.02, -187500.02, -187500.02, -187500.02, 0.000, 0.000, 0.000, 18:01:01.067
93, -36125.63, 44396.17, -187500.02, -187500.02, -187500.02, -187500.02, -187500.02, -187500.02, 0.000, 0.000, 0.000, 18:01:01.067
94, -31047.73, 49537.12, -187500.02, -187500.02, -187500.02, -187500.02, -187500.02, -187500.02, 0.000, 0.000, 0.000, 18:01:01.067
95, -31555.86, 49088.99, -187500.02, -187500.02, -187500.02, -187500.02, -187500.02, -187500.02, 0.000, 0.000, 0.000, 18:01:01.068
96, -35643.05, 45052.20, -187500.02, -187500.02, -187500.02, -187500.02, -187500.02, -187500.02, 0.000, 0.000, 0.000, 18:01:01.068
97, -41183.98, 39470.18, -187500.02, -187500.02, -187500.02, -187500.02, -187500.02, -187500.02, 0.000, 0.000, 0.000, 18:01:01.068
98, -36165.05, 44353.66, -187500.02, -187500.02, -187500.02, -187500.02, -187500.02, -187500.02, 0.010, -0.014, 1.020, 18:01:01.068
99, -31050.35, 49533.01, -187500.02, -187500.02, -187500.02, -187500.02, -187500.02, -187500.02, 0.000, 0.000, 0.000, 18:01:01.068
100, -31563.79, 49079.07, -187500.02, -187500.02, -187500.02, -187500.02, -187500.02, -187500.02, 0.000, 0.000, 0.000, 18:01:01.068
101, -35603.96, 45089.57, -187500.02, -187500.02, -187500.02, -187500.02, -187500.02, -187500.02, 0.000, 0.000, 0.000, 18:01:01.068
102, -41151.48, 39504.79, -187500.02, -187500.02, -187500.02, -187500.02, -187500.02, -187500.02, 0.000, 0.000, 0.000, 18:01:01.068
103, -36197.33, 44328.00, -187500.02, -187500.02, -187500.02, -187500.02, -187500.02, -187500.02, 0.000, 0.000, 0.000, 18:01:01.069
104, -31062.93, 49531.89, -187500.02, -187500.02, -187500.02, -187500.02, -187500.02, -187500.02, 0.000, 0.000, 0.000, 18:01:01.069
105, -31539.05, 49111.63, -187500.02, -187500.02, -187500.02, -187500.02, -187500.02, -187500.02, 0.000, 0.000, 0.000, 18:01:01.535
106, -35545.57, 45153.23, -187500.02, -187500.02, -187500.02, -187500.02, -187500.02, -187500.02, 0.000, 0.000, 0.000, 18:01:01.535
107, -41142.63, 39519.78, -187500.02, -187500.02, -187500.02, -187500.02, -187500.02, -187500.02, 0.000, 0.000, 0.000, 18:01:01.535
108, -36225.25, 44303.64, -187500.02, -187500.02, -187500.02, -187500.02, -187500.02, -187500.02, 0.012, -0.014, 1.024, 18:01:01.535
109, -31054.89, 49537.45, -187500.02, -187500.02, -187500.02, -187500.02, -187500.02, -187500.02, 0.000, 0.000, 0.000, 18:01:01.535
110, -31533.19, 49118.07, -187500.02, -187500.02, -187500.02, -187500.02, -187500.02, -187500.02, 0.000, 0.000, 0.000, 18:01:01.535
111, -35527.34, 45171.31, -187500.02, -187500.02, -187500.02, -187500.02, -187500.02, -187500.02, 0.000, 0.000, 0.000, 18:01:01.535
112, -41154.12, 39500.65, -187500.02, -187500.02, -187500.02, -187500.02, -187500.02, -187500.02, 0.000, 0.000, 0.000, 18:01:01.535
113, -36274.80, 44249.37, -187500.02, -187500.02, -187500.02, -187500.02, -187500.02, -187500.02, 0.000, 0.000, 0.000, 18:01:01.536
114, -31058.49, 49528.87, -187500.02, -187500.02, -187500.02, -187500.02, -187500.02, -187500.02, 0.000, 0.000, 0.000, 18:01:01.536
115, -31520.34, 49123.30, -187500.02, -187500.02, -187500.02, -187500.02, -187500.02, -187500.02, 0.000, 0.000, 0.000, 18:01:01.536
116, -35496.00, 45198.76, -187500.02, -187500.02, -187500.02, -187500.02, -187500.02, -187500.02, 0.000, 0.000, 0.000, 18:01:01.536
117, -41140.26, 39519.20, -187500.02, -187500.02, -187500.02, -187500.02, -187500.02, -187500.02, 0.000, 0.000, 0.000, 18:01:01.536
118, -36287.36, 44241.43, -187500.02, -187500.02, -187500.02, -187500.02, -187500.02, -187500.02, 0.010, -0.012, 1.022, 18:01:01.536
119, -31075.12, 49518.10, -187500.02, -187500.02, -187500.02, -187500.02, -187500.02, -187500.02, 0.000, 0.000, 0.000, 18:01:01.536
120, -31514.75, 49135.41, -187500.02, -187500.02, -187500.02, -187500.02, -187500.02, -187500.02, 0.000, 0.000, 0.000, 18:01:01.536
121, -35459.05, 45237.47, -187500.02, -187500.02, -187500.02, -187500.02, -187500.02, -187500.02, 0.000, 0.000, 0.000, 18:01:01.537
122, -41146.79, 39507.85, -187500.02, -187500.02, -187500.02, -187500.02, -187500.02, -187500.02, 0.000, 0.000, 0.000, 18:01:01.537
123, -36340.16, 44176.77, -187500.02, -187500.02, -187500.02, -187500.02, -187500.02, -187500.02, 0.000, 0.000, 0.000, 18:01:01.537
124, -31054.33, 49525.18, -187500.02, -187500.02, -187500.02, -187500.02, -187500.02, -187500.02, 0.000, 0.000, 0.000, 18:01:01.537
125, -31472.73, 49169.21, -187500.02, -187500.02, -187500.02, -187500.02, -187500.02, -187500.02, 0.000, 0.000, 0.000, 18:01:01.537
126, -35400.63, 45294.33, -187500.02, -187500.02, -187500.02, -187500.02, -187500.02, -187500.02, 0.000, 0.000, 0.000, 18:01:01.537
127, -41108.46, 39552.82, -187500.02, -187500.02, -187500.02, -187500.02, -187500.02, -187500.02, 0.000, 0.000, 0.000, 18:01:01.537
128, -36352.25, 44171.88, -187500.02, -187500.02, -187500.02, -187500.02, -187500.02, -187500.02, 0.012, -0.016, 1.024, 18:01:01.537
129, -31046.37, 49536.71, -187500.02, -187500.02, -187500.02, -187500.02, -187500.02, -187500.02, 0.000, 0.000, 0.000, 18:01:01.537
130, -31467.99, 49171.80, -187500.02, -187500.02, -187500.02, -187500.02, -187500.02, -187500.02, 0.000, 0.000, 0.000, 18:01:01.538
131, -35363.97, 45323.82, -187500.02, -187500.02, -187500.02, -187500.02, -187500.02, -187500.02, 0.000, 0.000, 0.000, 18:01:01.538
132, -41107.23, 39548.04, -187500.02, -187500.02, -187500.02, -187500.02, -187500.02, -187500.02, 0.000, 0.000, 0.000, 18:01:01.538
133, -36389.51, 44131.39, -187500.02, -187500.02, -187500.02, -187500.02, -187500.02, -187500.02, 0.000, 0.000, 0.000, 18:01:01.538
134, -31056.79, 49525.81, -187500.02, -187500.02, -187500.02, -187500.02, -187500.02, -187500.02, 0.000, 0.000, 0.000, 18:01:01.538
135, -31466.94, 49175.45, -187500.02, -187500.02, -187500.02, -187500.02, -187500.02, -187500.02, 0.000, 0.000, 0.000, 18:01:01.538
136, -35344.25, 45344.49, -187500.02, -187500.02, -187500.02, -187500.02, -187500.02, -187500.02, 0.000, 0.000, 0.000, 18:01:01.538
137, -41087.02, 39567.70, -187500.02, -187500.02, -187500.02, -187500.02, -187500.02, -187500.02, 0.000, 0.000, 0.000, 18:01:01.538
138, -36421.41, 44100.62, -187500.02, -187500.02, -187500.02, -187500.02, -187500.02, -187500.02, 0.018, -0.012, 1.026, 18:01:01.539
139, -31064.99, 49520.15, -187500.02, -187500.02, -187500.02, -187500.02, -187500.02, -187500.02, 0.000, 0.000, 0.000, 18:01:01.539
140, -31436.79, 49208.13, -187500.02, -187500.02, -187500.02, -187500.02, -187500.02, -187500.02, 0.000, 0.000, 0.000, 18:01:01.539
141, -35296.80, 45395.83, -187500.02, -187500.02, -187500.02, -187500.02, -187500.02, -187500.02, 0.000, 0.000, 0.000, 18:01:01.539
142, -41083.33, 39573.32, -187500.02, -187500.02, -187500.02, -187500.02, -187500.02, -187500.02, 0.000, 0.000, 0.000, 18:01:01.539
143, -36444.09, 44077.13, -187500.02, -187500.02, -187500.02, -187500.02, -187500.02, -187500.02, 0.000, 0.000, 0.000, 18:01:01.539
144, -31050.24, 49531.31, -187500.02, -187500.02, -187500.02, -187500.02, -187500.02, -187500.02, 0.000, 0.000, 0.000, 18:01:01.539
145, -31443.92, 49195.20, -187500.02, -187500.02, -187500.02, -187500.02, -187500.02, -187500.02, 0.000, 0.000, 0.000, 18:01:01.539
146, -35269.82, 45417.43, -187500.02, -187500.02, -187500.02, -187500.02, -187500.02, -187500.02, 0.000, 0.000, 0.000, 18:01:01.540
147, -41059.10, 39596.14, -187500.02, -187500.02, -187500.02, -187500.02, -187500.02, -187500.02, 0.000, 0.000, 0.000, 18:01:01.540
148, -36472.05, 44047.44, -187500.02, -187500.02, -187500.02, -187500.02, -187500.02, -187500.02, 0.014, -0.012, 1.020, 18:01:01.540
149, -31058.06, 49521.52, -187500.02, -187500.02, -187500.02, -187500.02, -187500.02, -187500.02, 0.000, 0.000, 0.000, 18:01:01.540
150, -31408.04, 49232.62, -187500.02, -187500.02, -187500.02, -187500.02, -187500.02, -187500.02, 0.000, 0.000, 0.000, 18:01:01.540
151, -35209.38, 45480.48, -187500.02, -187500.02, -187500.02, -187500.02, -187500.02, -187500.02, 0.000, 0.000, 0.000, 18:01:01.540
152, -41030.02, 39631.18, -187500.02, -187500.02, -187500.02, -187500.02, -187500.02, -187500.02, 0.000, 0.000, 0.000, 18:01:01.540
153, -36504.80, 44019.99, -187500.02, -187500.02, -187500.02, -187500.02, -187500.02, -187500.02, 0.000, 0.000, 0.000, 18:01:01.540
154, -31061.35, 49520.58, -187500.02, -187500.02, -187500.02, -187500.02, -187500.02, -187500.02, 0.000, 0.000, 0.000, 18:01:01.540
155, -31403.02, 49238.93, -187500.02, -187500.02, -187500.02, -187500.02, -187500.02, -187500.02, 0.000, 0.000, 0.000, 18:01:01.541
156, -35183.39, 45506.63, -187500.02, -187500.02, -187500.02, -187500.02, -187500.02, -187500.02, 0.000, 0.000, 0.000, 18:01:01.541
157, -41043.95, 39614.60, -187500.02, -187500.02, -187500.02, -187500.02, -187500.02, -187500.02, 0.012, -0.016, 1.030, 18:01:01.541
158, -36546.93, 43976.86, -187500.02, -187500.02, -187500.02, -187500.02, -187500.02, -187500.02, 0.000, 0.000, 0.000, 18:01:01.541
159, -31064.30, 49515.77, -187500.02, -187500.02, -187500.02, -187500.02, -187500.02, -187500.02, 0.000, 0.000, 0.000, 18:01:01.541
160, -31400.27, 49237.72, -187500.02, -187500.02, -187500.02, -187500.02, -187500.02, -187500.02, 0.000, 0.000, 0.000, 18:01:01.541
161, -35165.02, 45521.36, -187500.02, -187500.02, -187500.02, -187500.02, -187500.02, -187500.02, 0.000, 0.000, 0.000, 18:01:01.541
162, -41035.72, 39623.74, -187500.02, -187500.02, -187500.02, -187500.02, -187500.02, -187500.02, 0.000, 0.000, 0.000, 18:01:01.541
163, -36576.48, 43949.47, -187500.02, -187500.02, -187500.02, -187500.02, -187500.02, -187500.02, 0.000, 0.000, 0.000, 18:01:01.542
164, -31080.30, 49504.17, -187500.02, -187500.02, -187500.02, -187500.02, -187500.02, -187500.02, 0.000, 0.000, 0.000, 18:01:01.542
165, -31398.03, 49248.69, -187500.02, -187500.02, -187500.02, -187500.02, -187500.02, -187500.02, 0.000, 0.000, 0.000, 18:01:01.542
166, -35128.98, 45563.85, -187500.02, -187500.02, -187500.02, -187500.02, -187500.02, -187500.02, 0.000, 0.000, 0.000, 18:01:01.542
167, -41019.85, 39644.19, -187500.02, -187500.02, -187500.02, -187500.02, -187500.02, -187500.02, 0.012, -0.016, 1.034, 18:01:01.542
168, -36623.82, 43906.69, -187500.02, -187500.02, -187500.02, -187500.02, -187500.02, -187500.02, 0.000, 0.000, 0.000, 18:01:01.542
169, -31090.25, 49495.12, -187500.02, -187500.02, -187500.02, -187500.02, -187500.02, -187500.02, 0.000, 0.000, 0.000, 18:01:01.542
170, -31372.39, 49270.30, -187500.02, -187500.02, -187500.02, -187500.02, -187500.02, -187500.02, 0.000, 0.000, 0.000, 18:01:01.542
171, -35080.19, 45607.93, -187500.02, -187500.02, -187500.02, -187500.02, -187500.02, -187500.02, 0.000, 0.000, 0.000, 18:01:01.542
172, -41016.72, 39643.66, -187500.02, -187500.02, -187500.02, -187500.02, -187500.02, -187500.02, 0.000, 0.000, 0.000, 18:01:01.543
173, -36650.36, 43875.11, -187500.02, -187500.02, -187500.02, -187500.02, -187500.02, -187500.02, 0.000, 0.000, 0.000, 18:01:01.543
174, -31093.27, 49487.92, -187500.02, -187500.02, -187500.02, -187500.02, -187500.02, -187500.02, 0.000, 0.000, 0.000, 18:01:01.543
175, -31386.97, 49251.82, -187500.02, -187500.02, -187500.02, -187500.02, -187500.02, -187500.02, 0.000, 0.000, 0.000, 18:01:01.543
176, -35066.13, 45618.30, -187500.02, -187500.02, -187500.02, -187500.02, -187500.02, -187500.02, 0.000, 0.000, 0.000, 18:01:01.543
177, -41021.73, 39636.10, -187500.02, -187500.02, -187500.02, -187500.02, -187500.02, -187500.02, 0.008, -0.016, 1.028, 18:01:01.543
178, -36700.71, 43821.31, -187500.02, -187500.02, -187500.02, -187500.02, -187500.02, -187500.02, 0.000, 0.000, 0.000, 18:01:01.543
179, -31102.61, 49479.59, -187500.02, -187500.02, -187500.02, -187500.02, -187500.02, -187500.02, 0.000, 0.000, 0.000, 18:01:01.543
180, -31391.39, 49256.65, -187500.02, -187500.02, -187500.02, -187500.02, -187500.02, -187500.02, 0.000, 0.000, 0.000, 18:01:01.544
181, -35060.77, 45631.11, -187500.02, -187500.02, -187500.02, -187500.02, -187500.02, -187500.02, 0.000, 0.000, 0.000, 18:01:01.544
182, -41029.38, 39638.34, -187500.02, -187500.02, -187500.02, -187500.02, -187500.02, -187500.02, 0.000, 0.000, 0.000, 18:01:01.544
183, -36755.41, 43781.32, -187500.02, -187500.02, -187500.02, -187500.02, -187500.02, -187500.02, 0.000, 0.000, 0.000, 18:01:01.544
184, -31119.28, 49475.96, -187500.02, -187500.02, -187500.02, -187500.02, -187500.02, -187500.02, 0.000, 0.000, 0.000, 18:01:01.544
185, -31376.91, 49278.58, -187500.02, -187500.02, -187500.02, -187500.02, -187500.02, -187500.02, 0.000, 0.000, 0.000, 18:01:01.544
186, -35018.81, 45679.77, -187500.02, -187500.02, -187500.02, -187500.02, -187500.02, -187500.02, 0.000, 0.000, 0.000, 18:01:01.544
187, -41014.38, 39655.03, -187500.02, -187500.02, -187500.02, -187500.02, -187500.02, -187500.02, 0.006, -0.010, 1.024, 18:01:01.544
188, -36791.06, 43740.64, -187500.02, -187500.02, -187500.02, -187500.02, -187500.02, -187500.02, 0.000, 0.000, 0.000, 18:01:01.545
189, -31145.93, 49437.72, -187500.02, -187500.02, -187500.02, -187500.02, -187500.02, -187500.02, 0.000, 0.000, 0.000, 18:01:01.545
190, -31391.06, 49252.36, -187500.02, -187500.02, -187500.02, -187500.02, -187500.02, -187500.02, 0.000, 0.000, 0.000, 18:01:01.545
191, -34991.97, 45694.41, -187500.02, -187500.02, -187500.02, -187500.02, -187500.02, -187500.02, 0.000, 0.000, 0.000, 18:01:01.545
192, -41000.03, 39662.25, -187500.02, -187500.02, -187500.02, -187500.02, -187500.02, -187500.02, 0.000, 0.000, 0.000, 18:01:01.545
193, -36823.36, 43702.93, -187500.02, -187500.02, -187500.02, -187500.02, -187500.02, -187500.02, 0.000, 0.000, 0.000, 18:01:01.545
194, -31159.20, 49420.04, -187500.02, -187500.02, -187500.02, -187500.02, -187500.02, -187500.02, 0.000, 0.000, 0.000, 18:01:01.546
195, -31383.84, 49254.46, -187500.02, -187500.02, -187500.02, -187500.02, -187500.02, -187500.02, 0.000, 0.000, 0.000, 18:01:01.546
196, -34978.82, 45704.91, -187500.02, -187500.02, -187500.02, -187500.02, -187500.02, -187500.02, 0.000, 0.000, 0.000, 18:01:01.546
197, -41015.43, 39650.79, -187500.02, -187500.02, -187500.02, -187500.02, -187500.02, -187500.02, 0.006, -0.012, 1.030, 18:01:01.546
198, -36879.98, 43653.16, -187500.02, -187500.02, -187500.02, -187500.02, -187500.02, -187500.02, 0.000, 0.000, 0.000, 18:01:01.546
199, -31160.16, 49424.06, -187500.02, -187500.02, -187500.02, -187500.02, -187500.02, -187500.02, 0.000, 0.000, 0.000, 18:01:01.546
200, -31372.06, 49270.13, -187500.02, -187500.02, -187500.02, -187500.02, -187500.02, -187500.02, 0.000, 0.000, 0.000, 18:01:01.546
201, -34959.82, 45719.69, -187500.02, -187500.02, -187500.02, -187500.02, -187500.02, -187500.02, 0.000, 0.000, 0.000, 18:01:01.546
202, -41003.27, 39653.09, -187500.02, -187500.02, -187500.02, -187500.02, -187500.02, -187500.02, 0.000, 0.000, 0.000, 18:01:01.547
203, -36899.69, 43623.59, -187500.02, -187500.02, -187500.02, -187500.02, -187500.02, -187500.02, 0.000, 0.000, 0.000, 18:01:01.547
204, -31172.14, 49403.46, -187500.02, -187500.02, -187500.02, -187500.02, -187500.02, -187500.02, 0.000, 0.000, 0.000, 18:01:01.547
205, -31376.42, 49261.81, -187500.02, -187500.02, -187500.02, -187500.02, -187500.02, -187500.02, 0.000, 0.000, 0.000, 18:01:01.547
206, -34933.29, 45748.05, -187500.02, -187500.02, -187500.02, -187500.02, -187500.02, -187500.02, 0.000, 0.000, 0.000, 18:01:01.547
207, -41007.74, 39654.09, -187500.02, -187500.02, -187500.02, -187500.02, -187500.02, -187500.02, 0.006, -0.010, 1.034, 18:01:01.547
208, -36951.16, 43573.25, -187500.02, -187500.02, -187500.02, -187500.02, -187500.02, -187500.02, 0.000, 0.000, 0.000, 18:01:01.547
209, -31179.10, 49395.54, -187500.02, -187500.02, -187500.02, -187500.02, -187500.02, -187500.02, 0.000, 0.000, 0.000, 18:01:01.547
210, -31353.80, 49283.61, -187500.02, -187500.02, -187500.02, -187500.02, -187500.02, -187500.02, 0.000, 0.000, 0.000, 18:01:01.548
211, -34886.07, 45795.53, -187500.02, -187500.02, -187500.02, -187500.02, -187500.02, -187500.02, 0.000, 0.000, 0.000, 18:01:01.548
212, -40959.44, 39700.92, -187500.02, -187500.02, -187500.02, -187500.02, -187500.02, -187500.02, 0.000, 0.000, 0.000, 18:01:01.548
213, -36960.80, 43561.16, -187500.02, -187500.02, -187500.02, -187500.02, -187500.02, -187500.02, 0.000, 0.000, 0.000, 18:01:01.548
214, -31199.88, 49372.25, -187500.02, -187500.02, -187500.02, -187500.02, -187500.02, -187500.02, 0.000, 0.000, 0.000, 18:01:01.548
215, -31363.21, 49271.25, -187500.02, -187500.02, -187500.02, -187500.02, -187500.02, -187500.02, 0.000, 0.000, 0.000, 18:01:01.548
216, -34868.83, 45808.58, -187500.02, -187500.02, -187500.02, -187500.02, -187500.02, -187500.02, 0.000, 0.000, 0.000, 18:01:01.548
217, -40975.75, 39682.64, -187500.02, -187500.02, -187500.02, -187500.02, -187500.02, -187500.02, 0.004, -0.010, 1.026, 18:01:01.548
218, -37022.76, 43497.92, -187500.02, -187500.02, -187500.02, -187500.02, -187500.02, -187500.02, 0.000, 0.000, 0.000, 18:01:01.549
219, -31201.78, 49370.00, -187500.02, -187500.02, -187500.02, -187500.02, -187500.02, -187500.02, 0.000, 0.000, 0.000, 18:01:01.549
220, -31338.24, 49297.62, -187500.02, -187500.02, -187500.02, -187500.02, -187500.02, -187500.02, 0.000, 0.000, 0.000, 18:01:01.549
221, -34805.64, 45876.21, -187500.02, -187500.02, -187500.02, -187500.02, -187500.02, -187500.02, 0.000, 0.000, 0.000, 18:01:01.549
222, -40945.91, 39719.99, -187500.02, -187500.02, -187500.02, -187500.02, -187500.02, -187500.02, 0.000, 0.000, 0.000, 18:01:01.549
223, -37050.50, 43473.94, -187500.02, -187500.02, -187500.02, -187500.02, -187500.02, -187500.02, 0.000, 0.000, 0.000, 18:01:01.549
224, -31191.77, 49381.84, -187500.02, -187500.02, -187500.02, -187500.02, -187500.02, -187500.02, 0.000, 0.000, 0.000, 18:01:01.549
225, -31331.06, 49310.50, -187500.02, -187500.02, -187500.02, -187500.02, -187500.02, -187500.02, 0.000, 0.000, 0.000, 18:01:02.015
226, -34788.32, 45897.85, -187500.02, -187500.02, -187500.02, -187500.02, -187500.02, -187500.02, 0.000, 0.000, 0.000, 18:01:02.015
227, -40947.46, 39719.29, -187500.02, -187500.02, -187500.02, -187500.02, -187500.02, -187500.02, 0.000, -0.010, 1.024, 18:01:02.015
228, -37083.06, 43443.52, -187500.02, -187500.02, -187500.02, -187500.02, -187500.02, -187500.02, 0.000, 0.000, 0.000, 18:01:02.015
229, -31221.27, 49355.80, -187500.02, -187500.02, -187500.02, -187500.02, -187500.02, -187500.02, 0.000, 0.000, 0.000, 18:01:02.016
230, -31317.70, 49325.31, -187500.02, -187500.02, -187500.02, -187500.02, -187500.02, -187500.02, 0.000, 0.000, 0.000, 18:01:02.016
231, -34733.13, 45954.09, -187500.02, -187500.02, -187500.02, -187500.02, -187500.02, -187500.02, 0.000, 0.000, 0.000, 18:01:02.016
232, -40902.82, 39771.78, -187500.02, -187500.02, -187500.02, -187500.02, -187500.02, -187500.02, 0.000, 0.000, 0.000, 18:01:02.016
233, -37101.12, 43431.34, -187500.02, -187500.02, -187500.02, -187500.02, -187500.02, -187500.02, 0.000, 0.000, 0.000, 18:01:02.016
234, -31206.63, 49373.28, -187500.02, -187500.02, -187500.02, -187500.02, -187500.02, -187500.02, 0.000, 0.000, 0.000, 18:01:02.016
235, -31307.60, 49335.11, -187500.02, -187500.02, -187500.02, -187500.02, -187500.02, -187500.02, 0.000, 0.000, 0.000, 18:01:02.016
236, -34723.25, 45960.64, -187500.02, -187500.02, -187500.02, -187500.02, -187500.02, -187500.02, 0.000, 0.000, 0.000, 18:01:02.016
237, -40888.80, 39780.72, -187500.02, -187500.02, -187500.02, -187500.02, -187500.02, -187500.02, 0.002, -0.010, 1.024, 18:01:02.017
238, -37138.11, 43384.15, -187500.02, -187500.02, -187500.02, -187500.02, -187500.02, -187500.02, 0.000, 0.000, 0.000, 18:01:02.017
239, -31217.14, 49345.97, -187500.02, -187500.02, -187500.02, -187500.02, -187500.02, -187500.02, 0.000, 0.000, 0.000, 18:01:02.017
240, -31287.48, 49342.88, -187500.02, -187500.02, -187500.02, -187500.02, -187500.02, -187500.02, 0.000, 0.000, 0.000, 18:01:02.017
241, -34678.17, 46000.76, -187500.02, -187500.02, -187500.02, -187500.02, -187500.02, -187500.02, 0.000, 0.000, 0.000, 18:01:02.017
242, -40871.13, 39795.11, -187500.02, -187500.02, -187500.02, -187500.02, -187500.02, -187500.02, 0.000, 0.000, 0.000, 18:01:02.017
243, -37161.07, 43359.36, -187500.02, -187500.02, -187500.02, -187500.02, -187500.02, -187500.02, 0.000, 0.000, 0.000, 18:01:02.017
244, -31230.95, 49333.16, -187500.02, -187500.02, -187500.02, -187500.02, -187500.02, -187500.02, 0.000, 0.000, 0.000, 18:01:02.017
245, -31300.13, 49333.94, -187500.02, -187500.02, -187500.02, -187500.02, -187500.02, -187500.02, 0.000, 0.000, 0.000, 18:01:02.018
246, -34679.29, 46002.88, -187500.02, -187500.02, -187500.02, -187500.02, -187500.02, -187500.02, 0.000, 0.000, 0.000, 18:01:02.018
247, -40878.79, 39791.80, -187500.02, -187500.02, -187500.02, -187500.02, -187500.02, -187500.02, 0.004, -0.010, 1.022, 18:01:02.018
248, -37210.91, 43311.93, -187500.02, -187500.02, -187500.02, -187500.02, -187500.02, -187500.02, 0.000, 0.000, 0.000, 18:01:02.018
249, -31245.21, 49321.65, -187500.02, -187500.02, -187500.02, -187500.02, -187500.02, -187500.02, 0.000, 0.000, 0.000, 18:01:02.018
250, -31279.50, 49358.46, -187500.02, -187500.02, -187500.02, -187500.02, -187500.02, -187500.02, 0.000, 0.000, 0.000, 18:01:02.018
251, -34608.75, 46073.47, -187500.02, -187500.02, -187500.02, -187500.02, -187500.02, -187500.02, 0.000, 0.000, 0.000, 18:01:02.018
252, -40846.71, 39826.67, -187500.02, -187500.02, -187500.02, -187500.02, -187500.02, -187500.02, 0.000, 0.000, 0.000, 18:01:02.018
253, -37245.36, 43278.34, -187500.02, -187500.02, -187500.02, -187500.02, -187500.02, -187500.02, 0.000, 0.000, 0.000, 18:01:02.019
254, -31254.98, 49309.62, -187500.02, -187500.02, -187500.02, -187500.02, -187500.02, -187500.02, 0.000, 0.000, 0.000, 18:01:02.019
255, -31292.22, 49346.50, -187500.02, -187500.02, -187500.02, -187500.02, -187500.02, -187500.02, 0.000, 0.000, 0.000, 18:01:02.019
0, -34610.36, 46075.86, -187500.02, -187500.02, -187500.02, -187500.02, -187500.02, -187500.02, 0.000, 0.000, 0.000, 18:01:02.019
1, -40853.51, 39823.34, -187500.02, -187500.02, -187500.02, -187500.02, -187500.02, -187500.02, 0.004, -0.010, 1.030, 18:01:02.019
2, -37280.79, 43247.90, -187500.02, -187500.02, -187500.02, -187500.02, -187500.02, -187500.02, 0.000, 0.000, 0.000, 18:01:02.019
3, -31275.03, 49289.66, -187500.02, -187500.02, -187500.02, -187500.02, -187500.02, -187500.02, 0.000, 0.000, 0.000, 18:01:02.019
4, -31292.58, 49340.78, -187500.02, -187500.02, -187500.02, -187500.02, -187500.02, -187500.02, 0.000, 0.000, 0.000, 18:01:02.019
5, -34578.55, 46104.23, -187500.02, -187500.02, -187500.02, -187500.02, -187500.02, -187500.02, 0.000, 0.000, 0.000, 18:01:02.019
6, -40835.79, 39838.18, -187500.02, -187500.02, -187500.02, -187500.02, -187500.02, -187500.02, 0.000, 0.000, 0.000, 18:01:02.020
7, -37319.79, 43205.56, -187500.02, -187500.02, -187500.02, -187500.02, -187500.02, -187500.02, 0.000, 0.000, 0.000, 18:01:02.020
8, -31284.37, 49279.16, -187500.02, -187500.02, -187500.02, -187500.02, -187500.02, -187500.02, 0.000, 0.000, 0.000, 18:01:02.020
9, -31280.04, 49349.21, -187500.02, -187500.02, -187500.02, -187500.02, -187500.02, -187500.02, 0.000, 0.000, 0.000, 18:01:02.020
10, -34536.37, 46135.34, -187500.02, -187500.02, -187500.02, -187500.02, -187500.02, -187500.02, 0.000, 0.000, 0.000, 18:01:02.020
11, -40806.55, 39860.42, -187500.02, -187500.02, -187500.02, -187500.02, -187500.02, -187500.02, 0.008, -0.016, 1.026, 18:01:02.020
12, -37353.38, 43167.39, -187500.02, -187500.02, -187500.02, -187500.02, -187500.02, -187500.02, 0.000, 0.000, 0.000, 18:01:02.020
13, -31279.16, 49283.98, -187500.02, -187500.02, -187500.02, -187500.02, -187500.02, -187500.02, 0.000, 0.000, 0.000, 18:01:02.020
14, -31251.11, 49384.59, -187500.02, -187500.02, -187500.02, -187500.02, -187500.02, -187500.02, 0.000, 0.000, 0.000, 18:01:02.021
15, -34489.52, 46188.36, -187500.02, -187500.02, -187500.02, -187500.02, -187500.02, -187500.02, 0.000, 0.000, 0.000, 18:01:02.021
16, -40784.02, 39885.64, -187500.02, -187500.02, -187500.02, -187500.02, -187500.02, -187500.02, 0.000, 0.000, 0.000, 18:01:02.021
17, -37380.74, 43139.91, -187500.02, -187500.02, -187500.02, -187500.02, -187500.02, -187500.02, 0.000, 0.000, 0.000, 18:01:02.021
18, -31287.50, 49270.64, -187500.02, -187500.02, -187500.02, -187500.02, -187500.02, -187500.02, 0.000, 0.000, 0.000, 18:01:02.021
19, -31248.45, 49380.70, -187500.02, -187500.02, -187500.02, -187500.02, -187500.02, -187500.02, 0.000, 0.000, 0.000, 18:01:02.021
20, -34471.69, 46200.74, -187500.02, -187500.02, -187500.02, -187500.02, -187500.02, -187500.02, 0.008, -0.014, 1.022, 18:01:02.021
21, -40769.38, 39896.39, -187500.02, -187500.02, -187500.02, -187500.02, -187500.02, -187500.02, 0.000, 0.000, 0.000, 18:01:02.021
22, -37411.16, 43106.16, -187500.02, -187500.02, -187500.02, -187500.02, -187500.02, -187500.02, 0.000, 0.000, 0.000, 18:01:02.021
23, -31297.63, 49255.04, -187500.02, -187500.02, -187500.02, -187500.02, -187500.02, -187500.02, 0.000, 0.000, 0.000, 18:01:02.022
24, -31231.02, 49394.98, -187500.02, -187500.02, -187500.02, -187500.02, -187500.02, -187500.02, 0.000, 0.000, 0.000, 18:01:02.022
25, -34436.75, 46234.65, -187500.02, -187500.02, -187500.02, -187500.02, -187500.02, -187500.02, 0.000, 0.000, 0.000, 18:01:02.022
26, -40774.70, 39893.26, -187500.02, -187500.02, -187500.02, -187500.02, -187500.02, -187500.02, 0.000, 0.000, 0.000, 18:01:02.022
27, -37450.70, 43068.66, -187500.02, -187500.02, -187500.02, -187500.02, -187500.02, -187500.02, 0.000, 0.000, 0.000, 18:01:02.022
28, -31317.16, 49242.21, -187500.02, -187500.02, -187500.02, -187500.02, -187500.02, -187500.02, 0.000, 0.000, 0.000, 18:01:02.022
29, -31246.35, 49387.27, -187500.02, -187500.02, -187500.02, -187500.02, -187500.02, -187500.02, 0.000, 0.000, 0.000, 18:01:02.022
30, -34427.07, 46251.99, -187500.02, -187500.02, -187500.02, -187500.02, -187500.02, -187500.02, 0.010, -0.014, 1.026, 18:01:02.022
31, -40750.29, 39927.43, -187500.02, -187500.02, -187500.02, -187500.02, -187500.02, -187500.02, 0.000, 0.000, 0.000, 18:01:02.023
32, -37489.51, 43037.99, -187500.02, -187500.02, -187500.02, -187500.02, -187500.02, -187500.02, 0.000, 0.000, 0.000, 18:01:02.023
33, -31315.17, 49241.02, -187500.02, -187500.02, -187500.02, -187500.02, -187500.02, -187500.02, 0.000, 0.000, 0.000, 18:01:02.023
34, -31200.66, 49426.61, -187500.02, -187500.02, -187500.02, -187500.02, -187500.02, -187500.02, 0.000, 0.000, 0.000, 18:01:02.023
35, -34357.80, 46313.95, -187500.02, -187500.02, -187500.02, -187500.02, -187500.02, -187500.02, 0.000, 0.000, 0.000, 18:01:02.023
36, -40709.43, 39959.75, -187500.02, -187500.02, -187500.02, -187500.02, -187500.02, -187500.02, 0.000, 0.000, 0.000, 18:01:02.023
37, -37502.83, 43013.72, -187500.02, -187500.02, -187500.02, -187500.02, -187500.02, -187500.02, 0.000, 0.000, 0.000, 18:01:02.023
38, -31317.61, 49231.26, -187500.02, -187500.02, -187500.02, -187500.02, -187500.02, -187500.02, 0.000, 0.000, 0.000, 18:01:02.023
39, -31209.96, 49416.13, -187500.02, -187500.02, -187500.02, -187500.02, -187500.02, -187500.02, 0.000, 0.000, 0.000, 18:01:02.023
40, -34362.92, 46309.35, -187500.02, -187500.02, -187500.02, -187500.02, -187500.02, -187500.02, 0.010, -0.010, 1.024, 18:01:02.024
41, -40714.35, 39956.69, -187500.02, -187500.02, -187500.02, -187500.02, -187500.02, -187500.02, 0.000, 0.000, 0.000, 18:01:02.024
42, -37558.46, 42966.18, -187500.02, -187500.02, -187500.02, -187500.02, -187500.02, -187500.02, 0.000, 0.000, 0.000, 18:01:02.024
43, -31343.56, 49213.36, -187500.02, -187500.02, -187500.02, -187500.02, -187500.02, -187500.02, 0.000, 0.000, 0.000, 18:01:02.024
44, -31206.86, 49421.11, -187500.02, -187500.02, -187500.02, -187500.02, -187500.02, -187500.02, 0.000, 0.000, 0.000, 18:01:02.024
45, -34326.96, 46345.29, -187500.02, -187500.02, -187500.02, -187500.02, -187500.02, -187500.02, 0.000, 0.000, 0.000, 18:01:02.024
46, -40690.43, 39979.13, -187500.02, -187500.02, -187500.02, -187500.02, -187500.02, -187500.02, 0.000, 0.000, 0.000, 18:01:02.024
47, -37581.55, 42935.00, -187500.02, -187500.02, -187500.02, -187500.02, -187500.02, -187500.02, 0.000, 0.000, 0.000, 18:01:02.024
48, -31345.26, 49203.72, -187500.02, -187500.02, -187500.02, -187500.02, -187500.02, -187500.02, 0.000, 0.000, 0.000, 18:01:02.025
49, -31195.39, 49428.38, -187500.02, -187500.02, -187500.02, -187500.02, -187500.02, -187500.02, 0.000, 0.000, 0.000, 18:01:02.025
50, -34300.07, 46367.64, -187500.02, -187500.02, -187500.02, -187500.02, -187500.02, -187500.02, 0.008, -0.012, 1.022, 18:01:02.025
51, -40678.14, 39987.71, -187500.02, -187500.02, -187500.02, -187500.02, -187500.02, -187500.02, 0.000, 0.000, 0.000, 18:01:02.025
52, -37615.59, 42901.80, -187500.02, -187500.02, -187500.02, -187500.02, -187500.02, -187500.02, 0.000, 0.000, 0.000, 18:01:02.025
53, -31347.63, 49198.85, -187500.02, -187500.02, -187500.02, -187500.02, -187500.02, -187500.02, 0.000, 0.000, 0.000, 18:01:02.025
54, -31161.50, 49456.74, -187500.02, -187500.02, -187500.02, -187500.02, -187500.02, -187500.02, 0.000, 0.000, 0.000, 18:01:02.025
55, -34225.35, 46439.84, -187500.02, -187500.02, -187500.02, -187500.02, -187500.02, -187500.02, 0.000, 0.000, 0.000, 18:01:02.025
56, -40626.11, 40041.11, -187500.02, -187500.02, -187500.02, -187500.02, -187500.02, -187500.02, 0.000, 0.000, 0.000, 18:01:02.026
57, -37632.56, 42885.64, -187500.02, -187500.02, -187500.02, -187500.02, -187500.02, -187500.02, 0.000, 0.000, 0.000, 18:01:02.026
58, -31346.80, 49201.71, -187500.02, -187500.02, -187500.02, -187500.02, -187500.02, -187500.02, 0.000, 0.000, 0.000, 18:01:02.026
59, -31168.63, 49451.40, -187500.02, -187500.02, -187500.02, -187500.02, -187500.02, -187500.02, 0.000, 0.000, 0.000, 18:01:02.026
60, -34222.91, 46440.87, -187500.02, -187500.02, -187500.02, -187500.02, -187500.02, -187500.02, 0.012, -0.016, 1.024, 18:01:02.026
61, -40626.44, 40035.75, -187500.02, -187500.02, -187500.02, -187500.02, -187500.02, -187500.02, 0.000, 0.000, 0.000, 18:01:02.026
62, -37672.84, 42838.43, -187500.02, -187500.02, -187500.02, -187500.02, -187500.02, -187500.02, 0.000, 0.000, 0.000, 18:01:02.026
63, -31374.07, 49166.93, -187500.02, -187500.02, -187500.02, -187500.02, -187500.02, -187500.02, 0.000, 0.000, 0.000, 18:01:02.026
64, -31176.48, 49436.29, -187500.02, -187500.02, -187500.02, -187500.02, -187500.02, -187500.02, 0.000, 0.000, 0.000, 18:01:02.026
65, -34208.45, 46448.46, -187500.02, -187500.02, -187500.02, -187500.02, -187500.02, -187500.02, 0.000, 0.000, 0.000, 18:01:02.027
66, -40617.77, 40042.07, -187500.02, -187500.02, -187500.02, -187500.02, -187500.02, -187500.02, 0.000, 0.000, 0.000, 18:01:02.027
67, -37719.55, 42793.46, -187500.02, -187500.02, -187500.02, -187500.02, -187500.02, -187500.02, 0.000, 0.000, 0.000, 18:01:02.027
68, -31391.62, 49154.90, -187500.02, -187500.02, -187500.02, -187500.02, -187500.02, -187500.02, 0.000, 0.000, 0.000, 18:01:02.027
69, -31174.16, 49446.73, -187500.02, -187500.02, -187500.02, -187500.02, -187500.02, -187500.02, 0.000, 0.000, 0.000, 18:01:02.027
70, -34190.59, 46473.61, -187500.02, -187500.02, -187500.02, -187500.02, -187500.02, -187500.02, 0.002, -0.016, 1.026, 18:01:02.027
71, -40617.19, 40049.41, -187500.02, -187500.02, -187500.02, -187500.02, -187500.02, -187500.02, 0.000, 0.000, 0.000, 18:01:02.027
72, -37754.46, 42761.10, -187500.02, -187500.02, -187500.02, -187500.02, -187500.02, -187500.02, 0.000, 0.000, 0.000, 18:01:02.027
73, -31417.30, 49126.81, -187500.02, -187500.02, -187500.02, -187500.02, -187500.02, -187500.02, 0.000, 0.000, 0.000, 18:01:02.028
74, -31163.54, 49454.89, -187500.02, -187500.02, -187500.02, -187500.02, -187500.02, -187500.02, 0.000, 0.000, 0.000, 18:01:02.028
75, -34137.46, 46525.73, -187500.02, -187500.02, -187500.02, -187500.02, -187500.02, -187500.02, 0.000, 0.000, 0.000, 18:01:02.028
76, -40577.04, 40089.44, -187500.02, -187500.02, -187500.02, -187500.02, -187500.02, -187500.02, 0.000, 0.000, 0.000, 18:01:02.028
77, -37783.48, 42735.48, -187500.02, -187500.02, -187500.02, -187500.02, -187500.02, -187500.02, 0.000, 0.000, 0.000, 18:01:02.028
78, -31409.41, 49138.66, -187500.02, -187500.02, -187500.02, -187500.02, -187500.02, -187500.02, 0.000, 0.000, 0.000, 18:01:02.028
79, -31142.95, 49480.14, -187500.02, -187500.02, -187500.02, -187500.02, -187500.02, -187500.02, 0.000, 0.000, 0.000, 18:01:02.028
80, -34130.44, 46531.17, -187500.02, -187500.02, -187500.02, -187500.02, -187500.02, -187500.02, 0.004, -0.022, 1.034, 18:01:02.029
81, -40591.75, 40073.55, -187500.02, -187500.02, -187500.02, -187500.02, -187500.02, -187500.02, 0.000, 0.000, 0.000, 18:01:02.029
82, -37836.96, 42679.89, -187500.02, -187500.02, -187500.02, -187500.02, -187500.02, -187500.02, 0.000, 0.000, 0.000, 18:01:02.029
83, -31437.57, 49105.82, -187500.02, -187500.02, -187500.02, -187500.02, -187500.02, -187500.02, 0.000, 0.000, 0.000, 18:01:02.029
84, -31173.69, 49444.94, -187500.02, -187500.02, -187500.02, -187500.02, -187500.02, -187500.02, 0.000, 0.000, 0.000, 18:01:02.029
85, -34128.45, 46532.66, -187500.02, -187500.02, -187500.02, -187500.02, -187500.02, -187500.02, 0.000, 0.000, 0.000, 18:01:02.029
86, -40590.36, 40071.22, -187500.02, -187500.02, -187500.02, -187500.02, -187500.02, -187500.02, 0.000, 0.000, 0.000, 18:01:02.029
87, -37886.47, 42625.45, -187500.02, -187500.02, -187500.02, -187500.02, -187500.02, -187500.02, 0.000, 0.000, 0.000, 18:01:02.029
88, -31456.14, 49082.39, -187500.02, -187500.02, -187500.02, -187500.02, -187500.02, -187500.02, 0.000, 0.000, 0.000, 18:01:02.030
89, -31158.89, 49455.40, -187500.02, -187500.02, -187500.02, -187500.02, -187500.02, -187500.02, 0.000, 0.000, 0.000, 18:01:02.030
90, -34095.82, 46559.04, -187500.02, -187500.02, -187500.02, -187500.02, -187500.02, -187500.02, 0.008, -0.020, 1.032, 18:01:02.497
91, -40573.64, 40083.25, -187500.02, -187500.02, -187500.02, -187500.02, -187500.02, -187500.02, 0.000, 0.000, 0.000, 18:01:02.497
92, -37920.02, 42589.28, -187500.02, -187500.02, -187500.02, -187500.02, -187500.02, -187500.02, 0.000, 0.000, 0.000, 18:01:02.497
93, -31471.72, 49063.46, -187500.02, -187500.02, -187500.02, -187500.02, -187500.02, -187500.02, 0.000, 0.000, 0.000, 18:01:02.497
94, -31162.04, 49444.94, -187500.02, -187500.02, -187500.02, -187500.02, -187500.02, -187500.02, 0.000, 0.000, 0.000, 18:01:02.497
95, -34059.34, 46588.77, -187500.02, -187500.02, -187500.02, -187500.02, -187500.02, -187500.02, 0.000, 0.000, 0.000, 18:01:02.497
96, -40521.77, 40126.45, -187500.02, -187500.02, -187500.02, -187500.02, -187500.02, -187500.02, 0.000, 0.000, 0.000, 18:01:02.497
97, -37924.61, 42575.47, -187500.02, -187500.02, -187500.02, -187500.02, -187500.02, -187500.02, 0.000, 0.000, 0.000, 18:01:02.498
98, -31481.25, 49048.58, -187500.02, -187500.02, -187500.02, -187500.02, -187500.02, -187500.02, 0.000, 0.000, 0.000, 18:01:02.498
99, -31155.20, 49450.95, -187500.02, -187500.02, -187500.02, -187500.02, -187500.02, -187500.02, 0.000, 0.000, 0.000, 18:01:02.498
100, -34037.41, 46608.77, -187500.02, -187500.02, -187500.02, -187500.02, -187500.02, -187500.02, 0.006, -0.020, 1.034, 18:01:02.498
101, -40518.35, 40135.15, -187500.02, -187500.02, -187500.02, -187500.02, -187500.02, -187500.02, 0.000, 0.000, 0.000, 18:01:02.498
102, -37974.52, 42537.47, -187500.02, -187500.02, -187500.02, -187500.02, -187500.02, -187500.02, 0.000, 0.000, 0.000, 18:01:02.498
103, -31499.33, 49036.66, -187500.02, -187500.02, -187500.02, -187500.02, -187500.02, -187500.02, 0.000, 0.000, 0.000, 18:01:02.498
104, -31149.66, 49460.09, -187500.02, -187500.02, -187500.02, -187500.02, -187500.02, -187500.02, 0.000, 0.000, 0.000, 18:01:02.498
105, -34030.48, 46617.29, -187500.02, -187500.02, -187500.02, -187500.02, -187500.02, -187500.02, 0.000, 0.000, 0.000, 18:01:02.499
106, -40503.41, 40148.67, -187500.02, -187500.02, -187500.02, -187500.02, -187500.02, -187500.02, 0.000, 0.000, 0.000, 18:01:02.499
107, -38016.11, 42492.59, -187500.02, -187500.02, -187500.02, -187500.02, -187500.02, -187500.02, 0.000, 0.000, 0.000, 18:01:02.499
108, -31526.53, 49013.93, -187500.02, -187500.02, -187500.02, -187500.02, -187500.02, -187500.02, 0.000, 0.000, 0.000, 18:01:02.499
109, -31148.56, 49471.61, -187500.02, -187500.02, -187500.02, -187500.02, -187500.02, -187500.02, 0.000, 0.000, 0.000, 18:01:02.499
110, -34006.08, 46651.26, -187500.02, -187500.02, -187500.02, -187500.02, -187500.02, -187500.02, 0.008, -0.016, 1.032, 18:01:02.499
111, -40491.01, 40168.59, -187500.02, -187500.02, -187500.02, -187500.02, -187500.02, -187500.02, 0.000, 0.000, 0.000, 18:01:02.499
112, -38055.50, 42459.02, -187500.02, -187500.02, -187500.02, -187500.02, -187500.02, -187500.02, 0.000, 0.000, 0.000, 18:01:02.499
113, -31546.07, 48992.03, -187500.02, -187500.02, -187500.02, -187500.02, -187500.02, -187500.02, 0.000, 0.000, 0.000, 18:01:02.500
114, -31135.62, 49478.04, -187500.02, -187500.02, -187500.02, -187500.02, -187500.02, -187500.02, 0.000, 0.000, 0.000, 18:01:02.500
115, -33959.92, 46693.33, -187500.02, -187500.02, -187500.02, -187500.02, -187500.02, -187500.02, 0.000, 0.000, 0.000, 18:01:02.500
116, -40459.23, 40199.95, -187500.02, -187500.02, -187500.02, -187500.02, -187500.02, -187500.02, 0.000, 0.000, 0.000, 18:01:02.500
117, -38079.32, 42435.86, -187500.02, -187500.02, -187500.02, -187500.02, -187500.02, -187500.02, 0.000, 0.000, 0.000, 18:01:02.500
118, -31543.74, 48992.12, -187500.02, -187500.02, -187500.02, -187500.02, -187500.02, -187500.02, 0.000, 0.000, 0.000, 18:01:02.500
119, -31142.44, 49473.57, -187500.02, -187500.02, -187500.02, -187500.02, -187500.02, -187500.02, 0.000, 0.000, 0.000, 18:01:02.500
120, -33948.75, 46708.50, -187500.02, -187500.02, -187500.02, -187500.02, -187500.02, -187500.02, 0.008, -0.016, 1.030, 18:01:02.500
121, -40448.88, 40212.87, -187500.02, -187500.02, -187500.02, -187500.02, -187500.02, -187500.02, 0.000, 0.000, 0.000, 18:01:02.501
122, -38122.26, 42399.09, -187500.02, -187500.02, -187500.02, -187500.02, -187500.02, -187500.02, 0.000, 0.000, 0.000, 18:01:02.501
123, -31549.40, 48993.28, -187500.02, -187500.02, -187500.02, -187500.02, -187500.02, -187500.02, 0.000, 0.000, 0.000, 18:01:02.501
124, -31136.16, 49482.20, -187500.02, -187500.02, -187500.02, -187500.02, -187500.02, -187500.02, 0.000, 0.000, 0.000, 18:01:02.501
125, -33945.62, 46712.64, -187500.02, -187500.02, -187500.02, -187500.02, -187500.02, -187500.02, 0.000, 0.000, 0.000, 18:01:02.501
126, -40443.74, 40220.80, -187500.02, -187500.02, -187500.02, -187500.02, -187500.02, -187500.02, 0.000, 0.000, 0.000, 18:01:02.501
127, -38162.74, 42355.28, -187500.02, -187500.02, -187500.02, -187500.02, -187500.02, -187500.02, 0.000, 0.000, 0.000, 18:01:02.501
128, -31579.42, 48957.02, -187500.02, -187500.02, -187500.02, -187500.02, -187500.02, -187500.02, 0.000, 0.000, 0.000, 18:01:02.501
129, -31120.04, 49490.07, -187500.02, -187500.02, -187500.02, -187500.02, -187500.02, -187500.02, 0.000, 0.000, 0.000, 18:01:02.501
130, -33894.70, 46751.42, -187500.02, -187500.02, -187500.02, -187500.02, -187500.02, -187500.02, 0.006, -0.018, 1.038, 18:01:02.502
131, -40393.42, 40263.71, -187500.02, -187500.02, -187500.02, -187500.02, -187500.02, -187500.02, 0.000, 0.000, 0.000, 18:01:02.502
132, -38167.30, 42344.17, -187500.02, -187500.02, -187500.02, -187500.02, -187500.02, -187500.02, 0.000, 0.000, 0.000, 18:01:02.502
133, -31572.69, 48958.07, -187500.02, -187500.02, -187500.02, -187500.02, -187500.02, -187500.02, 0.000, 0.000, 0.000, 18:01:02.502
134, -31104.06, 49503.77, -187500.02, -187500.02, -187500.02, -187500.02, -187500.02, -187500.02, 0.000, 0.000, 0.000, 18:01:02.502
135, -33852.68, 46793.35, -187500.02, -187500.02, -187500.02, -187500.02, -187500.02, -187500.02, 0.000, 0.000, 0.000, 18:01:02.502
136, -40377.73, 40277.84, -187500.02, -187500.02, -187500.02, -187500.02, -187500.02, -187500.02, 0.000, 0.000, 0.000, 18:01:02.502
137, -38201.36, 42309.77, -187500.02, -187500.02, -187500.02, -187500.02, -187500.02, -187500.02, 0.000, 0.000, 0.000, 18:01:02.502
138, -31595.35, 48934.92, -187500.02, -187500.02, -187500.02, -187500.02, -187500.02, -187500.02, 0.000, 0.000, 0.000, 18:01:02.503
139, -31105.33, 49501.71, -187500.02, -187500.02, -187500.02, -187500.02, -187500.02, -187500.02, 0.000, 0.000, 0.000, 18:01:02.503
140, -33826.39, 46819.75, -187500.02, -187500.02, -187500.02, -187500.02, -187500.02, -187500.02, 0.010, -0.016, 1.038, 18:01:02.503
141, -40364.84, 40295.39, -187500.02, -187500.02, -187500.02, -187500.02, -187500.02, -187500.02, 0.000, 0.000, 0.000, 18:01:02.503
142, -38237.89, 42277.65, -187500.02, -187500.02, -187500.02, -187500.02, -187500.02, -187500.02, 0.000, 0.000, 0.000, 18:01:02.503
143, -31595.82, 48932.32, -187500.02, -187500.02, -187500.02, -187500.02, -187500.02, -187500.02, 0.000, 0.000, 0.000, 18:01:02.503
144, -31076.23, 49527.24, -187500.02, -187500.02, -187500.02, -187500.02, -187500.02, -187500.02, 0.000, 0.000, 0.000, 18:01:02.503
145, -33798.07, 46845.52, -187500.02, -187500.02, -187500.02, -187500.02, -187500.02, -187500.02, 0.000, 0.000, 0.000, 18:01:02.503
146, -40336.45, 40317.36, -187500.02, -187500.02, -187500.02, -187500.02, -187500.02, -187500.02, 0.000, 0.000, 0.000, 18:01:02.503
147, -38277.94, 42229.42, -187500.02, -187500.02, -187500.02, -187500.02, -187500.02, -187500.02, 0.000, 0.000, 0.000, 18:01:02.504
148, -31628.97, 48893.19, -187500.02, -187500.02, -187500.02, -187500.02, -187500.02, -187500.02, 0.000, 0.000, 0.000, 18:01:02.504
149, -31097.69, 49506.07, -187500.02, -187500.02, -187500.02, -187500.02, -187500.02, -187500.02, 0.010, -0.016, 1.030, 18:01:02.504
150, -33794.99, 46848.38, -187500.02, -187500.02, -187500.02, -187500.02, -187500.02, -187500.02, 0.000, 0.000, 0.000, 18:01:02.504
151, -40332.20, 40322.39, -187500.02, -187500.02, -187500.02, -187500.02, -187500.02, -187500.02, 0.000, 0.000, 0.000, 18:01:02.504
152, -38303.56, 42204.92, -187500.02, -187500.02, -187500.02, -187500.02, -187500.02, -187500.02, 0.000, 0.000, 0.000, 18:01:02.504
153, -31625.75, 48897.52, -187500.02, -187500.02, -187500.02, -187500.02, -187500.02, -187500.02, 0.000, 0.000, 0.000, 18:01:02.504
154, -31069.35, 49535.33, -187500.02, -187500.02, -187500.02, -187500.02, -187500.02, -187500.02, 0.000, 0.000, 0.000, 18:01:02.504
155, -33738.30, 46904.11, -187500.02, -187500.02, -187500.02, -187500.02, -187500.02, -187500.02, 0.000, 0.000, 0.000, 18:01:02.505
156, -40262.44, 40396.62, -187500.02, -187500.02, -187500.02, -187500.02, -187500.02, -187500.02, 0.000, 0.000, 0.000, 18:01:02.505
157, -38309.30, 42201.07, -187500.02, -187500.02, -187500.02, -187500.02, -187500.02, -187500.02, 0.000, 0.000, 0.000, 18:01:02.505
158, -31636.68, 48884.63, -187500.02, -187500.02, -187500.02, -187500.02, -187500.02, -187500.02, 0.000, 0.000, 0.000, 18:01:02.505
159, -31073.93, 49527.75, -187500.02, -187500.02, -187500.02, -187500.02, -187500.02, -187500.02, 0.010, -0.016, 1.030, 18:01:02.505
160, -33726.97, 46915.62, -187500.02, -187500.02, -187500.02, -187500.02, -187500.02, -187500.02, 0.000, 0.000, 0.000, 18:01:02.505
161, -40260.21, 40395.82, -187500.02, -187500.02, -187500.02, -187500.02, -187500.02, -187500.02, 0.000, 0.000, 0.000, 18:01:02.505
162, -38343.68, 42159.12, -187500.02, -187500.02, -187500.02, -187500.02, -187500.02, -187500.02, 0.000, 0.000, 0.000, 18:01:02.505
163, -31644.93, 48873.61, -187500.02, -187500.02, -187500.02, -187500.02, -187500.02, -187500.02, 0.000, 0.000, 0.000, 18:01:02.505
164, -31057.19, 49545.93, -187500.02, -187500.02, -187500.02, -187500.02, -187500.02, -187500.02, 0.000, 0.000, 0.000, 18:01:02.506
165, -33707.41, 46932.40, -187500.02, -187500.02, -187500.02, -187500.02, -187500.02, -187500.02, 0.000, 0.000, 0.000, 18:01:02.506
166, -40242.46, 40412.36, -187500.02, -187500.02, -187500.02, -187500.02, -187500.02, -187500.02, 0.000, 0.000, 0.000, 18:01:02.506
167, -38385.92, 42121.50, -187500.02, -187500.02, -187500.02, -187500.02, -187500.02, -187500.02, 0.000, 0.000, 0.000, 18:01:02.506
168, -31662.72, 48853.27, -187500.02, -187500.02, -187500.02, -187500.02, -187500.02, -187500.02, 0.000, 0.000, 0.000, 18:01:02.506
169, -31058.84, 49539.85, -187500.02, -187500.02, -187500.02, -187500.02, -187500.02, -187500.02, 0.006, -0.018, 1.030, 18:01:02.506
170, -33670.00, 46966.89, -187500.02, -187500.02, -187500.02, -187500.02, -187500.02, -187500.02, 0.000, 0.000, 0.000, 18:01:02.506
171, -40204.08, 40446.84, -187500.02, -187500.02, -187500.02, -187500.02, -187500.02, -187500.02, 0.000, 0.000, 0.000, 18:01:02.506
172, -38414.80, 42088.22, -187500.02, -187500.02, -187500.02, -187500.02, -187500.02, -187500.02, 0.000, 0.000, 0.000, 18:01:02.507
173, -31692.74, 48823.94, -187500.02, -187500.02, -187500.02, -187500.02, -187500.02, -187500.02, 0.000, 0.000, 0.000, 18:01:02.507
174, -31044.02, 49556.45, -187500.02, -187500.02, -187500.02, -187500.02, -187500.02, -187500.02, 0.000, 0.000, 0.000, 18:01:02.507
175, -33624.93, 47016.51, -187500.02, -187500.02, -187500.02, -187500.02, -187500.02, -187500.02, 0.000, 0.000, 0.000, 18:01:02.507
176, -40174.62, 40484.17, -187500.02, -187500.02, -187500.02, -187500.02, -187500.02, -187500.02, 0.000, 0.000, 0.000, 18:01:02.507
177, -38439.68, 42067.08, -187500.02, -187500.02, -187500.02, -187500.02, -187500.02, -187500.02, 0.000, 0.000, 0.000, 18:01:02.507
178, -31689.12, 48823.90, -187500.02, -187500.02, -187500.02, -187500.02, -187500.02, -187500.02, 0.000, 0.000, 0.000, 18:01:02.507
179, -31031.35, 49565.10, -187500.02, -187500.02, -187500.02, -187500.02, -187500.02, -187500.02, 0.004, -0.014, 1.030, 18:01:02.507
180, -33618.72, 47020.20, -187500.02, -187500.02, -187500.02, -187500.02, -187500.02, -187500.02, 0.000, 0.000, 0.000, 18:01:02.508
181, -40165.55, 40493.04, -187500.02, -187500.02, -187500.02, -187500.02, -187500.02, -187500.02, 0.000, 0.000, 0.000, 18:01:02.508
182, -38478.95, 42031.52, -187500.02, -187500.02, -187500.02, -187500.02, -187500.02, -187500.02, 0.000, 0.000, 0.000, 18:01:02.508
183, -31724.17, 48790.08, -187500.02, -187500.02, -187500.02, -187500.02, -187500.02, -187500.02, 0.000, 0.000, 0.000, 18:01:02.508
184, -31021.81, 49573.89, -187500.02, -187500.02, -187500.02, -187500.02, -187500.02, -187500.02, 0.000, 0.000, 0.000, 18:01:02.508
185, -33584.75, 47052.41, -187500.02, -187500.02, -187500.02, -187500.02, -187500.02, -187500.02, 0.000, 0.000, 0.000, 18:01:02.508
186, -40147.82, 40512.38, -187500.02, -187500.02, -187500.02, -187500.02, -187500.02, -187500.02, 0.000, 0.000, 0.000, 18:01:02.508
187, -38526.11, 41987.44, -187500.02, -187500.02, -187500.02, -187500.02, -187500.02, -187500.02, 0.000, 0.000, 0.000, 18:01:02.508
188, -31724.54, 48792.38, -187500.02, -187500.02, -187500.02, -187500.02, -187500.02, -187500.02, 0.000, 0.000, 0.000, 18:01:02.509
189, -31023.24, 49575.07, -187500.02, -187500.02, -187500.02, -187500.02, -187500.02, -187500.02, 0.010, -0.016, 1.026, 18:01:02.509
190, -33575.34, 47063.18, -187500.02, -187500.02, -187500.02, -187500.02, -187500.02, -187500.02, 0.000, 0.000, 0.000, 18:01:02.509
191, -40115.21, 40543.70, -187500.02, -187500.02, -187500.02, -187500.02, -187500.02, -187500.02, 0.000, 0.000, 0.000, 18:01:02.509
192, -38539.17, 41967.50, -187500.02, -187500.02, -187500.02, -187500.02, -187500.02, -187500.02, 0.000, 0.000, 0.000, 18:01:02.509
193, -31736.73, 48773.56, -187500.02, -187500.02, -187500.02, -187500.02, -187500.02, -187500.02, 0.000, 0.000, 0.000, 18:01:02.509
194, -30999.05, 49593.13, -187500.02, -187500.02, -187500.02, -187500.02, -187500.02, -187500.02, 0.000, 0.000, 0.000, 18:01:02.509
195, -33511.52, 47118.77, -187500.02, -187500.02, -187500.02, -187500.02, -187500.02, -187500.02, 0.000, 0.000, 0.000, 18:01:02.509
196, -40066.86, 40583.34, -187500.02, -187500.02, -187500.02, -187500.02, -187500.02, -187500.02, 0.000, 0.000, 0.000, 18:01:02.509
197, -38554.61, 41946.36, -187500.02, -187500.02, -187500.02, -187500.02, -187500.02, -187500.02, 0.000, 0.000, 0.000, 18:01:02.510
198, -31740.82, 48767.48, -187500.02, -187500.02, -187500.02, -187500.02, -187500.02, -187500.02, 0.000, 0.000, 0.000, 18:01:02.510
199, -31002.92, 49594.07, -187500.02, -187500.02, -187500.02, -187500.02, -187500.02, -187500.02, 0.014, -0.012, 1.030, 18:01:02.510
200, -33516.08, 47122.35, -187500.02, -187500.02, -187500.02, -187500.02, -187500.02, -187500.02, 0.000, 0.000, 0.000, 18:01:02.510
201, -40079.45, 40585.20, -187500.02, -187500.02, -187500.02, -187500.02, -187500.02, -187500.02, 0.000, 0.000, 0.000, 18:01:02.510
202, -38624.37, 41886.25, -187500.02, -187500.02, -187500.02, -187500.02, -187500.02, -187500.02, 0.000, 0.000, 0.000, 18:01:02.510
203, -31787.69, 48718.24, -187500.02, -187500.02, -187500.02, -187500.02, -187500.02, -187500.02, 0.000, 0.000, 0.000, 18:01:02.510
204, -30993.80, 49595.59, -187500.02, -187500.02, -187500.02, -187500.02, -187500.02, -187500.02, 0.000, 0.000, 0.000, 18:01:02.510
205, -33489.08, 47138.46, -187500.02, -187500.02, -187500.02, -187500.02, -187500.02, -187500.02, 0.000, 0.000, 0.000, 18:01:02.511
206, -40057.92, 40590.39, -187500.02, -187500.02, -187500.02, -187500.02, -187500.02, -187500.02, 0.000, 0.000, 0.000, 18:01:02.511
207, -38646.03, 41853.48, -187500.02, -187500.02, -187500.02, -187500.02, -187500.02, -187500.02, 0.000, 0.000, 0.000, 18:01:02.511
208, -31793.46, 48709.55, -187500.02, -187500.02, -187500.02, -187500.02, -187500.02, -187500.02, 0.000, 0.000, 0.000, 18:01:02.511
209, -31003.88, 49588.08, -187500.02, -187500.02, -187500.02, -187500.02, -187500.02, -187500.02, 0.012, -0.010, 1.022, 18:01:02.511
210, -33478.15, 47151.85, -187500.02, -187500.02, -187500.02, -187500.02, -187500.02, -187500.02, 0.000, 0.000, 0.000, 18:01:02.977
211, -40027.23, 40626.30, -187500.02, -187500.02, -187500.02, -187500.02, -187500.02, -187500.02, 0.000, 0.000, 0.000, 18:01:02.977
212, -38672.81, 41833.16, -187500.02, -187500.02, -187500.02, -187500.02, -187500.02, -187500.02, 0.000, 0.000, 0.000, 18:01:02.977
213, -31802.69, 48705.03, -187500.02, -187500.02, -187500.02, -187500.02, -187500.02, -187500.02, 0.000, 0.000, 0.000, 18:01:02.977
214, -30973.30, 49618.08, -187500.02, -187500.02, -187500.02, -187500.02, -187500.02, -187500.02, 0.000, 0.000, 0.000, 18:01:02.977
215, -33414.72, 47211.09, -187500.02, -187500.02, -187500.02, -187500.02, -187500.02, -187500.02, 0.000, 0.000, 0.000, 18:01:02.977
216, -39966.04, 40683.95, -187500.02, -187500.02, -187500.02, -187500.02, -187500.02, -187500.02, 0.000, 0.000, 0.000, 18:01:02.978
217, -38671.51, 41830.68, -187500.02, -187500.02, -187500.02, -187500.02, -187500.02, -187500.02, 0.000, 0.000, 0.000, 18:01:02.978
218, -31801.66, 48700.23, -187500.02, -187500.02, -187500.02, -187500.02, -187500.02, -187500.02, 0.000, 0.000, 0.000, 18:01:02.978
219, -30968.99, 49620.25, -187500.02, -187500.02, -187500.02, -187500.02, -187500.02, -187500.02, 0.004, -0.014, 1.024, 18:01:02.978
220, -33414.00, 47210.55, -187500.02, -187500.02, -187500.02, -187500.02, -187500.02, -187500.02, 0.000, 0.000, 0.000, 18:01:02.978
221, -39974.08, 40673.60, -187500.02, -187500.02, -187500.02, -187500.02, -187500.02, -187500.02, 0.000, 0.000, 0.000, 18:01:02.978
222, -38729.76, 41773.49, -187500.02, -187500.02, -187500.02, -187500.02, -187500.02, -187500.02, 0.000, 0.000, 0.000, 18:01:02.978
223, -31838.11, 48666.81, -187500.02, -187500.02, -187500.02, -187500.02, -187500.02, -187500.02, 0.000, 0.000, 0.000, 18:01:02.978
224, -30988.73, 49604.13, -187500.02, -187500.02, -187500.02, -187500.02, -187500.02, -187500.02, 0.000, 0.000, 0.000, 18:01:02.978
225, -33409.87, 47221.84, -187500.02, -187500.02, -187500.02, -187500.02, -187500.02, -187500.02, 0.000, 0.000, 0.000, 18:01:02.979
226, -39961.59, 40692.09, -187500.02, -187500.02, -187500.02, -187500.02, -187500.02, -187500.02, 0.000, 0.000, 0.000, 18:01:02.979
227, -38763.91, 41738.59, -187500.02, -187500.02, -187500.02, -187500.02, -187500.02, -187500.02, 0.000, 0.000, 0.000, 18:01:02.979
228, -31858.32, 48640.39, -187500.02, -187500.02, -187500.02, -187500.02, -187500.02, -187500.02, 0.000, 0.000, 0.000, 18:01:02.979
229, -30981.89, 49601.94, -187500.02, -187500.02, -187500.02, -187500.02, -187500.02, -187500.02, 0.004, -0.018, 1.030, 18:01:02.979
230, -33379.56, 47246.02, -187500.02, -187500.02, -187500.02, -187500.02, -187500.02, -187500.02, 0.000, 0.000, 0.000, 18:01:02.980
231, -39936.44, 40717.75, -187500.02, -187500.02, -187500.02, -187500.02, -187500.02, -187500.02, 0.000, 0.000, 0.000, 18:01:02.980
232, -38795.34, 41715.24, -187500.02, -187500.02, -187500.02, -187500.02, -187500.02, -187500.02, 0.000, 0.000, 0.000, 18:01:02.980
233, -31872.27, 48637.15, -187500.02, -187500.02, -187500.02, -187500.02, -187500.02, -187500.02, 0.000, 0.000, 0.000, 18:01:02.980
234, -30957.37, 49633.88, -187500.02, -187500.02, -187500.02, -187500.02, -187500.02, -187500.02, 0.000, 0.000, 0.000, 18:01:02.980
235, -33331.19, 47293.32, -187500.02, -187500.02, -187500.02, -187500.02, -187500.02, -187500.02, 0.000, 0.000, 0.000, 18:01:02.980
236, -39884.99, 40762.45, -187500.02, -187500.02, -187500.02, -187500.02, -187500.02, -187500.02, 0.000, 0.000, 0.000, 18:01:02.980
237, -38796.64, 41706.88, -187500.02, -187500.02, -187500.02, -187500.02, -187500.02, -187500.02, 0.000, 0.000, 0.000, 18:01:02.980
238, -31866.37, 48630.87, -187500.02, -187500.02, -187500.02, -187500.02, -187500.02, -187500.02, 0.000, 0.000, 0.000, 18:01:02.981
239, -30936.62, 49642.39, -187500.02, -187500.02, -187500.02, -187500.02, -187500.02, -187500.02, 0.010, -0.014, 1.022, 18:01:02.981
240, -33312.32, 47305.99, -187500.02, -187500.02, -187500.02, -187500.02, -187500.02, -187500.02, 0.000, 0.000, 0.000, 18:01:02.981
241, -39862.79, 40784.22, -187500.02, -187500.02, -187500.02, -187500.02, -187500.02, -187500.02, 0.000, 0.000, 0.000, 18:01:02.981
242, -38840.78, 41660.92, -187500.02, -187500.02, -187500.02, -187500.02, -187500.02, -187500.02, 0.000, 0.000, 0.000, 18:01:02.981
243, -31896.81, 48600.34, -187500.02, -187500.02, -187500.02, -187500.02, -187500.02, -187500.02, 0.000, 0.000, 0.000, 18:01:02.981
244, -30957.43, 49624.29, -187500.02, -187500.02, -187500.02, -187500.02, -187500.02, -187500.02, 0.000, 0.000, 0.000, 18:01:02.981
245, -33309.06, 47308.80, -187500.02, -187500.02, -187500.02, -187500.02, -187500.02, -187500.02, 0.000, 0.000, 0.000, 18:01:02.981
246, -39858.57, 40785.20, -187500.02, -187500.02, -187500.02, -187500.02, -187500.02, -187500.02, 0.000, 0.000, 0.000, 18:01:02.982
247, -38874.96, 41622.25, -187500.02, -187500.02, -187500.02, -187500.02, -187500.02, -187500.02, 0.000, 0.000, 0.000, 18:01:02.982
248, -31930.09, 48558.70, -187500.02, -187500.02, -187500.02, -187500.02, -187500.02, -187500.02, 0.000, 0.000, 0.000, 18:01:02.982
249, -30964.45, 49609.27, -187500.02, -187500.02, -187500.02, -187500.02, -187500.02, -187500.02, 0.010, -0.010, 1.030, 18:01:02.982
250, -33291.27, 47319.34, -187500.02, -187500.02, -187500.02, -187500.02, -187500.02, -187500.02, 0.000, 0.000, 0.000, 18:01:02.982
251, -39830.32, 40807.22, -187500.02, -187500.02, -187500.02, -187500.02, -187500.02, -187500.02, 0.000, 0.000, 0.000, 18:01:02.982
252, -38904.15, 41590.45, -187500.02, -187500.02, -187500.02, -187500.02, -187500.02, -187500.02, 0.000, 0.000, 0.000, 18:01:02.982
253, -31927.61, 48557.38, -187500.02, -187500.02, -187500.02, -187500.02, -187500.02, -187500.02, 0.000, 0.000, 0.000, 18:01:02.982
254, -30920.22, 49648.86, -187500.02, -187500.02, -187500.02, -187500.02, -187500.02, -187500.02, 0.000, 0.000, 0.000, 18:01:02.983
255, -33228.44, 47380.20, -187500.02, -187500.02, -187500.02, -187500.02, -187500.02, -187500.02, 0.000, 0.000, 0.000, 18:01:02.983
0, -39784.07, 40852.19, -187500.02, -187500.02, -187500.02, -187500.02, -187500.02, -187500.02, 0.000, 0.000, 0.000, 18:01:02.983
1, -38913.04, 41578.36, -187500.02, -187500.02, -187500.02, -187500.02, -187500.02, -187500.02, 0.000, 0.000, 0.000, 18:01:02.983
2, -31941.85, 48542.78, -187500.02, -187500.02, -187500.02, -187500.02, -187500.02, -187500.02, 0.000, 0.000, 0.000, 18:01:02.983
3, -30921.69, 49647.22, -187500.02, -187500.02, -187500.02, -187500.02, -187500.02, -187500.02, 0.008, -0.016, 1.026, 18:01:02.983
4, -33215.50, 47389.47, -187500.02, -187500.02, -187500.02, -187500.02, -187500.02, -187500.02, 0.000, 0.000, 0.000, 18:01:02.983
5, -39762.32, 40874.32, -187500.02, -187500.02, -187500.02, -187500.02, -187500.02, -187500.02, 0.000, 0.000, 0.000, 18:01:02.983
6, -38935.24, 41557.70, -187500.02, -187500.02, -187500.02, -187500.02, -187500.02, -187500.02, 0.000, 0.000, 0.000, 18:01:02.983
7, -31948.60, 48534.26, -187500.02, -187500.02, -187500.02, -187500.02, -187500.02, -187500.02, 0.000, 0.000, 0.000, 18:01:02.984
8, -30918.25, 49649.30, -187500.02, -187500.02, -187500.02, -187500.02, -187500.02, -187500.02, 0.000, 0.000, 0.000, 18:01:02.984
9, -33195.56, 47408.50, -187500.02, -187500.02, -187500.02, -187500.02, -187500.02, -187500.02, 0.000, 0.000, 0.000, 18:01:02.984
10, -39714.22, 40919.23, -187500.02, -187500.02, -187500.02, -187500.02, -187500.02, -187500.02, 0.000, 0.000, 0.000, 18:01:02.984
11, -38959.52, 41535.89, -187500.02, -187500.02, -187500.02, -187500.02, -187500.02, -187500.02, 0.000, 0.000, 0.000, 18:01:02.984
12, -31957.72, 48528.83, -187500.02, -187500.02, -187500.02, -187500.02, -187500.02, -187500.02, 0.000, 0.000, 0.000, 18:01:02.984
13, -30911.61, 49660.14, -187500.02, -187500.02, -187500.02, -187500.02, -187500.02, -187500.02, 0.006, -0.012, 1.028, 18:01:02.984
14, -33193.77, 47416.05, -187500.02, -187500.02, -187500.02, -187500.02, -187500.02, -187500.02, 0.000, 0.000, 0.000, 18:01:02.984
15, -39705.97, 40930.25, -187500.02, -187500.02, -187500.02, -187500.02, -187500.02, -187500.02, 0.000, 0.000, 0.000, 18:01:02.985
16, -39002.47, 41492.01, -187500.02, -187500.02, -187500.02, -187500.02, -187500.02, -187500.02, 0.000, 0.000, 0.000, 18:01:02.985
17, -31997.59, 48489.09, -187500.02, -187500.02, -187500.02, -187500.02, -187500.02, -187500.02, 0.000, 0.000, 0.000, 18:01:02.985
18, -30902.49, 49668.61, -187500.02, -187500.02, -187500.02, -187500.02, -187500.02, -187500.02, 0.000, 0.000, 0.000, 18:01:02.985
19, -33148.91, 47457.58, -187500.02, -187500.02, -187500.02, -187500.02, -187500.02, -187500.02, 0.000, 0.000, 0.000, 18:01:02.985
20, -39671.51, 40968.15, -187500.02, -187500.02, -187500.02, -187500.02, -187500.02, -187500.02, 0.000, 0.000, 0.000, 18:01:02.985
21, -39027.02, 41473.01, -187500.02, -187500.02, -187500.02, -187500.02, -187500.02, -187500.02, 0.000, 0.000, 0.000, 18:01:02.985
22, -32004.86, 48485.76, -187500.02, -187500.02, -187500.02, -187500.02, -187500.02, -187500.02, 0.004, -0.012, 1.030, 18:01:02.985
23, -30910.99, 49665.06, -187500.02, -187500.02, -187500.02, -187500.02, -187500.02, -187500.02, 0.000, 0.000, 0.000, 18:01:02.986
24, -33155.28, 47457.29, -187500.02, -187500.02, -187500.02, -187500.02, -187500.02, -187500.02, 0.000, 0.000, 0.000, 18:01:02.986
25, -39676.09, 40967.55, -187500.02, -187500.02, -187500.02, -187500.02, -187500.02, -187500.02, 0.000, 0.000, 0.000, 18:01:02.986
26, -39072.84, 41429.38, -187500.02, -187500.02, -187500.02, -187500.02, -187500.02, -187500.02, 0.000, 0.000, 0.000, 18:01:02.986
27, -32050.61, 48440.14, -187500.02, -187500.02, -187500.02, -187500.02, -187500.02, -187500.02, 0.000, 0.000, 0.000, 18:01:02.986
28, -30917.96, 49659.00, -187500.02, -187500.02, -187500.02, -187500.02, -187500.02, -187500.02, 0.000, 0.000, 0.000, 18:01:02.986
29, -33143.55, 47466.95, -187500.02, -187500.02, -187500.02, -187500.02, -187500.02, -187500.02, 0.000, 0.000, 0.000, 18:01:02.986
30, -39640.62, 40998.55, -187500.02, -187500.02, -187500.02, -187500.02, -187500.02, -187500.02, 0.000, 0.000, 0.000, 18:01:02.986
31, -39094.68, 41406.92, -187500.02, -187500.02, -187500.02, -187500.02, -187500.02, -187500.02, 0.000, 0.000, 0.000, 18:01:02.986
32, -32052.36, 48436.70, -187500.02, -187500.02, -187500.02, -187500.02, -187500.02, -187500.02, 0.002, -0.014, 1.034, 18:01:02.987
33, -30892.66, 49679.88, -187500.02, -187500.02, -187500.02, -187500.02, -187500.02, -187500.02, 0.000, 0.000, 0.000, 18:01:02.987
34, -33096.81, 47506.08, -187500.02, -187500.02, -187500.02, -187500.02, -187500.02, -187500.02, 0.000, 0.000, 0.000, 18:01:02.987
35, -39605.70, 41027.99, -187500.02, -187500.02, -187500.02, -187500.02, -187500.02, -187500.02, 0.000, 0.000, 0.000, 18:01:02.987
36, -39132.92, 41360.70, -187500.02, -187500.02, -187500.02, -187500.02, -187500.02, -187500.02, 0.000, 0.000, 0.000, 18:01:02.987
37, -32075.67, 48405.29, -187500.02, -187500.02, -187500.02, -187500.02, -187500.02, -187500.02, 0.000, 0.000, 0.000, 18:01:02.987
38, -30880.81, 49687.43, -187500.02, -187500.02, -187500.02, -187500.02, -187500.02, -187500.02, 0.000, 0.000, 0.000, 18:01:02.987
39, -33074.37, 47529.24, -187500.02, -187500.02, -187500.02, -187500.02, -187500.02, -187500.02, 0.000, 0.000, 0.000, 18:01:02.987
40, -39578.32, 41056.64, -187500.02, -187500.02, -187500.02, -187500.02, -187500.02, -187500.02, 0.000, 0.000, 0.000, 18:01:02.988
41, -39154.42, 41337.58, -187500.02, -187500.02, -187500.02, -187500.02, -187500.02, -187500.02, 0.000, 0.000, 0.000, 18:01:02.988
42, -32094.33, 48382.14, -187500.02, -187500.02, -187500.02, -187500.02, -187500.02, -187500.02, 0.008, -0.012, 1.030, 18:01:02.988
43, -30891.54, 49673.15, -187500.02, -187500.02, -187500.02, -187500.02, -187500.02, -187500.02, 0.000, 0.000, 0.000, 18:01:02.988
44, -33061.02, 47539.23, -187500.02, -187500.02, -187500.02, -187500.02, -187500.02, -187500.02, 0.000, 0.000, 0.000, 18:01:02.988
45, -39569.47, 41062.21, -187500.02, -187500.02, -187500.02, -187500.02, -187500.02, -187500.02, 0.000, 0.000, 0.000, 18:01:02.988
46, -39202.05, 41292.45, -187500.02, -187500.02, -187500.02, -187500.02, -187500.02, -187500.02, 0.000, 0.000, 0.000, 18:01:02.988
47, -32122.94, 48356.54, -187500.02, -187500.02, -187500.02, -187500.02, -187500.02, -187500.02, 0.000, 0.000, 0.000, 18:01:02.988
48, -30887.07, 49678.61, -187500.02, -187500.02, -187500.02, -187500.02, -187500.02, -187500.02, 0.000, 0.000, 0.000, 18:01:02.989
49, -33048.46, 47554.00, -187500.02, -187500.02, -187500.02, -187500.02, -187500.02, -187500.02, 0.000, 0.000, 0.000, 18:01:02.989
50, -39552.17, 41081.48, -187500.02, -187500.02, -187500.02, -187500.02, -187500.02, -187500.02, 0.000, 0.000, 0.000, 18:01:02.989
51, -39224.18, 41266.04, -187500.02, -187500.02, -187500.02, -187500.02, -187500.02, -187500.02, 0.000, 0.000, 0.000, 18:01:02.989
52, -32142.48, 48329.10, -187500.02, -187500.02, -187500.02, -187500.02, -187500.02, -187500.02, 0.008, -0.014, 1.024, 18:01:02.989
53, -30896.12, 49663.81, -187500.02, -187500.02, -187500.02, -187500.02, -187500.02, -187500.02, 0.000, 0.000, 0.000, 18:01:02.989
54, -33040.46, 47553.74, -187500.02, -187500.02, -187500.02, -187500.02, -187500.02, -187500.02, 0.000, 0.000, 0.000, 18:01:02.989
55, -39530.60, 41097.28, -187500.02, -187500.02, -187500.02, -187500.02, -187500.02, -187500.02, 0.000, 0.000, 0.000, 18:01:02.989
56, -39260.03, 41229.24, -187500.02, -187500.02, -187500.02, -187500.02, -187500.02, -187500.02, 0.000, 0.000, 0.000, 18:01:02.990
57, -32162.15, 48311.30, -187500.02, -187500.02, -187500.02, -187500.02, -187500.02, -187500.02, 0.000, 0.000, 0.000, 18:01:02.990
58, -30868.96, 49695.08, -187500.02, -187500.02, -187500.02, -187500.02, -187500.02, -187500.02, 0.000, 0.000, 0.000, 18:01:02.990
59, -32965.92, 47635.68, -187500.02, -187500.02, -187500.02, -187500.02, -187500.02, -187500.02, 0.000, 0.000, 0.000, 18:01:02.990
60, -39452.37, 41180.38, -187500.02, -187500.02, -187500.02, -187500.02, -187500.02, -187500.02, 0.000, 0.000, 0.000, 18:01:02.990
61, -39250.42, 41242.16, -187500.02, -187500.02, -187500.02, -187500.02, -187500.02, -187500.02, 0.000, 0.000, 0.000, 18:01:02.990
62, -32151.06, 48322.68, -187500.02, -187500.02, -187500.02, -187500.02, -187500.02, -187500.02, 0.008, -0.014, 1.026, 18:01:02.990
63, -30850.86, 49708.91, -187500.02, -187500.02, -187500.02, -187500.02, -187500.02, -187500.02, 0.000, 0.000, 0.000, 18:01:02.990
64, -32967.39, 47627.12, -187500.02, -187500.02, -187500.02, -187500.02, -187500.02, -187500.02, 0.000, 0.000, 0.000, 18:01:02.990
65, -39431.72, 41197.46, -187500.02, -187500.02, -187500.02, -187500.02, -187500.02, -187500.02, 0.000, 0.000, 0.000, 18:01:02.991
66, -39282.09, 41206.09, -187500.02, -187500.02, -187500.02, -187500.02, -187500.02, -187500.02, 0.000, 0.000, 0.000, 18:01:02.991
67, -32177.23, 48287.21, -187500.02, -187500.02, -187500.02, -187500.02, -187500.02, -187500.02, 0.000, 0.000, 0.000, 18:01:02.991
68, -30854.84, 49695.48, -187500.02, -187500.02, -187500.02, -187500.02, -187500.02, -187500.02, 0.000, 0.000, 0.000, 18:01:02.991
69, -32950.47, 47636.98, -187500.02, -187500.02, -187500.02, -187500.02, -187500.02, -187500.02, 0.000, 0.000, 0.000, 18:01:02.991
70, -39423.02, 41201.33, -187500.02, -187500.02, -187500.02, -187500.02, -187500.02, -187500.02, 0.000, 0.000, 0.000, 18:01:02.991
71, -39332.14, 41153.67, -187500.02, -187500.02, -187500.02, -187500.02, -187500.02, -187500.02, 0.000, 0.000, 0.000, 18:01:02.991
72, -32236.24, 48228.27, -187500.02, -187500.02, -187500.02, -187500.02, -187500.02, -187500.02, 0.010, -0.018, 1.034, 18:01:02.991
73, -30874.71, 49679.16, -187500.02, -187500.02, -187500.02, -187500.02, -187500.02, -187500.02, 0.000, 0.000, 0.000, 18:01:02.992
74, -32927.20, 47661.43, -187500.02, -187500.02, -187500.02, -187500.02, -187500.02, -187500.02, 0.000, 0.000, 0.000, 18:01:03.457
75, -39380.71, 41243.28, -187500.02, -187500.02, -187500.02, -187500.02, -187500.02, -187500.02, 0.000, 0.000, 0.000, 18:01:03.457
76, -39347.25, 41137.00, -187500.02, -187500.02, -187500.02, -187500.02, -187500.02, -187500.02, 0.000, 0.000, 0.000, 18:01:03.457
77, -32229.96, 48229.95, -187500.02, -187500.02, -187500.02, -187500.02, -187500.02, -187500.02, 0.000, 0.000, 0.000, 18:01:03.458
78, -30850.97, 49702.59, -187500.02, -187500.02, -187500.02, -187500.02, -187500.02, -187500.02, 0.000, 0.000, 0.000, 18:01:03.458
79, -32918.29, 47674.21, -187500.02, -187500.02, -187500.02, -187500.02, -187500.02, -187500.02, 0.000, 0.000, 0.000, 18:01:03.458
80, -39368.48, 41262.95, -187500.02, -187500.02, -187500.02, -187500.02, -187500.02, -187500.02, 0.000, 0.000, 0.000, 18:01:03.458
81, -39371.25, 41120.75, -187500.02, -187500.02, -187500.02, -187500.02, -187500.02, -187500.02, 0.000, 0.000, 0.000, 18:01:03.458
82, -32260.85, 48205.56, -187500.02, -187500.02, -187500.02, -187500.02, -187500.02, -187500.02, 0.008, -0.020, 1.024, 18:01:03.458
83, -30854.19, 49702.63, -187500.02, -187500.02, -187500.02, -187500.02, -187500.02, -187500.02, 0.000, 0.000, 0.000, 18:01:03.458
84, -32896.20, 47697.53, -187500.02, -187500.02, -187500.02, -187500.02, -187500.02, -187500.02, 0.000, 0.000, 0.000, 18:01:03.458
85, -39323.82, 41310.00, -187500.02, -187500.02, -187500.02, -187500.02, -187500.02, -187500.02, 0.000, 0.000, 0.000, 18:01:03.458
86, -39399.31, 41096.07, -187500.02, -187500.02, -187500.02, -187500.02, -187500.02, -187500.02, 0.000, 0.000, 0.000, 18:01:03.459
87, -32289.73, 48179.18, -187500.02, -187500.02, -187500.02, -187500.02, -187500.02, -187500.02, 0.000, 0.000, 0.000, 18:01:03.459
88, -30825.71, 49733.37, -187500.02, -187500.02, -187500.02, -187500.02, -187500.02, -187500.02, 0.000, 0.000, 0.000, 18:01:03.459
89, -32846.16, 47748.44, -187500.02, -187500.02, -187500.02, -187500.02, -187500.02, -187500.02, 0.000, 0.000, 0.000, 18:01:03.459
90, -39265.93, 41365.46, -187500.02, -187500.02, -187500.02, -187500.02, -187500.02, -187500.02, 0.000, 0.000, 0.000, 18:01:03.459
91, -39422.51, 41069.12, -187500.02, -187500.02, -187500.02, -187500.02, -187500.02, -187500.02, 0.000, 0.000, 0.000, 18:01:03.459
92, -32291.81, 48171.14, -187500.02, -187500.02, -187500.02, -187500.02, -187500.02, -187500.02, 0.006, -0.024, 1.028, 18:01:03.459
93, -30836.35, 49714.88, -187500.02, -187500.02, -187500.02, -187500.02, -187500.02, -187500.02, 0.000, 0.000, 0.000, 18:01:03.459
94, -32861.45, 47725.84, -187500.02, -187500.02, -187500.02, -187500.02, -187500.02, -187500.02, 0.000, 0.000, 0.000, 18:01:03.460
95, -39276.24, 41350.86, -187500.02, -187500.02, -187500.02, -187500.02, -187500.02, -187500.02, 0.000, 0.000, 0.000, 18:01:03.460
96, -39457.98, 41033.04, -187500.02, -187500.02, -187500.02, -187500.02, -187500.02, -187500.02, 0.000, 0.000, 0.000, 18:01:03.460
97, -32326.63, 48138.32, -187500.02, -187500.02, -187500.02, -187500.02, -187500.02, -187500.02, 0.000, 0.000, 0.000, 18:01:03.460
98, -30846.21, 49709.99, -187500.02, -187500.02, -187500.02, -187500.02, -187500.02, -187500.02, 0.000, 0.000, 0.000, 18:01:03.460
99, -32861.18, 47734.43, -187500.02, -187500.02, -187500.02, -187500.02, -187500.02, -187500.02, 0.000, 0.000, 0.000, 18:01:03.460
100, -39268.41, 41370.11, -187500.02, -187500.02, -187500.02, -187500.02, -187500.02, -187500.02, 0.000, 0.000, 0.000, 18:01:03.460
101, -39505.46, 40994.91, -187500.02, -187500.02, -187500.02, -187500.02, -187500.02, -187500.02, 0.000, 0.000, 0.000, 18:01:03.460
102, -32362.02, 48106.14, -187500.02, -187500.02, -187500.02, -187500.02, -187500.02, -187500.02, 0.006, -0.022, 1.028, 18:01:03.461
103, -30834.61, 49723.31, -187500.02, -187500.02, -187500.02, -187500.02, -187500.02, -187500.02, 0.000, 0.000, 0.000, 18:01:03.461
104, -32828.27, 47766.14, -187500.02, -187500.02, -187500.02, -187500.02, -187500.02, -187500.02, 0.000, 0.000, 0.000, 18:01:03.461
105, -39224.36, 41410.07, -187500.02, -187500.02, -187500.02, -187500.02, -187500.02, -187500.02, 0.000, 0.000, 0.000, 18:01:03.461
106, -39530.27, 40967.75, -187500.02, -187500.02, -187500.02, -187500.02, -187500.02, -187500.02, 0.000, 0.000, 0.000, 18:01:03.461
107, -32377.22, 48093.02, -187500.02, -187500.02, -187500.02, -187500.02, -187500.02, -187500.02, 0.000, 0.000, 0.000, 18:01:03.461
108, -30826.12, 49735.25, -187500.02, -187500.02, -187500.02, -187500.02, -187500.02, -187500.02, 0.000, 0.000, 0.000, 18:01:03.461
109, -32779.39, 47818.36, -187500.02, -187500.02, -187500.02, -187500.02, -187500.02, -187500.02, 0.000, 0.000, 0.000, 18:01:03.461
110, -39176.26, 41464.36, -187500.02, -187500.02, -187500.02, -187500.02, -187500.02, -187500.02, 0.000, 0.000, 0.000, 18:01:03.461
111, -39535.68, 40968.54, -187500.02, -187500.02, -187500.02, -187500.02, -187500.02, -187500.02, 0.000, 0.000, 0.000, 18:01:03.462
112, -32388.91, 48084.25, -187500.02, -187500.02, -187500.02, -187500.02, -187500.02, -187500.02, 0.008, -0.014, 1.026, 18:01:03.462
113, -30811.12, 49749.24, -187500.02, -187500.02, -187500.02, -187500.02, -187500.02, -187500.02, 0.000, 0.000, 0.000, 18:01:03.462
114, -32760.32, 47832.93, -187500.02, -187500.02, -187500.02, -187500.02, -187500.02, -187500.02, 0.000, 0.000, 0.000, 18:01:03.462
115, -39149.53, 41488.95, -187500.02, -187500.02, -187500.02, -187500.02, -187500.02, -187500.02, 0.000, 0.000, 0.000, 18:01:03.462
116, -39579.86, 40923.32, -187500.02, -187500.02, -187500.02, -187500.02, -187500.02, -187500.02, 0.000, 0.000, 0.000, 18:01:03.462
117, -32423.62, 48046.50, -187500.02, -187500.02, -187500.02, -187500.02, -187500.02, -187500.02, 0.000, 0.000, 0.000, 18:01:03.462
118, -30811.45, 49751.07, -187500.02, -187500.02, -187500.02, -187500.02, -187500.02, -187500.02, 0.000, 0.000, 0.000, 18:01:03.462
119, -32781.00, 47816.53, -187500.02, -187500.02, -187500.02, -187500.02, -187500.02, -187500.02, 0.000, 0.000, 0.000, 18:01:03.463
120, -39162.51, 41477.48, -187500.02, -187500.02, -187500.02, -187500.02, -187500.02, -187500.02, 0.000, 0.000, 0.000, 18:01:03.463
121, -39625.20, 40881.85, -187500.02, -187500.02, -187500.02, -187500.02, -187500.02, -187500.02, 0.000, 0.000, 0.000, 18:01:03.463
122, -32466.87, 48004.17, -187500.02, -187500.02, -187500.02, -187500.02, -187500.02, -187500.02, 0.004, -0.012, 1.030, 18:01:03.463
123, -30843.15, 49718.91, -187500.02, -187500.02, -187500.02, -187500.02, -187500.02, -187500.02, 0.000, 0.000, 0.000, 18:01:03.463
124, -32770.27, 47828.53, -187500.02, -187500.02, -187500.02, -187500.02, -187500.02, -187500.02, 0.000, 0.000, 0.000, 18:01:03.463
125, -39125.30, 41514.65, -187500.02, -187500.02, -187500.02, -187500.02, -187500.02, -187500.02, 0.000, 0.000, 0.000, 18:01:03.463
126, -39656.64, 40849.00, -187500.02, -187500.02, -187500.02, -187500.02, -187500.02, -187500.02, 0.000, 0.000, 0.000, 18:01:03.463
127, -32494.45, 47978.49, -187500.02, -187500.02, -187500.02, -187500.02, -187500.02, -187500.02, 0.000, 0.000, 0.000, 18:01:03.464
128, -30824.60, 49741.32, -187500.02, -187500.02, -187500.02, -187500.02, -187500.02, -187500.02, 0.000, 0.000, 0.000, 18:01:03.464
129, -32730.06, 47871.54, -187500.02, -187500.02, -187500.02, -187500.02, -187500.02, -187500.02, 0.000, 0.000, 0.000, 18:01:03.464
130, -39075.92, 41565.41, -187500.02, -187500.02, -187500.02, -187500.02, -187500.02, -187500.02, 0.000, 0.000, 0.000, 18:01:03.464
131, -39651.95, 40854.43, -187500.02, -187500.02, -187500.02, -187500.02, -187500.02, -187500.02, 0.000, 0.000, 0.000, 18:01:03.464
132, -32491.37, 47977.46, -187500.02, -187500.02, -187500.02, -187500.02, -187500.02, -187500.02, 0.006, -0.016, 1.022, 18:01:03.464
133, -30807.59, 49755.38, -187500.02, -187500.02, -187500.02, -187500.02, -187500.02, -187500.02, 0.000, 0.000, 0.000, 18:01:03.464
134, -32699.24, 47901.17, -187500.02, -187500.02, -187500.02, -187500.02, -187500.02, -187500.02, 0.000, 0.000, 0.000, 18:01:03.464
135, -39044.72, 41595.16, -187500.02, -187500.02, -187500.02, -187500.02, -187500.02, -187500.02, 0.000, 0.000, 0.000, 18:01:03.465
136, -39667.73, 40835.92, -187500.02, -187500.02, -187500.02, -187500.02, -187500.02, -187500.02, 0.000, 0.000, 0.000, 18:01:03.465
137, -32499.75, 47966.08, -187500.02, -187500.02, -187500.02, -187500.02, -187500.02, -187500.02, 0.000, 0.000, 0.000, 18:01:03.465
138, -30808.41, 49749.62, -187500.02, -187500.02, -187500.02, -187500.02, -187500.02, -187500.02, 0.000, 0.000, 0.000, 18:01:03.465
139, -32688.11, 47910.80, -187500.02, -187500.02, -187500.02, -187500.02, -187500.02, -187500.02, 0.000, 0.000, 0.000, 18:01:03.465
140, -39008.04, 41634.17, -187500.02, -187500.02, -187500.02, -187500.02, -187500.02, -187500.02, 0.000, 0.000, 0.000, 18:01:03.465
141, -39705.39, 40800.79, -187500.02, -187500.02, -187500.02, -187500.02, -187500.02, -187500.02, 0.004, -0.018, 1.022, 18:01:03.465
