%OpenBCI Raw EEG Data
%
%Sample Rate = 250.0 Hz
%First Column = SampleIndex
%Last Column = Timestamp 
%Other Columns = EEG data in microvolts followed by Accel Data (in G) interleaved with Aux Data
0, 42190.21, 49497.00, -187500.02, -187500.02, -187500.02, -187500.02, -187500.02, -187500.02, 0.016, -0.004, 0.492, 18:13:51.938
1, 41933.66, 49254.86, -187500.02, -187500.02, -187500.02, -187500.02, -187500.02, -187500.02, 0.000, 0.000, 0.000, 18:13:51.938
2, 42074.99, 49474.73, -187500.02, -187500.02, -187500.02, -187500.02, -187500.02, -187500.02, 0.000, 0.000, 0.000, 18:13:51.939
3, 42340.10, 49719.82, -187500.02, -187500.02, -187500.02, -187500.02, -187500.02, -187500.02, 0.000, 0.000, 0.000, 18:13:51.939
4, 42348.91, 49694.79, -187500.02, -187500.02, -187500.02, -187500.02, -187500.02, -187500.02, 0.000, 0.000, 0.000, 18:13:51.939
5, 42193.52, 49505.74, -187500.02, -187500.02, -187500.02, -187500.02, -187500.02, -187500.02, 0.000, 0.000, 0.000, 18:13:51.939
6, 41941.80, 49264.76, -187500.02, -187500.02, -187500.02, -187500.02, -187500.02, -187500.02, 0.000, 0.000, 0.000, 18:13:51.939
7, 42074.27, 49476.21, -187500.02, -187500.02, -187500.02, -187500.02, -187500.02, -187500.02, -0.004, -0.028, 1.056, 18:13:51.939
8, 42338.54, 49716.34, -187500.02, -187500.02, -187500.02, -187500.02, -187500.02, -187500.02, 0.000, 0.000, 0.000, 18:13:51.939
9, 42343.64, 49688.21, -187500.02, -187500.02, -187500.02, -187500.02, -187500.02, -187500.02, 0.000, 0.000, 0.000, 18:13:51.939
10, 42191.98, 49504.06, -187500.02, -187500.02, -187500.02, -187500.02, -187500.02, -187500.02, 0.000, 0.000, 0.000, 18:13:51.940
11, 41938.53, 49261.97, -187500.02, -187500.02, -187500.02, -187500.02, -187500.02, -187500.02, 0.000, 0.000, 0.000, 18:13:51.940
12, 42071.14, 49472.84, -187500.02, -187500.02, -187500.02, -187500.02, -187500.02, -187500.02, 0.000, 0.000, 0.000, 18:13:51.940
13, 42344.57, 49724.47, -187500.02, -187500.02, -187500.02, -187500.02, -187500.02, -187500.02, 0.000, 0.000, 0.000, 18:13:51.940
14, 42358.81, 49705.43, -187500.02, -187500.02, -187500.02, -187500.02, -187500.02, -187500.02, 0.000, 0.000, 0.000, 18:13:51.940
15, 42197.84, 49505.27, -187500.02, -187500.02, -187500.02, -187500.02, -187500.02, -187500.02, 0.000, 0.000, 0.000, 18:13:51.940
16, 41936.86, 49258.19, -187500.02, -187500.02, -187500.02, -187500.02, -187500.02, -187500.02, 0.000, 0.000, 0.000, 18:13:51.940
17, 42065.71, 49465.14, -187500.02, -187500.02, -187500.02, -187500.02, -187500.02, -187500.02, 0.000, -0.020, 1.048, 18:13:51.940
18, 42335.72, 49711.64, -187500.02, -187500.02, -187500.02, -187500.02, -187500.02, -187500.02, 0.000, 0.000, 0.000, 18:13:51.940
19, 42355.75, 49695.41, -187500.02, -187500.02, -187500.02, -187500.02, -187500.02, -187500.02, 0.000, 0.000, 0.000, 18:13:51.941
20, 42212.00, 49506.77, -187500.02, -187500.02, -187500.02, -187500.02, -187500.02, -187500.02, 0.000, 0.000, 0.000, 18:13:51.941
21, 41947.27, 49254.50, -187500.02, -187500.02, -187500.02, -187500.02, -187500.02, -187500.02, 0.000, 0.000, 0.000, 18:13:51.941
22, 42072.17, 49459.94, -187500.02, -187500.02, -187500.02, -187500.02, -187500.02, -187500.02, 0.000, 0.000, 0.000, 18:13:52.413
23, 42343.52, 49717.39, -187500.02, -187500.02, -187500.02, -187500.02, -187500.02, -187500.02, 0.000, 0.000, 0.000, 18:13:52.413
24, 42354.45, 49699.10, -187500.02, -187500.02, -187500.02, -187500.02, -187500.02, -187500.02, 0.000, 0.000, 0.000, 18:13:52.413
25, 42201.68, 49506.27, -187500.02, -187500.02, -187500.02, -187500.02, -187500.02, -187500.02, 0.000, 0.000, 0.000, 18:13:52.414
26, 41947.72, 49258.91, -187500.02, -187500.02, -187500.02, -187500.02, -187500.02, -187500.02, 0.000, 0.000, 0.000, 18:13:52.414
27, 42064.35, 49462.82, -187500.02, -187500.02, -187500.02, -187500.02, -187500.02, -187500.02, -0.004, -0.028, 1.036, 18:13:52.414
28, 42330.20, 49714.61, -187500.02, -187500.02, -187500.02, -187500.02, -187500.02, -187500.02, 0.000, 0.000, 0.000, 18:13:52.414
29, 42347.66, 49702.95, -187500.02, -187500.02, -187500.02, -187500.02, -187500.02, -187500.02, 0.000, 0.000, 0.000, 18:13:52.414
30, 42201.50, 49516.45, -187500.02, -187500.02, -187500.02, -187500.02, -187500.02, -187500.02, 0.000, 0.000, 0.000, 18:13:52.414
31, 41949.82, 49266.82, -187500.02, -187500.02, -187500.02, -187500.02, -187500.02, -187500.02, 0.000, 0.000, 0.000, 18:13:52.414
32, 42072.73, 49466.27, -187500.02, -187500.02, -187500.02, -187500.02, -187500.02, -187500.02, 0.000, 0.000, 0.000, 18:13:52.415
33, 42337.15, 49716.89, -187500.02, -187500.02, -187500.02, -187500.02, -187500.02, -187500.02, 0.000, 0.000, 0.000, 18:13:52.415
34, 42353.54, 49698.86, -187500.02, -187500.02, -187500.02, -187500.02, -187500.02, -187500.02, 0.000, 0.000, 0.000, 18:13:52.415
35, 42206.37, 49512.69, -187500.02, -187500.02, -187500.02, -187500.02, -187500.02, -187500.02, 0.000, 0.000, 0.000, 18:13:52.415
36, 41946.82, 49265.59, -187500.02, -187500.02, -187500.02, -187500.02, -187500.02, -187500.02, -0.004, -0.022, 1.028, 18:13:52.415
37, 42062.47, 49460.68, -187500.02, -187500.02, -187500.02, -187500.02, -187500.02, -187500.02, 0.000, 0.000, 0.000, 18:13:52.415
38, 42337.31, 49713.54, -187500.02, -187500.02, -187500.02, -187500.02, -187500.02, -187500.02, 0.000, 0.000, 0.000, 18:13:52.415
39, 42352.29, 49704.62, -187500.02, -187500.02, -187500.02, -187500.02, -187500.02, -187500.02, 0.000, 0.000, 0.000, 18:13:52.415
40, 42206.73, 49518.03, -187500.02, -187500.02, -187500.02, -187500.02, -187500.02, -187500.02, 0.000, 0.000, 0.000, 18:13:52.416
41, 41952.28, 49273.55, -187500.02, -187500.02, -187500.02, -187500.02, -187500.02, -187500.02, 0.000, 0.000, 0.000, 18:13:52.416
42, 42062.07, 49465.39, -187500.02, -187500.02, -187500.02, -187500.02, -187500.02, -187500.02, 0.000, 0.000, 0.000, 18:13:52.416
43, 42326.47, 49706.68, -187500.02, -187500.02, -187500.02, -187500.02, -187500.02, -187500.02, 0.000, 0.000, 0.000, 18:13:52.416
44, 42343.39, 49690.95, -187500.02, -187500.02, -187500.02, -187500.02, -187500.02, -187500.02, 0.000, 0.000, 0.000, 18:13:52.416
45, 42192.02, 49497.42, -187500.02, -187500.02, -187500.02, -187500.02, -187500.02, -187500.02, 0.000, 0.000, 0.000, 18:13:52.416
46, 41933.08, 49245.05, -187500.02, -187500.02, -187500.02, -187500.02, -187500.02, -187500.02, -0.004, -0.018, 1.030, 18:13:52.416
47, 42044.48, 49437.56, -187500.02, -187500.02, -187500.02, -187500.02, -187500.02, -187500.02, 0.000, 0.000, 0.000, 18:13:52.416
48, 42321.17, 49691.26, -187500.02, -187500.02, -187500.02, -187500.02, -187500.02, -187500.02, 0.000, 0.000, 0.000, 18:13:52.416
49, 42346.43, 49682.02, -187500.02, -187500.02, -187500.02, -187500.02, -187500.02, -187500.02, 0.000, 0.000, 0.000, 18:13:52.417
50, 42205.08, 49506.03, -187500.02, -187500.02, -187500.02, -187500.02, -187500.02, -187500.02, 0.000, 0.000, 0.000, 18:13:52.417
51, 41950.00, 49261.99, -187500.02, -187500.02, -187500.02, -187500.02, -187500.02, -187500.02, 0.000, 0.000, 0.000, 18:13:52.417
52, 42067.01, 49457.84, -187500.02, -187500.02, -187500.02, -187500.02, -187500.02, -187500.02, 0.000, 0.000, 0.000, 18:13:52.417
53, 42346.00, 49720.70, -187500.02, -187500.02, -187500.02, -187500.02, -187500.02, -187500.02, 0.000, 0.000, 0.000, 18:13:52.417
54, 42362.50, 49707.68, -187500.02, -187500.02, -187500.02, -187500.02, -187500.02, -187500.02, 0.000, 0.000, 0.000, 18:13:52.417
55, 42219.36, 49525.12, -187500.02, -187500.02, -187500.02, -187500.02, -187500.02, -187500.02, 0.000, 0.000, 0.000, 18:13:52.417
56, 41957.44, 49269.25, -187500.02, -187500.02, -187500.02, -187500.02, -187500.02, -187500.02, -0.002, -0.022, 1.028, 18:13:52.417
57, 42063.50, 49449.68, -187500.02, -187500.02, -187500.02, -187500.02, -187500.02, -187500.02, 0.000, 0.000, 0.000, 18:13:52.418
58, 42334.85, 49700.98, -187500.02, -187500.02, -187500.02, -187500.02, -187500.02, -187500.02, 0.000, 0.000, 0.000, 18:13:52.418
59, 42356.06, 49701.76, -187500.02, -187500.02, -187500.02, -187500.02, -187500.02, -187500.02, 0.000, 0.000, 0.000, 18:13:52.418
60, 42205.03, 49511.97, -187500.02, -187500.02, -187500.02, -187500.02, -187500.02, -187500.02, 0.000, 0.000, 0.000, 18:13:52.418
61, 41950.60, 49266.62, -187500.02, -187500.02, -187500.02, -187500.02, -187500.02, -187500.02, 0.000, 0.000, 0.000, 18:13:52.418
62, 42064.93, 49461.59, -187500.02, -187500.02, -187500.02, -187500.02, -187500.02, -187500.02, 0.000, 0.000, 0.000, 18:13:52.418
63, 42339.86, 49719.29, -187500.02, -187500.02, -187500.02, -187500.02, -187500.02, -187500.02, 0.000, 0.000, 0.000, 18:13:52.419
64, 42359.82, 49702.14, -187500.02, -187500.02, -187500.02, -187500.02, -187500.02, -187500.02, 0.000, 0.000, 0.000, 18:13:52.419
65, 42212.41, 49518.07, -187500.02, -187500.02, -187500.02, -187500.02, -187500.02, -187500.02, 0.000, 0.000, 0.000, 18:13:52.419
66, 41953.46, 49267.02, -187500.02, -187500.02, -187500.02, -187500.02, -187500.02, -187500.02, 0.000, -0.018, 1.020, 18:13:52.420
67, 42054.79, 49448.79, -187500.02, -187500.02, -187500.02, -187500.02, -187500.02, -187500.02, 0.000, 0.000, 0.000, 18:13:52.420
68, 42327.50, 49706.32, -187500.02, -187500.02, -187500.02, -187500.02, -187500.02, -187500.02, 0.000, 0.000, 0.000, 18:13:52.420
69, 42351.55, 49697.18, -187500.02, -187500.02, -187500.02, -187500.02, -187500.02, -187500.02, 0.000, 0.000, 0.000, 18:13:52.420
70, 42208.45, 49519.10, -187500.02, -187500.02, -187500.02, -187500.02, -187500.02, -187500.02, 0.000, 0.000, 0.000, 18:13:52.420
71, 41952.77, 49265.41, -187500.02, -187500.02, -187500.02, -187500.02, -187500.02, -187500.02, 0.000, 0.000, 0.000, 18:13:52.420
72, 42057.13, 49451.98, -187500.02, -187500.02, -187500.02, -187500.02, -187500.02, -187500.02, 0.000, 0.000, 0.000, 18:13:52.421
73, 42337.87, 49719.18, -187500.02, -187500.02, -187500.02, -187500.02, -187500.02, -187500.02, 0.000, 0.000, 0.000, 18:13:52.421
74, 42360.89, 49710.28, -187500.02, -187500.02, -187500.02, -187500.02, -187500.02, -187500.02, 0.000, 0.000, 0.000, 18:13:52.421
75, 42219.07, 49523.33, -187500.02, -187500.02, -187500.02, -187500.02, -187500.02, -187500.02, 0.000, 0.000, 0.000, 18:13:52.421
76, 41958.49, 49272.50, -187500.02, -187500.02, -187500.02, -187500.02, -187500.02, -187500.02, 0.006, -0.018, 1.022, 18:13:52.421
77, 42056.35, 49454.46, -187500.02, -187500.02, -187500.02, -187500.02, -187500.02, -187500.02, 0.000, 0.000, 0.000, 18:13:52.422
78, 42337.89, 49714.43, -187500.02, -187500.02, -187500.02, -187500.02, -187500.02, -187500.02, 0.000, 0.000, 0.000, 18:13:52.422
79, 42359.68, 49704.20, -187500.02, -187500.02, -187500.02, -187500.02, -187500.02, -187500.02, 0.000, 0.000, 0.000, 18:13:52.422
80, 42219.63, 49532.61, -187500.02, -187500.02, -187500.02, -187500.02, -187500.02, -187500.02, 0.000, 0.000, 0.000, 18:13:52.422
81, 41957.42, 49273.28, -187500.02, -187500.02, -187500.02, -187500.02, -187500.02, -187500.02, 0.000, 0.000, 0.000, 18:13:52.422
82, 42057.09, 49451.96, -187500.02, -187500.02, -187500.02, -187500.02, -187500.02, -187500.02, 0.000, 0.000, 0.000, 18:13:52.422
83, 42338.29, 49719.55, -187500.02, -187500.02, -187500.02, -187500.02, -187500.02, -187500.02, 0.000, 0.000, 0.000, 18:13:52.423
84, 42357.92, 49705.63, -187500.02, -187500.02, -187500.02, -187500.02, -187500.02, -187500.02, 0.000, 0.000, 0.000, 18:13:52.423
85, 42212.52, 49522.39, -187500.02, -187500.02, -187500.02, -187500.02, -187500.02, -187500.02, 0.000, 0.000, 0.000, 18:13:52.423
86, 41955.47, 49263.15, -187500.02, -187500.02, -187500.02, -187500.02, -187500.02, -187500.02, 0.000, -0.020, 1.026, 18:13:52.423
87, 42050.20, 49438.66, -187500.02, -187500.02, -187500.02, -187500.02, -187500.02, -187500.02, 0.000, 0.000, 0.000, 18:13:52.423
88, 42330.61, 49705.56, -187500.02, -187500.02, -187500.02, -187500.02, -187500.02, -187500.02, 0.000, 0.000, 0.000, 18:13:52.423
89, 42351.84, 49696.55, -187500.02, -187500.02, -187500.02, -187500.02, -187500.02, -187500.02, 0.000, 0.000, 0.000, 18:13:52.423
90, 42215.09, 49522.52, -187500.02, -187500.02, -187500.02, -187500.02, -187500.02, -187500.02, 0.000, 0.000, 0.000, 18:13:52.424
91, 41961.33, 49270.30, -187500.02, -187500.02, -187500.02, -187500.02, -187500.02, -187500.02, 0.000, 0.000, 0.000, 18:13:52.424
92, 42054.34, 49446.01, -187500.02, -187500.02, -187500.02, -187500.02, -187500.02, -187500.02, 0.000, 0.000, 0.000, 18:13:52.424
93, 42331.72, 49708.02, -187500.02, -187500.02, -187500.02, -187500.02, -187500.02, -187500.02, 0.000, 0.000, 0.000, 18:13:52.424
94, 42361.29, 49702.90, -187500.02, -187500.02, -187500.02, -187500.02, -187500.02, -187500.02, 0.000, 0.000, 0.000, 18:13:52.424
95, 42216.59, 49523.11, -187500.02, -187500.02, -187500.02, -187500.02, -187500.02, -187500.02, 0.000, 0.000, 0.000, 18:13:52.424
96, 41953.86, 49257.52, -187500.02, -187500.02, -187500.02, -187500.02, -187500.02, -187500.02, 0.000, -0.022, 1.022, 18:13:52.425
97, 42044.05, 49433.14, -187500.02, -187500.02, -187500.02, -187500.02, -187500.02, -187500.02, 0.000, 0.000, 0.000, 18:13:52.425
98, 42327.12, 49701.20, -187500.02, -187500.02, -187500.02, -187500.02, -187500.02, -187500.02, 0.000, 0.000, 0.000, 18:13:52.425
99, 42359.26, 49699.13, -187500.02, -187500.02, -187500.02, -187500.02, -187500.02, -187500.02, 0.000, 0.000, 0.000, 18:13:52.425
100, 42219.18, 49523.37, -187500.02, -187500.02, -187500.02, -187500.02, -187500.02, -187500.02, 0.000, 0.000, 0.000, 18:13:52.425
101, 41954.94, 49260.70, -187500.02, -187500.02, -187500.02, -187500.02, -187500.02, -187500.02, 0.000, 0.000, 0.000, 18:13:52.425
102, 42048.41, 49441.25, -187500.02, -187500.02, -187500.02, -187500.02, -187500.02, -187500.02, 0.000, 0.000, 0.000, 18:13:52.426
103, 42333.91, 49712.34, -187500.02, -187500.02, -187500.02, -187500.02, -187500.02, -187500.02, 0.000, 0.000, 0.000, 18:13:52.426
104, 42359.62, 49703.98, -187500.02, -187500.02, -187500.02, -187500.02, -187500.02, -187500.02, 0.000, 0.000, 0.000, 18:13:52.426
105, 42224.88, 49531.71, -187500.02, -187500.02, -187500.02, -187500.02, -187500.02, -187500.02, 0.000, 0.000, 0.000, 18:13:52.426
106, 41957.55, 49264.16, -187500.02, -187500.02, -187500.02, -187500.02, -187500.02, -187500.02, 0.008, -0.020, 1.028, 18:13:52.426
107, 42044.28, 49435.55, -187500.02, -187500.02, -187500.02, -187500.02, -187500.02, -187500.02, 0.000, 0.000, 0.000, 18:13:52.427
108, 42336.71, 49715.71, -187500.02, -187500.02, -187500.02, -187500.02, -187500.02, -187500.02, 0.000, 0.000, 0.000, 18:13:52.427
109, 42365.07, 49708.78, -187500.02, -187500.02, -187500.02, -187500.02, -187500.02, -187500.02, 0.000, 0.000, 0.000, 18:13:52.427
110, 42226.07, 49532.61, -187500.02, -187500.02, -187500.02, -187500.02, -187500.02, -187500.02, 0.000, 0.000, 0.000, 18:13:52.427
111, 41969.15, 49274.33, -187500.02, -187500.02, -187500.02, -187500.02, -187500.02, -187500.02, 0.000, 0.000, 0.000, 18:13:52.427
112, 42056.28, 49446.73, -187500.02, -187500.02, -187500.02, -187500.02, -187500.02, -187500.02, 0.000, 0.000, 0.000, 18:13:52.427
113, 42334.34, 49713.14, -187500.02, -187500.02, -187500.02, -187500.02, -187500.02, -187500.02, 0.000, 0.000, 0.000, 18:13:52.428
114, 42364.38, 49707.21, -187500.02, -187500.02, -187500.02, -187500.02, -187500.02, -187500.02, 0.000, 0.000, 0.000, 18:13:52.428
115, 42237.11, 49542.19, -187500.02, -187500.02, -187500.02, -187500.02, -187500.02, -187500.02, 0.000, 0.000, 0.000, 18:13:52.428
116, 41972.53, 49279.76, -187500.02, -187500.02, -187500.02, -187500.02, -187500.02, -187500.02, 0.004, -0.018, 1.028, 18:13:52.428
117, 42046.31, 49439.89, -187500.02, -187500.02, -187500.02, -187500.02, -187500.02, -187500.02, 0.000, 0.000, 0.000, 18:13:52.428
118, 42324.43, 49710.03, -187500.02, -187500.02, -187500.02, -187500.02, -187500.02, -187500.02, 0.000, 0.000, 0.000, 18:13:52.428
119, 42364.38, 49713.16, -187500.02, -187500.02, -187500.02, -187500.02, -187500.02, -187500.02, 0.000, 0.000, 0.000, 18:13:52.429
120, 42229.15, 49539.89, -187500.02, -187500.02, -187500.02, -187500.02, -187500.02, -187500.02, 0.000, 0.000, 0.000, 18:13:52.429
121, 41970.05, 49285.33, -187500.02, -187500.02, -187500.02, -187500.02, -187500.02, -187500.02, 0.000, 0.000, 0.000, 18:13:52.429
122, 42046.87, 49446.17, -187500.02, -187500.02, -187500.02, -187500.02, -187500.02, -187500.02, 0.000, 0.000, 0.000, 18:13:52.429
123, 42332.10, 49711.46, -187500.02, -187500.02, -187500.02, -187500.02, -187500.02, -187500.02, 0.000, 0.000, 0.000, 18:13:52.429
124, 42363.68, 49711.75, -187500.02, -187500.02, -187500.02, -187500.02, -187500.02, -187500.02, 0.000, 0.000, 0.000, 18:13:52.430
125, 42227.23, 49539.45, -187500.02, -187500.02, -187500.02, -187500.02, -187500.02, -187500.02, 0.000, 0.000, 0.000, 18:13:52.430
126, 41959.79, 49268.96, -187500.02, -187500.02, -187500.02, -187500.02, -187500.02, -187500.02, 0.004, -0.014, 1.026, 18:13:52.430
127, 42034.64, 49424.45, -187500.02, -187500.02, -187500.02, -187500.02, -187500.02, -187500.02, 0.000, 0.000, 0.000, 18:13:52.430
128, 42319.76, 49700.46, -187500.02, -187500.02, -187500.02, -187500.02, -187500.02, -187500.02, 0.000, 0.000, 0.000, 18:13:52.430
129, 42358.92, 49701.43, -187500.02, -187500.02, -187500.02, -187500.02, -187500.02, -187500.02, 0.000, 0.000, 0.000, 18:13:52.431
130, 42224.97, 49535.69, -187500.02, -187500.02, -187500.02, -187500.02, -187500.02, -187500.02, 0.000, 0.000, 0.000, 18:13:52.431
131, 41961.11, 49270.82, -187500.02, -187500.02, -187500.02, -187500.02, -187500.02, -187500.02, 0.000, 0.000, 0.000, 18:13:52.431
132, 42034.55, 49425.50, -187500.02, -187500.02, -187500.02, -187500.02, -187500.02, -187500.02, 0.000, 0.000, 0.000, 18:13:52.431
133, 42323.72, 49701.80, -187500.02, -187500.02, -187500.02, -187500.02, -187500.02, -187500.02, 0.000, 0.000, 0.000, 18:13:52.431
134, 42361.88, 49705.34, -187500.02, -187500.02, -187500.02, -187500.02, -187500.02, -187500.02, 0.000, 0.000, 0.000, 18:13:52.431
135, 42232.82, 49542.62, -187500.02, -187500.02, -187500.02, -187500.02, -187500.02, -187500.02, 0.000, 0.000, 0.000, 18:13:52.432
136, 41966.70, 49275.27, -187500.02, -187500.02, -187500.02, -187500.02, -187500.02, -187500.02, 0.006, -0.016, 1.028, 18:13:52.432
137, 42040.14, 49431.08, -187500.02, -187500.02, -187500.02, -187500.02, -187500.02, -187500.02, 0.000, 0.000, 0.000, 18:13:52.432
138, 42321.77, 49702.05, -187500.02, -187500.02, -187500.02, -187500.02, -187500.02, -187500.02, 0.000, 0.000, 0.000, 18:13:52.432
139, 42351.77, 49699.77, -187500.02, -187500.02, -187500.02, -187500.02, -187500.02, -187500.02, 0.000, 0.000, 0.000, 18:13:52.432
140, 42218.55, 49536.25, -187500.02, -187500.02, -187500.02, -187500.02, -187500.02, -187500.02, 0.000, 0.000, 0.000, 18:13:52.433
141, 41956.41, 49275.52, -187500.02, -187500.02, -187500.02, -187500.02, -187500.02, -187500.02, 0.000, 0.000, 0.000, 18:13:52.433
142, 42028.52, 49429.56, -187500.02, -187500.02, -187500.02, -187500.02, -187500.02, -187500.02, 0.000, 0.000, 0.000, 18:13:52.894
143, 42312.72, 49698.66, -187500.02, -187500.02, -187500.02, -187500.02, -187500.02, -187500.02, 0.000, 0.000, 0.000, 18:13:52.894
144, 42353.45, 49703.82, -187500.02, -187500.02, -187500.02, -187500.02, -187500.02, -187500.02, 0.000, 0.000, 0.000, 18:13:52.894
145, 42227.32, 49544.90, -187500.02, -187500.02, -187500.02, -187500.02, -187500.02, -187500.02, 0.000, 0.000, 0.000, 18:13:52.894
146, 41965.98, 49277.08, -187500.02, -187500.02, -187500.02, -187500.02, -187500.02, -187500.02, 0.008, -0.016, 1.030, 18:13:52.894
147, 42032.48, 49422.81, -187500.02, -187500.02, -187500.02, -187500.02, -187500.02, -187500.02, 0.000, 0.000, 0.000, 18:13:52.894
148, 42321.44, 49703.89, -187500.02, -187500.02, -187500.02, -187500.02, -187500.02, -187500.02, 0.000, 0.000, 0.000, 18:13:52.894
149, 42363.06, 49712.16, -187500.02, -187500.02, -187500.02, -187500.02, -187500.02, -187500.02, 0.000, 0.000, 0.000, 18:13:52.895
150, 42237.42, 49548.77, -187500.02, -187500.02, -187500.02, -187500.02, -187500.02, -187500.02, 0.000, 0.000, 0.000, 18:13:52.895
151, 41965.46, 49274.00, -187500.02, -187500.02, -187500.02, -187500.02, -187500.02, -187500.02, 0.000, 0.000, 0.000, 18:13:52.895
152, 42028.23, 49420.04, -187500.02, -187500.02, -187500.02, -187500.02, -187500.02, -187500.02, 0.000, 0.000, 0.000, 18:13:52.895
153, 42316.39, 49702.99, -187500.02, -187500.02, -187500.02, -187500.02, -187500.02, -187500.02, 0.000, 0.000, 0.000, 18:13:52.895
154, 42354.50, 49706.99, -187500.02, -187500.02, -187500.02, -187500.02, -187500.02, -187500.02, 0.000, 0.000, 0.000, 18:13:52.895
155, 42223.02, 49541.37, -187500.02, -187500.02, -187500.02, -187500.02, -187500.02, -187500.02, 0.006, -0.016, 1.034, 18:13:52.895
156, 41957.98, 49270.11, -187500.02, -187500.02, -187500.02, -187500.02, -187500.02, -187500.02, 0.000, 0.000, 0.000, 18:13:52.895
157, 42019.98, 49412.89, -187500.02, -187500.02, -187500.02, -187500.02, -187500.02, -187500.02, 0.000, 0.000, 0.000, 18:13:52.895
158, 42316.90, 49699.08, -187500.02, -187500.02, -187500.02, -187500.02, -187500.02, -187500.02, 0.000, 0.000, 0.000, 18:13:52.896
159, 42361.11, 49708.78, -187500.02, -187500.02, -187500.02, -187500.02, -187500.02, -187500.02, 0.000, 0.000, 0.000, 18:13:52.896
160, 42228.34, 49545.57, -187500.02, -187500.02, -187500.02, -187500.02, -187500.02, -187500.02, 0.000, 0.000, 0.000, 18:13:52.896
161, 41964.75, 49277.19, -187500.02, -187500.02, -187500.02, -187500.02, -187500.02, -187500.02, 0.000, 0.000, 0.000, 18:13:52.896
162, 42027.78, 49421.56, -187500.02, -187500.02, -187500.02, -187500.02, -187500.02, -187500.02, 0.000, 0.000, 0.000, 18:13:52.896
163, 42311.67, 49693.31, -187500.02, -187500.02, -187500.02, -187500.02, -187500.02, -187500.02, 0.000, 0.000, 0.000, 18:13:52.896
164, 42360.67, 49720.43, -187500.02, -187500.02, -187500.02, -187500.02, -187500.02, -187500.02, 0.000, 0.000, 0.000, 18:13:52.896
165, 42233.26, 49556.36, -187500.02, -187500.02, -187500.02, -187500.02, -187500.02, -187500.02, 0.008, -0.012, 1.032, 18:13:52.896
166, 41962.14, 49278.31, -187500.02, -187500.02, -187500.02, -187500.02, -187500.02, -187500.02, 0.000, 0.000, 0.000, 18:13:52.897
167, 42019.64, 49413.78, -187500.02, -187500.02, -187500.02, -187500.02, -187500.02, -187500.02, 0.000, 0.000, 0.000, 18:13:52.897
168, 42309.30, 49695.01, -187500.02, -187500.02, -187500.02, -187500.02, -187500.02, -187500.02, 0.000, 0.000, 0.000, 18:13:52.897
169, 42351.93, 49702.61, -187500.02, -187500.02, -187500.02, -187500.02, -187500.02, -187500.02, 0.000, 0.000, 0.000, 18:13:52.897
170, 42228.41, 49546.37, -187500.02, -187500.02, -187500.02, -187500.02, -187500.02, -187500.02, 0.000, 0.000, 0.000, 18:13:52.897
171, 41964.30, 49278.04, -187500.02, -187500.02, -187500.02, -187500.02, -187500.02, -187500.02, 0.000, 0.000, 0.000, 18:13:52.897
172, 42019.54, 49412.11, -187500.02, -187500.02, -187500.02, -187500.02, -187500.02, -187500.02, 0.000, 0.000, 0.000, 18:13:52.897
173, 42311.52, 49698.23, -187500.02, -187500.02, -187500.02, -187500.02, -187500.02, -187500.02, 0.000, 0.000, 0.000, 18:13:52.897
174, 42353.87, 49705.05, -187500.02, -187500.02, -187500.02, -187500.02, -187500.02, -187500.02, 0.000, 0.000, 0.000, 18:13:52.897
175, 42227.61, 49540.18, -187500.02, -187500.02, -187500.02, -187500.02, -187500.02, -187500.02, 0.008, -0.010, 1.026, 18:13:52.898
176, 41961.46, 49263.20, -187500.02, -187500.02, -187500.02, -187500.02, -187500.02, -187500.02, 0.000, 0.000, 0.000, 18:13:52.898
177, 42013.41, 49398.18, -187500.02, -187500.02, -187500.02, -187500.02, -187500.02, -187500.02, 0.000, 0.000, 0.000, 18:13:52.898
178, 42304.14, 49684.30, -187500.02, -187500.02, -187500.02, -187500.02, -187500.02, -187500.02, 0.000, 0.000, 0.000, 18:13:52.898
179, 42353.07, 49696.46, -187500.02, -187500.02, -187500.02, -187500.02, -187500.02, -187500.02, 0.000, 0.000, 0.000, 18:13:52.898
180, 42231.41, 49543.94, -187500.02, -187500.02, -187500.02, -187500.02, -187500.02, -187500.02, 0.000, 0.000, 0.000, 18:13:52.898
181, 41966.96, 49267.56, -187500.02, -187500.02, -187500.02, -187500.02, -187500.02, -187500.02, 0.000, 0.000, 0.000, 18:13:52.898
182, 42018.64, 49405.38, -187500.02, -187500.02, -187500.02, -187500.02, -187500.02, -187500.02, 0.000, 0.000, 0.000, 18:13:52.898
183, 42312.57, 49693.92, -187500.02, -187500.02, -187500.02, -187500.02, -187500.02, -187500.02, 0.000, 0.000, 0.000, 18:13:52.898
184, 42360.45, 49707.71, -187500.02, -187500.02, -187500.02, -187500.02, -187500.02, -187500.02, 0.000, 0.000, 0.000, 18:13:52.899
185, 42230.36, 49543.20, -187500.02, -187500.02, -187500.02, -187500.02, -187500.02, -187500.02, 0.004, -0.012, 1.028, 18:13:52.899
186, 41961.51, 49267.42, -187500.02, -187500.02, -187500.02, -187500.02, -187500.02, -187500.02, 0.000, 0.000, 0.000, 18:13:52.899
187, 42008.40, 49398.58, -187500.02, -187500.02, -187500.02, -187500.02, -187500.02, -187500.02, 0.000, 0.000, 0.000, 18:13:52.899
188, 42301.26, 49680.33, -187500.02, -187500.02, -187500.02, -187500.02, -187500.02, -187500.02, 0.000, 0.000, 0.000, 18:13:52.899
189, 42359.66, 49704.60, -187500.02, -187500.02, -187500.02, -187500.02, -187500.02, -187500.02, 0.000, 0.000, 0.000, 18:13:52.900
190, 42236.14, 49547.69, -187500.02, -187500.02, -187500.02, -187500.02, -187500.02, -187500.02, 0.000, 0.000, 0.000, 18:13:52.900
191, 41963.57, 49269.23, -187500.02, -187500.02, -187500.02, -187500.02, -187500.02, -187500.02, 0.000, 0.000, 0.000, 18:13:52.900
192, 42014.98, 49408.24, -187500.02, -187500.02, -187500.02, -187500.02, -187500.02, -187500.02, 0.000, 0.000, 0.000, 18:13:52.900
193, 42311.92, 49700.31, -187500.02, -187500.02, -187500.02, -187500.02, -187500.02, -187500.02, 0.000, 0.000, 0.000, 18:13:52.900
194, 42356.53, 49701.16, -187500.02, -187500.02, -187500.02, -187500.02, -187500.02, -187500.02, 0.000, 0.000, 0.000, 18:13:52.900
195, 42232.03, 49542.73, -187500.02, -187500.02, -187500.02, -187500.02, -187500.02, -187500.02, 0.008, -0.014, 1.024, 18:13:52.901
196, 41963.19, 49264.50, -187500.02, -187500.02, -187500.02, -187500.02, -187500.02, -187500.02, 0.000, 0.000, 0.000, 18:13:52.901
197, 42010.01, 49389.13, -187500.02, -187500.02, -187500.02, -187500.02, -187500.02, -187500.02, 0.000, 0.000, 0.000, 18:13:52.901
198, 42302.69, 49679.32, -187500.02, -187500.02, -187500.02, -187500.02, -187500.02, -187500.02, 0.000, 0.000, 0.000, 18:13:52.901
199, 42351.10, 49692.96, -187500.02, -187500.02, -187500.02, -187500.02, -187500.02, -187500.02, 0.000, 0.000, 0.000, 18:13:52.901
200, 42229.86, 49535.40, -187500.02, -187500.02, -187500.02, -187500.02, -187500.02, -187500.02, 0.000, 0.000, 0.000, 18:13:52.901
201, 41958.71, 49254.41, -187500.02, -187500.02, -187500.02, -187500.02, -187500.02, -187500.02, 0.000, 0.000, 0.000, 18:13:52.902
202, 42001.79, 49379.90, -187500.02, -187500.02, -187500.02, -187500.02, -187500.02, -187500.02, 0.000, 0.000, 0.000, 18:13:52.902
203, 42297.08, 49677.09, -187500.02, -187500.02, -187500.02, -187500.02, -187500.02, -187500.02, 0.000, 0.000, 0.000, 18:13:52.902
204, 42350.61, 49697.16, -187500.02, -187500.02, -187500.02, -187500.02, -187500.02, -187500.02, 0.000, 0.000, 0.000, 18:13:52.902
205, 42233.31, 49535.84, -187500.02, -187500.02, -187500.02, -187500.02, -187500.02, -187500.02, 0.006, -0.016, 1.026, 18:13:52.902
206, 41961.80, 49255.84, -187500.02, -187500.02, -187500.02, -187500.02, -187500.02, -187500.02, 0.000, 0.000, 0.000, 18:13:52.903
207, 42005.16, 49386.45, -187500.02, -187500.02, -187500.02, -187500.02, -187500.02, -187500.02, 0.000, 0.000, 0.000, 18:13:52.903
208, 42306.93, 49683.84, -187500.02, -187500.02, -187500.02, -187500.02, -187500.02, -187500.02, 0.000, 0.000, 0.000, 18:13:52.903
209, 42357.40, 49696.80, -187500.02, -187500.02, -187500.02, -187500.02, -187500.02, -187500.02, 0.000, 0.000, 0.000, 18:13:52.903
210, 42240.91, 49545.23, -187500.02, -187500.02, -187500.02, -187500.02, -187500.02, -187500.02, 0.000, 0.000, 0.000, 18:13:52.903
211, 41978.43, 49271.20, -187500.02, -187500.02, -187500.02, -187500.02, -187500.02, -187500.02, 0.000, 0.000, 0.000, 18:13:52.903
212, 42008.67, 49383.85, -187500.02, -187500.02, -187500.02, -187500.02, -187500.02, -187500.02, 0.000, 0.000, 0.000, 18:13:52.904
213, 42300.61, 49681.85, -187500.02, -187500.02, -187500.02, -187500.02, -187500.02, -187500.02, 0.000, 0.000, 0.000, 18:13:52.904
214, 42352.24, 49695.70, -187500.02, -187500.02, -187500.02, -187500.02, -187500.02, -187500.02, 0.000, 0.000, 0.000, 18:13:52.904
215, 42230.73, 49539.04, -187500.02, -187500.02, -187500.02, -187500.02, -187500.02, -187500.02, 0.002, -0.018, 1.034, 18:13:52.904
216, 41965.33, 49261.66, -187500.02, -187500.02, -187500.02, -187500.02, -187500.02, -187500.02, 0.000, 0.000, 0.000, 18:13:52.904
217, 41999.20, 49375.18, -187500.02, -187500.02, -187500.02, -187500.02, -187500.02, -187500.02, 0.000, 0.000, 0.000, 18:13:52.904
218, 42294.91, 49670.16, -187500.02, -187500.02, -187500.02, -187500.02, -187500.02, -187500.02, 0.000, 0.000, 0.000, 18:13:52.904
219, 42346.68, 49690.12, -187500.02, -187500.02, -187500.02, -187500.02, -187500.02, -187500.02, 0.000, 0.000, 0.000, 18:13:52.904
220, 42230.78, 49538.01, -187500.02, -187500.02, -187500.02, -187500.02, -187500.02, -187500.02, 0.000, 0.000, 0.000, 18:13:52.905
221, 41958.63, 49250.93, -187500.02, -187500.02, -187500.02, -187500.02, -187500.02, -187500.02, 0.000, 0.000, 0.000, 18:13:52.905
222, 41994.72, 49372.12, -187500.02, -187500.02, -187500.02, -187500.02, -187500.02, -187500.02, 0.000, 0.000, 0.000, 18:13:52.905
223, 42292.34, 49668.93, -187500.02, -187500.02, -187500.02, -187500.02, -187500.02, -187500.02, 0.000, 0.000, 0.000, 18:13:52.905
224, 42353.94, 49692.64, -187500.02, -187500.02, -187500.02, -187500.02, -187500.02, -187500.02, 0.000, 0.000, 0.000, 18:13:52.905
225, 42241.46, 49546.75, -187500.02, -187500.02, -187500.02, -187500.02, -187500.02, -187500.02, -0.002, -0.010, 1.032, 18:13:52.905
226, 41977.56, 49272.70, -187500.02, -187500.02, -187500.02, -187500.02, -187500.02, -187500.02, 0.000, 0.000, 0.000, 18:13:52.905
227, 42003.35, 49379.32, -187500.02, -187500.02, -187500.02, -187500.02, -187500.02, -187500.02, 0.000, 0.000, 0.000, 18:13:52.905
228, 42292.54, 49667.68, -187500.02, -187500.02, -187500.02, -187500.02, -187500.02, -187500.02, 0.000, 0.000, 0.000, 18:13:52.906
229, 42349.71, 49680.82, -187500.02, -187500.02, -187500.02, -187500.02, -187500.02, -187500.02, 0.000, 0.000, 0.000, 18:13:52.906
230, 42232.14, 49527.53, -187500.02, -187500.02, -187500.02, -187500.02, -187500.02, -187500.02, 0.000, 0.000, 0.000, 18:13:52.906
231, 41958.71, 49251.13, -187500.02, -187500.02, -187500.02, -187500.02, -187500.02, -187500.02, 0.000, 0.000, 0.000, 18:13:52.906
232, 41979.91, 49351.84, -187500.02, -187500.02, -187500.02, -187500.02, -187500.02, -187500.02, 0.000, 0.000, 0.000, 18:13:52.906
233, 42277.14, 49651.07, -187500.02, -187500.02, -187500.02, -187500.02, -187500.02, -187500.02, 0.000, 0.000, 0.000, 18:13:52.906
234, 42346.03, 49683.68, -187500.02, -187500.02, -187500.02, -187500.02, -187500.02, -187500.02, 0.000, 0.000, 0.000, 18:13:52.906
235, 42228.46, 49533.70, -187500.02, -187500.02, -187500.02, -187500.02, -187500.02, -187500.02, -0.002, -0.012, 1.030, 18:13:52.906
236, 41969.36, 49262.86, -187500.02, -187500.02, -187500.02, -187500.02, -187500.02, -187500.02, 0.000, 0.000, 0.000, 18:13:52.907
237, 42000.89, 49374.67, -187500.02, -187500.02, -187500.02, -187500.02, -187500.02, -187500.02, 0.000, 0.000, 0.000, 18:13:52.907
238, 42298.57, 49675.32, -187500.02, -187500.02, -187500.02, -187500.02, -187500.02, -187500.02, 0.000, 0.000, 0.000, 18:13:52.907
239, 42353.34, 49694.54, -187500.02, -187500.02, -187500.02, -187500.02, -187500.02, -187500.02, 0.000, 0.000, 0.000, 18:13:52.907
240, 42238.74, 49549.03, -187500.02, -187500.02, -187500.02, -187500.02, -187500.02, -187500.02, 0.000, 0.000, 0.000, 18:13:52.907
241, 41978.59, 49271.71, -187500.02, -187500.02, -187500.02, -187500.02, -187500.02, -187500.02, 0.000, 0.000, 0.000, 18:13:52.907
242, 42005.74, 49374.44, -187500.02, -187500.02, -187500.02, -187500.02, -187500.02, -187500.02, 0.000, 0.000, 0.000, 18:13:52.907
243, 42297.84, 49669.78, -187500.02, -187500.02, -187500.02, -187500.02, -187500.02, -187500.02, 0.000, 0.000, 0.000, 18:13:52.907
244, 42360.71, 49696.62, -187500.02, -187500.02, -187500.02, -187500.02, -187500.02, -187500.02, 0.000, 0.000, 0.000, 18:13:52.907
245, 42247.66, 49551.78, -187500.02, -187500.02, -187500.02, -187500.02, -187500.02, -187500.02, -0.002, -0.018, 1.032, 18:13:52.908
246, 41980.20, 49268.23, -187500.02, -187500.02, -187500.02, -187500.02, -187500.02, -187500.02, 0.000, 0.000, 0.000, 18:13:52.908
247, 41997.70, 49366.98, -187500.02, -187500.02, -187500.02, -187500.02, -187500.02, -187500.02, 0.000, 0.000, 0.000, 18:13:52.908
248, 42292.25, 49671.30, -187500.02, -187500.02, -187500.02, -187500.02, -187500.02, -187500.02, 0.000, 0.000, 0.000, 18:13:52.908
249, 42359.26, 49710.99, -187500.02, -187500.02, -187500.02, -187500.02, -187500.02, -187500.02, 0.000, 0.000, 0.000, 18:13:52.908
250, 42249.42, 49564.90, -187500.02, -187500.02, -187500.02, -187500.02, -187500.02, -187500.02, 0.000, 0.000, 0.000, 18:13:52.908
251, 41983.08, 49283.43, -187500.02, -187500.02, -187500.02, -187500.02, -187500.02, -187500.02, 0.000, 0.000, 0.000, 18:13:52.909
252, 41997.56, 49377.21, -187500.02, -187500.02, -187500.02, -187500.02, -187500.02, -187500.02, 0.000, 0.000, 0.000, 18:13:52.909
253, 42294.68, 49677.11, -187500.02, -187500.02, -187500.02, -187500.02, -187500.02, -187500.02, 0.000, 0.000, 0.000, 18:13:52.909
254, 42350.00, 49702.81, -187500.02, -187500.02, -187500.02, -187500.02, -187500.02, -187500.02, 0.000, 0.000, 0.000, 18:13:52.909
255, 42242.43, 49561.77, -187500.02, -187500.02, -187500.02, -187500.02, -187500.02, -187500.02, -0.002, -0.018, 1.030, 18:13:52.909
0, 41978.70, 49277.64, -187500.02, -187500.02, -187500.02, -187500.02, -187500.02, -187500.02, 0.000, 0.000, 0.000, 18:13:52.909
1, 41990.50, 49372.12, -187500.02, -187500.02, -187500.02, -187500.02, -187500.02, -187500.02, 0.000, 0.000, 0.000, 18:13:52.909
2, 42286.32, 49670.87, -187500.02, -187500.02, -187500.02, -187500.02, -187500.02, -187500.02, 0.000, 0.000, 0.000, 18:13:52.909
3, 42352.31, 49697.63, -187500.02, -187500.02, -187500.02, -187500.02, -187500.02, -187500.02, 0.000, 0.000, 0.000, 18:13:52.909
4, 42241.02, 49549.52, -187500.02, -187500.02, -187500.02, -187500.02, -187500.02, -187500.02, 0.000, 0.000, 0.000, 18:13:52.910
5, 41973.11, 49269.50, -187500.02, -187500.02, -187500.02, -187500.02, -187500.02, -187500.02, 0.000, 0.000, 0.000, 18:13:52.910
6, 41992.85, 49370.55, -187500.02, -187500.02, -187500.02, -187500.02, -187500.02, -187500.02, 0.000, 0.000, 0.000, 18:13:53.375
7, 42289.28, 49670.69, -187500.02, -187500.02, -187500.02, -187500.02, -187500.02, -187500.02, 0.000, 0.000, 0.000, 18:13:53.375
8, 42351.55, 49697.07, -187500.02, -187500.02, -187500.02, -187500.02, -187500.02, -187500.02, 0.000, 0.000, 0.000, 18:13:53.376
9, 42245.73, 49555.96, -187500.02, -187500.02, -187500.02, -187500.02, -187500.02, -187500.02, -0.006, -0.014, 1.022, 18:13:53.376
10, 41986.27, 49276.68, -187500.02, -187500.02, -187500.02, -187500.02, -187500.02, -187500.02, 0.000, 0.000, 0.000, 18:13:53.376
11, 41996.42, 49370.53, -187500.02, -187500.02, -187500.02, -187500.02, -187500.02, -187500.02, 0.000, 0.000, 0.000, 18:13:53.376
12, 42287.40, 49667.65, -187500.02, -187500.02, -187500.02, -187500.02, -187500.02, -187500.02, 0.000, 0.000, 0.000, 18:13:53.376
13, 42357.49, 49694.43, -187500.02, -187500.02, -187500.02, -187500.02, -187500.02, -187500.02, 0.000, 0.000, 0.000, 18:13:53.376
14, 42248.39, 49554.17, -187500.02, -187500.02, -187500.02, -187500.02, -187500.02, -187500.02, 0.000, 0.000, 0.000, 18:13:53.377
15, 41982.92, 49270.21, -187500.02, -187500.02, -187500.02, -187500.02, -187500.02, -187500.02, 0.000, 0.000, 0.000, 18:13:53.377
16, 41982.86, 49354.19, -187500.02, -187500.02, -187500.02, -187500.02, -187500.02, -187500.02, 0.000, 0.000, 0.000, 18:13:53.377
17, 42280.51, 49657.57, -187500.02, -187500.02, -187500.02, -187500.02, -187500.02, -187500.02, 0.000, 0.000, 0.000, 18:13:53.377
18, 42352.11, 49689.45, -187500.02, -187500.02, -187500.02, -187500.02, -187500.02, -187500.02, 0.000, 0.000, 0.000, 18:13:53.377
19, 42249.13, 49561.77, -187500.02, -187500.02, -187500.02, -187500.02, -187500.02, -187500.02, -0.002, -0.012, 1.030, 18:13:53.378
20, 41982.07, 49274.04, -187500.02, -187500.02, -187500.02, -187500.02, -187500.02, -187500.02, 0.000, 0.000, 0.000, 18:13:53.378
21, 41986.34, 49361.99, -187500.02, -187500.02, -187500.02, -187500.02, -187500.02, -187500.02, 0.000, 0.000, 0.000, 18:13:53.378
22, 42290.66, 49669.20, -187500.02, -187500.02, -187500.02, -187500.02, -187500.02, -187500.02, 0.000, 0.000, 0.000, 18:13:53.378
23, 42361.98, 49701.72, -187500.02, -187500.02, -187500.02, -187500.02, -187500.02, -187500.02, 0.000, 0.000, 0.000, 18:13:53.378
24, 42254.99, 49561.39, -187500.02, -187500.02, -187500.02, -187500.02, -187500.02, -187500.02, 0.000, 0.000, 0.000, 18:13:53.379
25, 41990.23, 49277.84, -187500.02, -187500.02, -187500.02, -187500.02, -187500.02, -187500.02, 0.000, 0.000, 0.000, 18:13:53.379
26, 41986.16, 49357.59, -187500.02, -187500.02, -187500.02, -187500.02, -187500.02, -187500.02, 0.000, 0.000, 0.000, 18:13:53.379
27, 42284.70, 49661.39, -187500.02, -187500.02, -187500.02, -187500.02, -187500.02, -187500.02, 0.000, 0.000, 0.000, 18:13:53.379
28, 42358.39, 49695.01, -187500.02, -187500.02, -187500.02, -187500.02, -187500.02, -187500.02, 0.000, 0.000, 0.000, 18:13:53.379
29, 42250.03, 49558.46, -187500.02, -187500.02, -187500.02, -187500.02, -187500.02, -187500.02, 0.000, -0.012, 1.030, 18:13:53.379
30, 41987.71, 49278.26, -187500.02, -187500.02, -187500.02, -187500.02, -187500.02, -187500.02, 0.000, 0.000, 0.000, 18:13:53.380
31, 41989.38, 49358.04, -187500.02, -187500.02, -187500.02, -187500.02, -187500.02, -187500.02, 0.000, 0.000, 0.000, 18:13:53.380
32, 42285.50, 49659.59, -187500.02, -187500.02, -187500.02, -187500.02, -187500.02, -187500.02, 0.000, 0.000, 0.000, 18:13:53.380
33, 42361.34, 49696.04, -187500.02, -187500.02, -187500.02, -187500.02, -187500.02, -187500.02, 0.000, 0.000, 0.000, 18:13:53.380
34, 42258.18, 49564.97, -187500.02, -187500.02, -187500.02, -187500.02, -187500.02, -187500.02, 0.000, 0.000, 0.000, 18:13:53.380
35, 41981.76, 49271.07, -187500.02, -187500.02, -187500.02, -187500.02, -187500.02, -187500.02, 0.000, 0.000, 0.000, 18:13:53.380
36, 41984.02, 49347.87, -187500.02, -187500.02, -187500.02, -187500.02, -187500.02, -187500.02, 0.000, 0.000, 0.000, 18:13:53.381
37, 42287.04, 49665.82, -187500.02, -187500.02, -187500.02, -187500.02, -187500.02, -187500.02, 0.000, 0.000, 0.000, 18:13:53.381
38, 42353.92, 49700.42, -187500.02, -187500.02, -187500.02, -187500.02, -187500.02, -187500.02, 0.002, -0.016, 1.032, 18:13:53.381
39, 42249.27, 49563.38, -187500.02, -187500.02, -187500.02, -187500.02, -187500.02, -187500.02, 0.000, 0.000, 0.000, 18:13:53.381
40, 41986.36, 49278.58, -187500.02, -187500.02, -187500.02, -187500.02, -187500.02, -187500.02, 0.000, 0.000, 0.000, 18:13:53.381
41, 41987.06, 49355.36, -187500.02, -187500.02, -187500.02, -187500.02, -187500.02, -187500.02, 0.000, 0.000, 0.000, 18:13:53.382
42, 42287.62, 49663.03, -187500.02, -187500.02, -187500.02, -187500.02, -187500.02, -187500.02, 0.000, 0.000, 0.000, 18:13:53.382
43, 42360.27, 49697.71, -187500.02, -187500.02, -187500.02, -187500.02, -187500.02, -187500.02, 0.000, 0.000, 0.000, 18:13:53.382
44, 42248.77, 49554.93, -187500.02, -187500.02, -187500.02, -187500.02, -187500.02, -187500.02, 0.000, 0.000, 0.000, 18:13:53.382
45, 41987.68, 49280.16, -187500.02, -187500.02, -187500.02, -187500.02, -187500.02, -187500.02, 0.000, 0.000, 0.000, 18:13:53.382
46, 41980.89, 49349.05, -187500.02, -187500.02, -187500.02, -187500.02, -187500.02, -187500.02, 0.000, 0.000, 0.000, 18:13:53.383
47, 42280.76, 49654.06, -187500.02, -187500.02, -187500.02, -187500.02, -187500.02, -187500.02, 0.000, 0.000, 0.000, 18:13:53.383
48, 42350.43, 49687.55, -187500.02, -187500.02, -187500.02, -187500.02, -187500.02, -187500.02, 0.008, -0.014, 1.030, 18:13:53.383
49, 42246.92, 49555.25, -187500.02, -187500.02, -187500.02, -187500.02, -187500.02, -187500.02, 0.000, 0.000, 0.000, 18:13:53.383
50, 41982.63, 49272.05, -187500.02, -187500.02, -187500.02, -187500.02, -187500.02, -187500.02, 0.000, 0.000, 0.000, 18:13:53.383
51, 41983.91, 49355.46, -187500.02, -187500.02, -187500.02, -187500.02, -187500.02, -187500.02, 0.000, 0.000, 0.000, 18:13:53.384
52, 42281.92, 49662.56, -187500.02, -187500.02, -187500.02, -187500.02, -187500.02, -187500.02, 0.000, 0.000, 0.000, 18:13:53.384
53, 42353.38, 49694.54, -187500.02, -187500.02, -187500.02, -187500.02, -187500.02, -187500.02, 0.000, 0.000, 0.000, 18:13:53.384
54, 42253.49, 49559.96, -187500.02, -187500.02, -187500.02, -187500.02, -187500.02, -187500.02, 0.000, 0.000, 0.000, 18:13:53.384
55, 41994.03, 49275.38, -187500.02, -187500.02, -187500.02, -187500.02, -187500.02, -187500.02, 0.000, 0.000, 0.000, 18:13:53.384
56, 41980.57, 49346.82, -187500.02, -187500.02, -187500.02, -187500.02, -187500.02, -187500.02, 0.000, 0.000, 0.000, 18:13:53.384
57, 42270.23, 49650.73, -187500.02, -187500.02, -187500.02, -187500.02, -187500.02, -187500.02, 0.000, 0.000, 0.000, 18:13:53.385
58, 42350.25, 49693.52, -187500.02, -187500.02, -187500.02, -187500.02, -187500.02, -187500.02, 0.002, -0.014, 1.032, 18:13:53.385
59, 42255.48, 49562.82, -187500.02, -187500.02, -187500.02, -187500.02, -187500.02, -187500.02, 0.000, 0.000, 0.000, 18:13:53.385
60, 41990.34, 49283.09, -187500.02, -187500.02, -187500.02, -187500.02, -187500.02, -187500.02, 0.000, 0.000, 0.000, 18:13:53.385
61, 41978.79, 49351.15, -187500.02, -187500.02, -187500.02, -187500.02, -187500.02, -187500.02, 0.000, 0.000, 0.000, 18:13:53.385
62, 42271.02, 49664.55, -187500.02, -187500.02, -187500.02, -187500.02, -187500.02, -187500.02, 0.000, 0.000, 0.000, 18:13:53.385
63, 42350.56, 49704.55, -187500.02, -187500.02, -187500.02, -187500.02, -187500.02, -187500.02, 0.000, 0.000, 0.000, 18:13:53.386
64, 42247.12, 49567.63, -187500.02, -187500.02, -187500.02, -187500.02, -187500.02, -187500.02, 0.000, 0.000, 0.000, 18:13:53.386
65, 41995.44, 49288.84, -187500.02, -187500.02, -187500.02, -187500.02, -187500.02, -187500.02, 0.000, 0.000, 0.000, 18:13:53.386
66, 41974.47, 49351.40, -187500.02, -187500.02, -187500.02, -187500.02, -187500.02, -187500.02, 0.000, 0.000, 0.000, 18:13:53.386
67, 42273.29, 49654.58, -187500.02, -187500.02, -187500.02, -187500.02, -187500.02, -187500.02, 0.000, 0.000, 0.000, 18:13:53.386
68, 42355.21, 49696.49, -187500.02, -187500.02, -187500.02, -187500.02, -187500.02, -187500.02, 0.004, -0.010, 1.026, 18:13:53.386
69, 42262.99, 49577.08, -187500.02, -187500.02, -187500.02, -187500.02, -187500.02, -187500.02, 0.000, 0.000, 0.000, 18:13:53.387
70, 41995.35, 49279.47, -187500.02, -187500.02, -187500.02, -187500.02, -187500.02, -187500.02, 0.000, 0.000, 0.000, 18:13:53.387
71, 41975.55, 49343.78, -187500.02, -187500.02, -187500.02, -187500.02, -187500.02, -187500.02, 0.000, 0.000, 0.000, 18:13:53.387
72, 42279.39, 49666.60, -187500.02, -187500.02, -187500.02, -187500.02, -187500.02, -187500.02, 0.000, 0.000, 0.000, 18:13:53.387
73, 42361.89, 49707.57, -187500.02, -187500.02, -187500.02, -187500.02, -187500.02, -187500.02, 0.000, 0.000, 0.000, 18:13:53.387
74, 42262.48, 49573.33, -187500.02, -187500.02, -187500.02, -187500.02, -187500.02, -187500.02, 0.000, 0.000, 0.000, 18:13:53.387
75, 41995.44, 49284.16, -187500.02, -187500.02, -187500.02, -187500.02, -187500.02, -187500.02, 0.000, 0.000, 0.000, 18:13:53.388
76, 41981.02, 49345.61, -187500.02, -187500.02, -187500.02, -187500.02, -187500.02, -187500.02, 0.000, 0.000, 0.000, 18:13:53.388
77, 42273.43, 49653.75, -187500.02, -187500.02, -187500.02, -187500.02, -187500.02, -187500.02, 0.000, 0.000, 0.000, 18:13:53.388
78, 42354.39, 49701.00, -187500.02, -187500.02, -187500.02, -187500.02, -187500.02, -187500.02, 0.000, -0.014, 1.026, 18:13:53.388
79, 42250.18, 49567.27, -187500.02, -187500.02, -187500.02, -187500.02, -187500.02, -187500.02, 0.000, 0.000, 0.000, 18:13:53.388
80, 41995.17, 49284.59, -187500.02, -187500.02, -187500.02, -187500.02, -187500.02, -187500.02, 0.000, 0.000, 0.000, 18:13:53.388
81, 41965.46, 49332.64, -187500.02, -187500.02, -187500.02, -187500.02, -187500.02, -187500.02, 0.000, 0.000, 0.000, 18:13:53.389
82, 42276.22, 49660.90, -187500.02, -187500.02, -187500.02, -187500.02, -187500.02, -187500.02, 0.000, 0.000, 0.000, 18:13:53.389
83, 42359.37, 49704.89, -187500.02, -187500.02, -187500.02, -187500.02, -187500.02, -187500.02, 0.000, 0.000, 0.000, 18:13:53.389
84, 42260.00, 49580.77, -187500.02, -187500.02, -187500.02, -187500.02, -187500.02, -187500.02, 0.000, 0.000, 0.000, 18:13:53.389
85, 42002.32, 49298.31, -187500.02, -187500.02, -187500.02, -187500.02, -187500.02, -187500.02, 0.000, 0.000, 0.000, 18:13:53.389
86, 41972.68, 49344.67, -187500.02, -187500.02, -187500.02, -187500.02, -187500.02, -187500.02, 0.000, 0.000, 0.000, 18:13:53.389
87, 42275.93, 49660.50, -187500.02, -187500.02, -187500.02, -187500.02, -187500.02, -187500.02, 0.000, 0.000, 0.000, 18:13:53.390
88, 42362.10, 49704.33, -187500.02, -187500.02, -187500.02, -187500.02, -187500.02, -187500.02, 0.000, -0.018, 1.030, 18:13:53.390
89, 42263.93, 49576.68, -187500.02, -187500.02, -187500.02, -187500.02, -187500.02, -187500.02, 0.000, 0.000, 0.000, 18:13:53.390
90, 42003.60, 49293.69, -187500.02, -187500.02, -187500.02, -187500.02, -187500.02, -187500.02, 0.000, 0.000, 0.000, 18:13:53.390
91, 41977.89, 49338.34, -187500.02, -187500.02, -187500.02, -187500.02, -187500.02, -187500.02, 0.000, 0.000, 0.000, 18:13:53.390
92, 42273.79, 49652.45, -187500.02, -187500.02, -187500.02, -187500.02, -187500.02, -187500.02, 0.000, 0.000, 0.000, 18:13:53.390
93, 42363.28, 49710.84, -187500.02, -187500.02, -187500.02, -187500.02, -187500.02, -187500.02, 0.000, 0.000, 0.000, 18:13:53.391
94, 42268.24, 49585.36, -187500.02, -187500.02, -187500.02, -187500.02, -187500.02, -187500.02, 0.000, 0.000, 0.000, 18:13:53.391
95, 42009.12, 49297.17, -187500.02, -187500.02, -187500.02, -187500.02, -187500.02, -187500.02, 0.000, 0.000, 0.000, 18:13:53.391
96, 41978.54, 49348.00, -187500.02, -187500.02, -187500.02, -187500.02, -187500.02, -187500.02, 0.000, 0.000, 0.000, 18:13:53.391
97, 42268.78, 49653.59, -187500.02, -187500.02, -187500.02, -187500.02, -187500.02, -187500.02, 0.000, 0.000, 0.000, 18:13:53.391
98, 42362.14, 49708.76, -187500.02, -187500.02, -187500.02, -187500.02, -187500.02, -187500.02, 0.002, -0.016, 1.032, 18:13:53.391
99, 42269.92, 49586.98, -187500.02, -187500.02, -187500.02, -187500.02, -187500.02, -187500.02, 0.000, 0.000, 0.000, 18:13:53.392
100, 42007.26, 49297.38, -187500.02, -187500.02, -187500.02, -187500.02, -187500.02, -187500.02, 0.000, 0.000, 0.000, 18:13:53.392
101, 41971.79, 49342.79, -187500.02, -187500.02, -187500.02, -187500.02, -187500.02, -187500.02, 0.000, 0.000, 0.000, 18:13:53.392
102, 42273.61, 49664.28, -187500.02, -187500.02, -187500.02, -187500.02, -187500.02, -187500.02, 0.000, 0.000, 0.000, 18:13:53.392
103, 42365.29, 49709.25, -187500.02, -187500.02, -187500.02, -187500.02, -187500.02, -187500.02, 0.000, 0.000, 0.000, 18:13:53.392
104, 42270.01, 49583.05, -187500.02, -187500.02, -187500.02, -187500.02, -187500.02, -187500.02, 0.000, 0.000, 0.000, 18:13:53.392
105, 42010.97, 49298.94, -187500.02, -187500.02, -187500.02, -187500.02, -187500.02, -187500.02, 0.000, 0.000, 0.000, 18:13:53.393
106, 41975.43, 49346.50, -187500.02, -187500.02, -187500.02, -187500.02, -187500.02, -187500.02, 0.000, 0.000, 0.000, 18:13:53.393
107, 42265.63, 49651.89, -187500.02, -187500.02, -187500.02, -187500.02, -187500.02, -187500.02, 0.000, 0.000, 0.000, 18:13:53.393
108, 42354.25, 49699.53, -187500.02, -187500.02, -187500.02, -187500.02, -187500.02, -187500.02, 0.006, -0.018, 1.030, 18:13:53.393
109, 42260.29, 49574.20, -187500.02, -187500.02, -187500.02, -187500.02, -187500.02, -187500.02, 0.000, 0.000, 0.000, 18:13:53.393
110, 41993.11, 49286.98, -187500.02, -187500.02, -187500.02, -187500.02, -187500.02, -187500.02, 0.000, 0.000, 0.000, 18:13:53.394
111, 41959.34, 49333.34, -187500.02, -187500.02, -187500.02, -187500.02, -187500.02, -187500.02, 0.000, 0.000, 0.000, 18:13:53.394
112, 42261.52, 49652.36, -187500.02, -187500.02, -187500.02, -187500.02, -187500.02, -187500.02, 0.000, 0.000, 0.000, 18:13:53.394
113, 42351.64, 49699.19, -187500.02, -187500.02, -187500.02, -187500.02, -187500.02, -187500.02, 0.000, 0.000, 0.000, 18:13:53.394
114, 42256.57, 49578.96, -187500.02, -187500.02, -187500.02, -187500.02, -187500.02, -187500.02, 0.000, 0.000, 0.000, 18:13:53.394
115, 41999.66, 49294.38, -187500.02, -187500.02, -187500.02, -187500.02, -187500.02, -187500.02, 0.000, 0.000, 0.000, 18:13:53.394
116, 41955.79, 49321.78, -187500.02, -187500.02, -187500.02, -187500.02, -187500.02, -187500.02, 0.000, 0.000, 0.000, 18:13:53.395
117, 42253.49, 49645.30, -187500.02, -187500.02, -187500.02, -187500.02, -187500.02, -187500.02, 0.000, 0.000, 0.000, 18:13:53.395
118, 42352.57, 49705.85, -187500.02, -187500.02, -187500.02, -187500.02, -187500.02, -187500.02, 0.000, -0.016, 1.026, 18:13:53.395
119, 42256.08, 49571.79, -187500.02, -187500.02, -187500.02, -187500.02, -187500.02, -187500.02, 0.000, 0.000, 0.000, 18:13:53.395
120, 41989.56, 49286.55, -187500.02, -187500.02, -187500.02, -187500.02, -187500.02, -187500.02, 0.000, 0.000, 0.000, 18:13:53.395
121, 41943.29, 49324.58, -187500.02, -187500.02, -187500.02, -187500.02, -187500.02, -187500.02, 0.000, 0.000, 0.000, 18:13:53.396
122, 42241.35, 49628.61, -187500.02, -187500.02, -187500.02, -187500.02, -187500.02, -187500.02, 0.000, 0.000, 0.000, 18:13:53.396
123, 42343.70, 49684.17, -187500.02, -187500.02, -187500.02, -187500.02, -187500.02, -187500.02, 0.000, 0.000, 0.000, 18:13:53.396
124, 42230.09, 49547.07, -187500.02, -187500.02, -187500.02, -187500.02, -187500.02, -187500.02, 0.000, 0.000, 0.000, 18:13:53.396
125, 41957.84, 49260.54, -187500.02, -187500.02, -187500.02, -187500.02, -187500.02, -187500.02, 0.000, 0.000, 0.000, 18:13:53.396
126, 41893.61, 49268.05, -187500.02, -187500.02, -187500.02, -187500.02, -187500.02, -187500.02, 0.000, 0.000, 0.000, 18:13:53.396
127, 42168.78, 49569.08, -187500.02, -187500.02, -187500.02, -187500.02, -187500.02, -187500.02, 0.000, 0.000, 0.000, 18:13:53.855
128, 42256.17, 49616.13, -187500.02, -187500.02, -187500.02, -187500.02, -187500.02, -187500.02, -0.004, -0.016, 1.024, 18:13:53.855
129, 42153.73, 49475.16, -187500.02, -187500.02, -187500.02, -187500.02, -187500.02, -187500.02, 0.000, 0.000, 0.000, 18:13:53.855
130, 41874.76, 49169.50, -187500.02, -187500.02, -187500.02, -187500.02, -187500.02, -187500.02, 0.000, 0.000, 0.000, 18:13:53.856
131, 41775.66, 49173.70, -187500.02, -187500.02, -187500.02, -187500.02, -187500.02, -187500.02, 0.000, 0.000, 0.000, 18:13:53.856
132, 42059.66, 49472.19, -187500.02, -187500.02, -187500.02, -187500.02, -187500.02, -187500.02, 0.000, 0.000, 0.000, 18:13:53.856
133, 42140.37, 49508.51, -187500.02, -187500.02, -187500.02, -187500.02, -187500.02, -187500.02, 0.000, 0.000, 0.000, 18:13:53.856
134, 41999.93, 49334.84, -187500.02, -187500.02, -187500.02, -187500.02, -187500.02, -187500.02, 0.000, 0.000, 0.000, 18:13:53.856
135, 41693.82, 49023.70, -187500.02, -187500.02, -187500.02, -187500.02, -187500.02, -187500.02, 0.000, 0.000, 0.000, 18:13:53.856
136, 41621.50, 49040.69, -187500.02, -187500.02, -187500.02, -187500.02, -187500.02, -187500.02, 0.000, 0.000, 0.000, 18:13:53.856
137, 41884.91, 49318.36, -187500.02, -187500.02, -187500.02, -187500.02, -187500.02, -187500.02, 0.000, 0.000, 0.000, 18:13:53.856
138, 41974.14, 49369.21, -187500.02, -187500.02, -187500.02, -187500.02, -187500.02, -187500.02, -0.004, -0.014, 1.020, 18:13:53.856
139, 41863.34, 49236.02, -187500.02, -187500.02, -187500.02, -187500.02, -187500.02, -187500.02, 0.000, 0.000, 0.000, 18:13:53.857
140, 41590.43, 48935.34, -187500.02, -187500.02, -187500.02, -187500.02, -187500.02, -187500.02, 0.000, 0.000, 0.000, 18:13:53.857
141, 41509.94, 48922.51, -187500.02, -187500.02, -187500.02, -187500.02, -187500.02, -187500.02, 0.000, 0.000, 0.000, 18:13:53.857
142, 41798.68, 49236.11, -187500.02, -187500.02, -187500.02, -187500.02, -187500.02, -187500.02, 0.000, 0.000, 0.000, 18:13:53.857
143, 41880.64, 49277.68, -187500.02, -187500.02, -187500.02, -187500.02, -187500.02, -187500.02, 0.000, 0.000, 0.000, 18:13:53.857
144, 41776.82, 49144.40, -187500.02, -187500.02, -187500.02, -187500.02, -187500.02, -187500.02, 0.000, 0.000, 0.000, 18:13:53.857
145, 41518.63, 48847.79, -187500.02, -187500.02, -187500.02, -187500.02, -187500.02, -187500.02, 0.000, 0.000, 0.000, 18:13:53.857
146, 41446.59, 48860.42, -187500.02, -187500.02, -187500.02, -187500.02, -187500.02, -187500.02, 0.000, 0.000, 0.000, 18:13:53.857
147, 41726.82, 49161.48, -187500.02, -187500.02, -187500.02, -187500.02, -187500.02, -187500.02, 0.000, 0.000, 0.000, 18:13:53.858
148, 41831.04, 49219.70, -187500.02, -187500.02, -187500.02, -187500.02, -187500.02, -187500.02, 0.004, -0.012, 1.016, 18:13:53.858
149, 41735.87, 49097.10, -187500.02, -187500.02, -187500.02, -187500.02, -187500.02, -187500.02, 0.000, 0.000, 0.000, 18:13:53.858
150, 41476.03, 48815.67, -187500.02, -187500.02, -187500.02, -187500.02, -187500.02, -187500.02, 0.000, 0.000, 0.000, 18:13:53.858
151, 41412.59, 48826.89, -187500.02, -187500.02, -187500.02, -187500.02, -187500.02, -187500.02, 0.000, 0.000, 0.000, 18:13:53.858
152, 41711.62, 49144.96, -187500.02, -187500.02, -187500.02, -187500.02, -187500.02, -187500.02, 0.000, 0.000, 0.000, 18:13:53.858
153, 41808.15, 49202.31, -187500.02, -187500.02, -187500.02, -187500.02, -187500.02, -187500.02, 0.000, 0.000, 0.000, 18:13:53.858
154, 41723.35, 49084.18, -187500.02, -187500.02, -187500.02, -187500.02, -187500.02, -187500.02, 0.000, 0.000, 0.000, 18:13:53.858
155, 41469.55, 48792.87, -187500.02, -187500.02, -187500.02, -187500.02, -187500.02, -187500.02, 0.000, 0.000, 0.000, 18:13:53.859
156, 41406.79, 48803.38, -187500.02, -187500.02, -187500.02, -187500.02, -187500.02, -187500.02, 0.000, 0.000, 0.000, 18:13:53.859
157, 41700.55, 49123.57, -187500.02, -187500.02, -187500.02, -187500.02, -187500.02, -187500.02, 0.000, 0.000, 0.000, 18:13:53.859
158, 41789.25, 49175.07, -187500.02, -187500.02, -187500.02, -187500.02, -187500.02, -187500.02, 0.002, -0.020, 1.018, 18:13:53.859
159, 41698.83, 49052.98, -187500.02, -187500.02, -187500.02, -187500.02, -187500.02, -187500.02, 0.000, 0.000, 0.000, 18:13:53.859
160, 41439.82, 48766.52, -187500.02, -187500.02, -187500.02, -187500.02, -187500.02, -187500.02, 0.000, 0.000, 0.000, 18:13:53.859
161, 41379.36, 48779.62, -187500.02, -187500.02, -187500.02, -187500.02, -187500.02, -187500.02, 0.000, 0.000, 0.000, 18:13:53.859
162, 41687.79, 49105.44, -187500.02, -187500.02, -187500.02, -187500.02, -187500.02, -187500.02, 0.000, 0.000, 0.000, 18:13:53.859
163, 41791.52, 49171.24, -187500.02, -187500.02, -187500.02, -187500.02, -187500.02, -187500.02, 0.000, 0.000, 0.000, 18:13:53.860
164, 41702.88, 49055.02, -187500.02, -187500.02, -187500.02, -187500.02, -187500.02, -187500.02, 0.000, 0.000, 0.000, 18:13:53.860
165, 41452.52, 48774.84, -187500.02, -187500.02, -187500.02, -187500.02, -187500.02, -187500.02, 0.000, 0.000, 0.000, 18:13:53.860
166, 41391.41, 48795.00, -187500.02, -187500.02, -187500.02, -187500.02, -187500.02, -187500.02, 0.000, 0.000, 0.000, 18:13:53.860
167, 41680.41, 49103.27, -187500.02, -187500.02, -187500.02, -187500.02, -187500.02, -187500.02, 0.004, -0.020, 1.018, 18:13:53.860
168, 41795.75, 49171.42, -187500.02, -187500.02, -187500.02, -187500.02, -187500.02, -187500.02, 0.000, 0.000, 0.000, 18:13:53.860
169, 41712.76, 49063.11, -187500.02, -187500.02, -187500.02, -187500.02, -187500.02, -187500.02, 0.000, 0.000, 0.000, 18:13:53.861
170, 41443.02, 48772.29, -187500.02, -187500.02, -187500.02, -187500.02, -187500.02, -187500.02, 0.000, 0.000, 0.000, 18:13:53.861
171, 41374.04, 48774.95, -187500.02, -187500.02, -187500.02, -187500.02, -187500.02, -187500.02, 0.000, 0.000, 0.000, 18:13:53.861
172, 41675.16, 49097.08, -187500.02, -187500.02, -187500.02, -187500.02, -187500.02, -187500.02, 0.000, 0.000, 0.000, 18:13:53.861
173, 41790.18, 49168.67, -187500.02, -187500.02, -187500.02, -187500.02, -187500.02, -187500.02, 0.000, 0.000, 0.000, 18:13:53.861
174, 41701.60, 49055.13, -187500.02, -187500.02, -187500.02, -187500.02, -187500.02, -187500.02, 0.000, 0.000, 0.000, 18:13:53.861
175, 41445.00, 48766.81, -187500.02, -187500.02, -187500.02, -187500.02, -187500.02, -187500.02, 0.000, 0.000, 0.000, 18:13:53.862
176, 41369.70, 48767.50, -187500.02, -187500.02, -187500.02, -187500.02, -187500.02, -187500.02, 0.000, 0.000, 0.000, 18:13:53.862
177, 41666.67, 49088.14, -187500.02, -187500.02, -187500.02, -187500.02, -187500.02, -187500.02, 0.002, -0.016, 1.030, 18:13:53.862
178, 41766.40, 49148.89, -187500.02, -187500.02, -187500.02, -187500.02, -187500.02, -187500.02, 0.000, 0.000, 0.000, 18:13:53.862
179, 41684.75, 49043.28, -187500.02, -187500.02, -187500.02, -187500.02, -187500.02, -187500.02, 0.000, 0.000, 0.000, 18:13:53.862
180, 41432.11, 48759.75, -187500.02, -187500.02, -187500.02, -187500.02, -187500.02, -187500.02, 0.000, 0.000, 0.000, 18:13:53.863
181, 41364.54, 48769.74, -187500.02, -187500.02, -187500.02, -187500.02, -187500.02, -187500.02, 0.000, 0.000, 0.000, 18:13:53.863
182, 41666.31, 49090.22, -187500.02, -187500.02, -187500.02, -187500.02, -187500.02, -187500.02, 0.000, 0.000, 0.000, 18:13:53.863
183, 41774.02, 49158.97, -187500.02, -187500.02, -187500.02, -187500.02, -187500.02, -187500.02, 0.000, 0.000, 0.000, 18:13:53.863
184, 41679.57, 49039.39, -187500.02, -187500.02, -187500.02, -187500.02, -187500.02, -187500.02, 0.000, 0.000, 0.000, 18:13:53.863
185, 41431.26, 48751.48, -187500.02, -187500.02, -187500.02, -187500.02, -187500.02, -187500.02, 0.000, 0.000, 0.000, 18:13:53.863
186, 41359.73, 48756.24, -187500.02, -187500.02, -187500.02, -187500.02, -187500.02, -187500.02, 0.000, 0.000, 0.000, 18:13:53.864
187, 41655.92, 49088.18, -187500.02, -187500.02, -187500.02, -187500.02, -187500.02, -187500.02, 0.006, -0.020, 1.024, 18:13:53.864
188, 41772.86, 49163.96, -187500.02, -187500.02, -187500.02, -187500.02, -187500.02, -187500.02, 0.000, 0.000, 0.000, 18:13:53.864
189, 41683.05, 49034.99, -187500.02, -187500.02, -187500.02, -187500.02, -187500.02, -187500.02, 0.000, 0.000, 0.000, 18:13:53.864
190, 41430.36, 48751.95, -187500.02, -187500.02, -187500.02, -187500.02, -187500.02, -187500.02, 0.000, 0.000, 0.000, 18:13:53.864
191, 41365.86, 48764.78, -187500.02, -187500.02, -187500.02, -187500.02, -187500.02, -187500.02, 0.000, 0.000, 0.000, 18:13:53.864
192, 41667.96, 49093.44, -187500.02, -187500.02, -187500.02, -187500.02, -187500.02, -187500.02, 0.000, 0.000, 0.000, 18:13:53.865
193, 41779.36, 49162.17, -187500.02, -187500.02, -187500.02, -187500.02, -187500.02, -187500.02, 0.000, 0.000, 0.000, 18:13:53.865
194, 41695.86, 49046.95, -187500.02, -187500.02, -187500.02, -187500.02, -187500.02, -187500.02, 0.000, 0.000, 0.000, 18:13:53.865
195, 41449.32, 48778.01, -187500.02, -187500.02, -187500.02, -187500.02, -187500.02, -187500.02, 0.000, 0.000, 0.000, 18:13:53.865
196, 41364.98, 48764.98, -187500.02, -187500.02, -187500.02, -187500.02, -187500.02, -187500.02, 0.000, 0.000, 0.000, 18:13:53.865
197, 41650.78, 49079.20, -187500.02, -187500.02, -187500.02, -187500.02, -187500.02, -187500.02, 0.002, -0.012, 1.024, 18:13:53.865
198, 41769.93, 49153.23, -187500.02, -187500.02, -187500.02, -187500.02, -187500.02, -187500.02, 0.000, 0.000, 0.000, 18:13:53.865
199, 41689.71, 49041.02, -187500.02, -187500.02, -187500.02, -187500.02, -187500.02, -187500.02, 0.000, 0.000, 0.000, 18:13:53.865
200, 41445.25, 48769.96, -187500.02, -187500.02, -187500.02, -187500.02, -187500.02, -187500.02, 0.000, 0.000, 0.000, 18:13:53.866
201, 41374.48, 48775.39, -187500.02, -187500.02, -187500.02, -187500.02, -187500.02, -187500.02, 0.000, 0.000, 0.000, 18:13:53.866
202, 41665.35, 49094.55, -187500.02, -187500.02, -187500.02, -187500.02, -187500.02, -187500.02, 0.000, 0.000, 0.000, 18:13:53.866
203, 41781.42, 49169.28, -187500.02, -187500.02, -187500.02, -187500.02, -187500.02, -187500.02, 0.000, 0.000, 0.000, 18:13:53.866
204, 41697.96, 49059.82, -187500.02, -187500.02, -187500.02, -187500.02, -187500.02, -187500.02, 0.000, 0.000, 0.000, 18:13:53.866
205, 41449.57, 48776.78, -187500.02, -187500.02, -187500.02, -187500.02, -187500.02, -187500.02, 0.000, 0.000, 0.000, 18:13:53.866
206, 41367.67, 48771.75, -187500.02, -187500.02, -187500.02, -187500.02, -187500.02, -187500.02, 0.000, 0.000, 0.000, 18:13:53.867
207, 41662.49, 49092.45, -187500.02, -187500.02, -187500.02, -187500.02, -187500.02, -187500.02, -0.002, -0.014, 1.020, 18:13:53.867
208, 41780.75, 49170.44, -187500.02, -187500.02, -187500.02, -187500.02, -187500.02, -187500.02, 0.000, 0.000, 0.000, 18:13:53.867
209, 41704.31, 49064.45, -187500.02, -187500.02, -187500.02, -187500.02, -187500.02, -187500.02, 0.000, 0.000, 0.000, 18:13:53.867
210, 41463.73, 48793.16, -187500.02, -187500.02, -187500.02, -187500.02, -187500.02, -187500.02, 0.000, 0.000, 0.000, 18:13:53.867
211, 41386.33, 48783.22, -187500.02, -187500.02, -187500.02, -187500.02, -187500.02, -187500.02, 0.000, 0.000, 0.000, 18:13:53.867
212, 41668.84, 49093.46, -187500.02, -187500.02, -187500.02, -187500.02, -187500.02, -187500.02, 0.000, 0.000, 0.000, 18:13:53.867
213, 41791.12, 49181.10, -187500.02, -187500.02, -187500.02, -187500.02, -187500.02, -187500.02, 0.000, 0.000, 0.000, 18:13:53.867
214, 41706.27, 49070.97, -187500.02, -187500.02, -187500.02, -187500.02, -187500.02, -187500.02, 0.000, 0.000, 0.000, 18:13:53.867
215, 41453.23, 48783.02, -187500.02, -187500.02, -187500.02, -187500.02, -187500.02, -187500.02, 0.000, 0.000, 0.000, 18:13:53.868
216, 41367.33, 48767.66, -187500.02, -187500.02, -187500.02, -187500.02, -187500.02, -187500.02, 0.000, 0.000, 0.000, 18:13:53.868
217, 41660.36, 49090.98, -187500.02, -187500.02, -187500.02, -187500.02, -187500.02, -187500.02, 0.006, -0.014, 1.024, 18:13:53.868
218, 41791.41, 49175.49, -187500.02, -187500.02, -187500.02, -187500.02, -187500.02, -187500.02, 0.000, 0.000, 0.000, 18:13:53.868
219, 41718.88, 49078.19, -187500.02, -187500.02, -187500.02, -187500.02, -187500.02, -187500.02, 0.000, 0.000, 0.000, 18:13:53.868
220, 41463.76, 48791.66, -187500.02, -187500.02, -187500.02, -187500.02, -187500.02, -187500.02, 0.000, 0.000, 0.000, 18:13:53.868
221, 41378.35, 48779.98, -187500.02, -187500.02, -187500.02, -187500.02, -187500.02, -187500.02, 0.000, 0.000, 0.000, 18:13:53.868
222, 41680.46, 49115.48, -187500.02, -187500.02, -187500.02, -187500.02, -187500.02, -187500.02, 0.000, 0.000, 0.000, 18:13:53.868
223, 41785.27, 49175.00, -187500.02, -187500.02, -187500.02, -187500.02, -187500.02, -187500.02, 0.000, 0.000, 0.000, 18:13:53.868
224, 41705.29, 49061.18, -187500.02, -187500.02, -187500.02, -187500.02, -187500.02, -187500.02, 0.000, 0.000, 0.000, 18:13:53.869
225, 41464.03, 48790.46, -187500.02, -187500.02, -187500.02, -187500.02, -187500.02, -187500.02, 0.000, 0.000, 0.000, 18:13:53.869
226, 41372.47, 48768.13, -187500.02, -187500.02, -187500.02, -187500.02, -187500.02, -187500.02, 0.000, 0.000, 0.000, 18:13:53.869
227, 41652.32, 49081.23, -187500.02, -187500.02, -187500.02, -187500.02, -187500.02, -187500.02, 0.006, -0.018, 1.016, 18:13:53.869
228, 41773.29, 49167.22, -187500.02, -187500.02, -187500.02, -187500.02, -187500.02, -187500.02, 0.000, 0.000, 0.000, 18:13:53.869
229, 41705.80, 49070.44, -187500.02, -187500.02, -187500.02, -187500.02, -187500.02, -187500.02, 0.000, 0.000, 0.000, 18:13:53.869
230, 41451.89, 48785.74, -187500.02, -187500.02, -187500.02, -187500.02, -187500.02, -187500.02, 0.000, 0.000, 0.000, 18:13:53.869
231, 41351.35, 48747.81, -187500.02, -187500.02, -187500.02, -187500.02, -187500.02, -187500.02, 0.000, 0.000, 0.000, 18:13:53.869
232, 41639.69, 49067.71, -187500.02, -187500.02, -187500.02, -187500.02, -187500.02, -187500.02, 0.000, 0.000, 0.000, 18:13:53.870
233, 41783.30, 49160.45, -187500.02, -187500.02, -187500.02, -187500.02, -187500.02, -187500.02, 0.000, 0.000, 0.000, 18:13:53.870
234, 41712.64, 49062.88, -187500.02, -187500.02, -187500.02, -187500.02, -187500.02, -187500.02, 0.000, 0.000, 0.000, 18:13:53.870
235, 41457.10, 48780.85, -187500.02, -187500.02, -187500.02, -187500.02, -187500.02, -187500.02, 0.000, 0.000, 0.000, 18:13:53.870
236, 41367.80, 48769.47, -187500.02, -187500.02, -187500.02, -187500.02, -187500.02, -187500.02, 0.000, 0.000, 0.000, 18:13:53.870
237, 41658.58, 49089.30, -187500.02, -187500.02, -187500.02, -187500.02, -187500.02, -187500.02, -0.002, -0.018, 1.018, 18:13:53.870
238, 41790.45, 49174.39, -187500.02, -187500.02, -187500.02, -187500.02, -187500.02, -187500.02, 0.000, 0.000, 0.000, 18:13:53.871
239, 41716.89, 49075.46, -187500.02, -187500.02, -187500.02, -187500.02, -187500.02, -187500.02, 0.000, 0.000, 0.000, 18:13:53.871
240, 41474.13, 48807.45, -187500.02, -187500.02, -187500.02, -187500.02, -187500.02, -187500.02, 0.000, 0.000, 0.000, 18:13:53.871
241, 41384.01, 48786.57, -187500.02, -187500.02, -187500.02, -187500.02, -187500.02, -187500.02, 0.000, 0.000, 0.000, 18:13:53.871
242, 41677.08, 49102.27, -187500.02, -187500.02, -187500.02, -187500.02, -187500.02, -187500.02, 0.000, 0.000, 0.000, 18:13:53.871
243, 41813.59, 49196.99, -187500.02, -187500.02, -187500.02, -187500.02, -187500.02, -187500.02, 0.000, 0.000, 0.000, 18:13:53.872
244, 41747.89, 49108.79, -187500.02, -187500.02, -187500.02, -187500.02, -187500.02, -187500.02, 0.000, 0.000, 0.000, 18:13:53.872
245, 41503.48, 48832.14, -187500.02, -187500.02, -187500.02, -187500.02, -187500.02, -187500.02, 0.000, 0.000, 0.000, 18:13:53.872
246, 41407.93, 48815.43, -187500.02, -187500.02, -187500.02, -187500.02, -187500.02, -187500.02, 0.000, 0.000, 0.000, 18:13:53.872
247, 41723.20, 49161.03, -187500.02, -187500.02, -187500.02, -187500.02, -187500.02, -187500.02, 0.006, -0.018, 1.020, 18:13:54.335
248, 41854.85, 49240.85, -187500.02, -187500.02, -187500.02, -187500.02, -187500.02, -187500.02, 0.000, 0.000, 0.000, 18:13:54.335
249, 41768.26, 49138.16, -187500.02, -187500.02, -187500.02, -187500.02, -187500.02, -187500.02, 0.000, 0.000, 0.000, 18:13:54.336
250, 41533.70, 48877.30, -187500.02, -187500.02, -187500.02, -187500.02, -187500.02, -187500.02, 0.000, 0.000, 0.000, 18:13:54.336
251, 41431.39, 48843.68, -187500.02, -187500.02, -187500.02, -187500.02, -187500.02, -187500.02, 0.000, 0.000, 0.000, 18:13:54.336
252, 41717.61, 49170.06, -187500.02, -187500.02, -187500.02, -187500.02, -187500.02, -187500.02, 0.000, 0.000, 0.000, 18:13:54.336
253, 41853.06, 49268.16, -187500.02, -187500.02, -187500.02, -187500.02, -187500.02, -187500.02, 0.000, 0.000, 0.000, 18:13:54.336
254, 41775.36, 49164.74, -187500.02, -187500.02, -187500.02, -187500.02, -187500.02, -187500.02, 0.000, 0.000, 0.000, 18:13:54.336
255, 41528.38, 48881.16, -187500.02, -187500.02, -187500.02, -187500.02, -187500.02, -187500.02, 0.000, 0.000, 0.000, 18:13:54.336
0, 41440.58, 48859.75, -187500.02, -187500.02, -187500.02, -187500.02, -187500.02, -187500.02, 0.000, 0.000, 0.000, 18:13:54.336
1, 41734.84, 49197.21, -187500.02, -187500.02, -187500.02, -187500.02, -187500.02, -187500.02, 0.004, -0.022, 1.024, 18:13:54.336
2, 41866.02, 49285.48, -187500.02, -187500.02, -187500.02, -187500.02, -187500.02, -187500.02, 0.000, 0.000, 0.000, 18:13:54.337
3, 41791.41, 49174.64, -187500.02, -187500.02, -187500.02, -187500.02, -187500.02, -187500.02, 0.000, 0.000, 0.000, 18:13:54.337
4, 41541.14, 48897.10, -187500.02, -187500.02, -187500.02, -187500.02, -187500.02, -187500.02, 0.000, 0.000, 0.000, 18:13:54.337
5, 41436.24, 48863.57, -187500.02, -187500.02, -187500.02, -187500.02, -187500.02, -187500.02, 0.000, 0.000, 0.000, 18:13:54.337
6, 41757.53, 49215.61, -187500.02, -187500.02, -187500.02, -187500.02, -187500.02, -187500.02, 0.000, 0.000, 0.000, 18:13:54.337
7, 41908.76, 49326.18, -187500.02, -187500.02, -187500.02, -187500.02, -187500.02, -187500.02, 0.000, 0.000, 0.000, 18:13:54.337
8, 41845.82, 49232.35, -187500.02, -187500.02, -187500.02, -187500.02, -187500.02, -187500.02, 0.000, 0.000, 0.000, 18:13:54.337
9, 41625.68, 48971.75, -187500.02, -187500.02, -187500.02, -187500.02, -187500.02, -187500.02, 0.000, 0.000, 0.000, 18:13:54.337
10, 41524.06, 48954.95, -187500.02, -187500.02, -187500.02, -187500.02, -187500.02, -187500.02, 0.000, 0.000, 0.000, 18:13:54.337
11, 41814.19, 49287.32, -187500.02, -187500.02, -187500.02, -187500.02, -187500.02, -187500.02, 0.006, -0.020, 1.026, 18:13:54.338
12, 41975.66, 49406.32, -187500.02, -187500.02, -187500.02, -187500.02, -187500.02, -187500.02, 0.000, 0.000, 0.000, 18:13:54.338
13, 41942.67, 49343.53, -187500.02, -187500.02, -187500.02, -187500.02, -187500.02, -187500.02, 0.000, 0.000, 0.000, 18:13:54.338
14, 41728.05, 49106.85, -187500.02, -187500.02, -187500.02, -187500.02, -187500.02, -187500.02, 0.000, 0.000, 0.000, 18:13:54.338
15, 41651.11, 49097.57, -187500.02, -187500.02, -187500.02, -187500.02, -187500.02, -187500.02, 0.000, 0.000, 0.000, 18:13:54.338
16, 41967.28, 49442.64, -187500.02, -187500.02, -187500.02, -187500.02, -187500.02, -187500.02, 0.000, 0.000, 0.000, 18:13:54.338
17, 42110.37, 49545.95, -187500.02, -187500.02, -187500.02, -187500.02, -187500.02, -187500.02, 0.000, 0.000, 0.000, 18:13:54.338
18, 42046.78, 49460.03, -187500.02, -187500.02, -187500.02, -187500.02, -187500.02, -187500.02, 0.000, 0.000, 0.000, 18:13:54.338
19, 41827.11, 49204.61, -187500.02, -187500.02, -187500.02, -187500.02, -187500.02, -187500.02, 0.000, 0.000, 0.000, 18:13:54.339
20, 41736.11, 49177.21, -187500.02, -187500.02, -187500.02, -187500.02, -187500.02, -187500.02, 0.000, 0.000, 0.000, 18:13:54.339
21, 42030.62, 49501.36, -187500.02, -187500.02, -187500.02, -187500.02, -187500.02, -187500.02, 0.004, -0.018, 1.020, 18:13:54.339
22, 42185.59, 49620.20, -187500.02, -187500.02, -187500.02, -187500.02, -187500.02, -187500.02, 0.000, 0.000, 0.000, 18:13:54.339
23, 42126.96, 49534.73, -187500.02, -187500.02, -187500.02, -187500.02, -187500.02, -187500.02, 0.000, 0.000, 0.000, 18:13:54.339
24, 41901.94, 49273.61, -187500.02, -187500.02, -187500.02, -187500.02, -187500.02, -187500.02, 0.000, 0.000, 0.000, 18:13:54.339
25, 41807.57, 49246.10, -187500.02, -187500.02, -187500.02, -187500.02, -187500.02, -187500.02, 0.000, 0.000, 0.000, 18:13:54.339
26, 42102.01, 49576.82, -187500.02, -187500.02, -187500.02, -187500.02, -187500.02, -187500.02, 0.000, 0.000, 0.000, 18:13:54.339
27, 42240.79, 49664.88, -187500.02, -187500.02, -187500.02, -187500.02, -187500.02, -187500.02, 0.000, 0.000, 0.000, 18:13:54.339
28, 42166.21, 49569.24, -187500.02, -187500.02, -187500.02, -187500.02, -187500.02, -187500.02, 0.000, 0.000, 0.000, 18:13:54.340
29, 41927.91, 49297.02, -187500.02, -187500.02, -187500.02, -187500.02, -187500.02, -187500.02, 0.000, 0.000, 0.000, 18:13:54.340
30, 41823.13, 49252.58, -187500.02, -187500.02, -187500.02, -187500.02, -187500.02, -187500.02, 0.002, -0.018, 1.016, 18:13:54.340
31, 42112.65, 49581.71, -187500.02, -187500.02, -187500.02, -187500.02, -187500.02, -187500.02, 0.000, 0.000, 0.000, 18:13:54.340
32, 42259.23, 49690.52, -187500.02, -187500.02, -187500.02, -187500.02, -187500.02, -187500.02, 0.000, 0.000, 0.000, 18:13:54.340
33, 42184.02, 49592.24, -187500.02, -187500.02, -187500.02, -187500.02, -187500.02, -187500.02, 0.000, 0.000, 0.000, 18:13:54.340
34, 41942.46, 49312.51, -187500.02, -187500.02, -187500.02, -187500.02, -187500.02, -187500.02, 0.000, 0.000, 0.000, 18:13:54.340
35, 41826.44, 49261.97, -187500.02, -187500.02, -187500.02, -187500.02, -187500.02, -187500.02, 0.000, 0.000, 0.000, 18:13:54.340
36, 42111.27, 49585.98, -187500.02, -187500.02, -187500.02, -187500.02, -187500.02, -187500.02, 0.000, 0.000, 0.000, 18:13:54.340
37, 42255.23, 49686.65, -187500.02, -187500.02, -187500.02, -187500.02, -187500.02, -187500.02, 0.000, 0.000, 0.000, 18:13:54.341
38, 42181.61, 49583.27, -187500.02, -187500.02, -187500.02, -187500.02, -187500.02, -187500.02, 0.000, 0.000, 0.000, 18:13:54.341
39, 41944.86, 49305.42, -187500.02, -187500.02, -187500.02, -187500.02, -187500.02, -187500.02, 0.000, 0.000, 0.000, 18:13:54.341
40, 41827.58, 49248.76, -187500.02, -187500.02, -187500.02, -187500.02, -187500.02, -187500.02, 0.000, -0.020, 1.022, 18:13:54.341
41, 42105.70, 49564.59, -187500.02, -187500.02, -187500.02, -187500.02, -187500.02, -187500.02, 0.000, 0.000, 0.000, 18:13:54.341
42, 42260.89, 49686.05, -187500.02, -187500.02, -187500.02, -187500.02, -187500.02, -187500.02, 0.000, 0.000, 0.000, 18:13:54.342
43, 42201.66, 49599.19, -187500.02, -187500.02, -187500.02, -187500.02, -187500.02, -187500.02, 0.000, 0.000, 0.000, 18:13:54.342
44, 41965.38, 49325.00, -187500.02, -187500.02, -187500.02, -187500.02, -187500.02, -187500.02, 0.000, 0.000, 0.000, 18:13:54.342
45, 41845.77, 49271.13, -187500.02, -187500.02, -187500.02, -187500.02, -187500.02, -187500.02, 0.000, 0.000, 0.000, 18:13:54.342
46, 42133.24, 49596.53, -187500.02, -187500.02, -187500.02, -187500.02, -187500.02, -187500.02, 0.000, 0.000, 0.000, 18:13:54.342
47, 42276.82, 49697.38, -187500.02, -187500.02, -187500.02, -187500.02, -187500.02, -187500.02, 0.000, 0.000, 0.000, 18:13:54.342
48, 42209.05, 49604.24, -187500.02, -187500.02, -187500.02, -187500.02, -187500.02, -187500.02, 0.000, 0.000, 0.000, 18:13:54.343
49, 41972.33, 49334.68, -187500.02, -187500.02, -187500.02, -187500.02, -187500.02, -187500.02, 0.000, 0.000, 0.000, 18:13:54.343
50, 41847.92, 49272.05, -187500.02, -187500.02, -187500.02, -187500.02, -187500.02, -187500.02, 0.000, -0.020, 1.022, 18:13:54.343
51, 42119.58, 49581.11, -187500.02, -187500.02, -187500.02, -187500.02, -187500.02, -187500.02, 0.000, 0.000, 0.000, 18:13:54.343
52, 42264.93, 49686.34, -187500.02, -187500.02, -187500.02, -187500.02, -187500.02, -187500.02, 0.000, 0.000, 0.000, 18:13:54.343
53, 42204.00, 49596.15, -187500.02, -187500.02, -187500.02, -187500.02, -187500.02, -187500.02, 0.000, 0.000, 0.000, 18:13:54.344
54, 41967.97, 49329.14, -187500.02, -187500.02, -187500.02, -187500.02, -187500.02, -187500.02, 0.000, 0.000, 0.000, 18:13:54.344
55, 41850.29, 49273.43, -187500.02, -187500.02, -187500.02, -187500.02, -187500.02, -187500.02, 0.000, 0.000, 0.000, 18:13:54.344
56, 42135.52, 49598.27, -187500.02, -187500.02, -187500.02, -187500.02, -187500.02, -187500.02, 0.000, 0.000, 0.000, 18:13:54.344
57, 42284.98, 49708.02, -187500.02, -187500.02, -187500.02, -187500.02, -187500.02, -187500.02, 0.000, 0.000, 0.000, 18:13:54.344
58, 42225.37, 49619.86, -187500.02, -187500.02, -187500.02, -187500.02, -187500.02, -187500.02, 0.000, 0.000, 0.000, 18:13:54.344
59, 41995.60, 49349.25, -187500.02, -187500.02, -187500.02, -187500.02, -187500.02, -187500.02, 0.000, 0.000, 0.000, 18:13:54.345
60, 41866.27, 49286.33, -187500.02, -187500.02, -187500.02, -187500.02, -187500.02, -187500.02, 0.004, -0.020, 1.024, 18:13:54.345
61, 42142.83, 49610.59, -187500.02, -187500.02, -187500.02, -187500.02, -187500.02, -187500.02, 0.000, 0.000, 0.000, 18:13:54.345
62, 42296.68, 49724.43, -187500.02, -187500.02, -187500.02, -187500.02, -187500.02, -187500.02, 0.000, 0.000, 0.000, 18:13:54.345
63, 42234.80, 49633.75, -187500.02, -187500.02, -187500.02, -187500.02, -187500.02, -187500.02, 0.000, 0.000, 0.000, 18:13:54.345
64, 42001.00, 49360.79, -187500.02, -187500.02, -187500.02, -187500.02, -187500.02, -187500.02, 0.000, 0.000, 0.000, 18:13:54.346
65, 41872.97, 49299.92, -187500.02, -187500.02, -187500.02, -187500.02, -187500.02, -187500.02, 0.000, 0.000, 0.000, 18:13:54.346
66, 42143.99, 49614.59, -187500.02, -187500.02, -187500.02, -187500.02, -187500.02, -187500.02, 0.000, 0.000, 0.000, 18:13:54.346
67, 42296.74, 49727.11, -187500.02, -187500.02, -187500.02, -187500.02, -187500.02, -187500.02, 0.000, 0.000, 0.000, 18:13:54.346
68, 42235.68, 49639.76, -187500.02, -187500.02, -187500.02, -187500.02, -187500.02, -187500.02, 0.000, 0.000, 0.000, 18:13:54.346
69, 42002.17, 49367.71, -187500.02, -187500.02, -187500.02, -187500.02, -187500.02, -187500.02, 0.000, 0.000, 0.000, 18:13:54.346
70, 41871.59, 49296.28, -187500.02, -187500.02, -187500.02, -187500.02, -187500.02, -187500.02, -0.002, -0.020, 1.020, 18:13:54.346
71, 42145.42, 49605.47, -187500.02, -187500.02, -187500.02, -187500.02, -187500.02, -187500.02, 0.000, 0.000, 0.000, 18:13:54.347
72, 42308.34, 49718.57, -187500.02, -187500.02, -187500.02, -187500.02, -187500.02, -187500.02, 0.000, 0.000, 0.000, 18:13:54.347
73, 42239.88, 49632.20, -187500.02, -187500.02, -187500.02, -187500.02, -187500.02, -187500.02, 0.000, 0.000, 0.000, 18:13:54.347
74, 41999.11, 49361.14, -187500.02, -187500.02, -187500.02, -187500.02, -187500.02, -187500.02, 0.000, 0.000, 0.000, 18:13:54.347
75, 41869.20, 49299.99, -187500.02, -187500.02, -187500.02, -187500.02, -187500.02, -187500.02, 0.000, 0.000, 0.000, 18:13:54.347
76, 42146.00, 49620.89, -187500.02, -187500.02, -187500.02, -187500.02, -187500.02, -187500.02, 0.000, 0.000, 0.000, 18:13:54.348
77, 42304.56, 49730.59, -187500.02, -187500.02, -187500.02, -187500.02, -187500.02, -187500.02, 0.000, 0.000, 0.000, 18:13:54.348
78, 42236.48, 49643.80, -187500.02, -187500.02, -187500.02, -187500.02, -187500.02, -187500.02, 0.000, 0.000, 0.000, 18:13:54.348
79, 42011.22, 49380.39, -187500.02, -187500.02, -187500.02, -187500.02, -187500.02, -187500.02, 0.000, 0.000, 0.000, 18:13:54.348
80, 41876.42, 49306.07, -187500.02, -187500.02, -187500.02, -187500.02, -187500.02, -187500.02, 0.000, -0.020, 1.026, 18:13:54.348
81, 42145.29, 49617.70, -187500.02, -187500.02, -187500.02, -187500.02, -187500.02, -187500.02, 0.000, 0.000, 0.000, 18:13:54.348
82, 42302.91, 49731.58, -187500.02, -187500.02, -187500.02, -187500.02, -187500.02, -187500.02, 0.000, 0.000, 0.000, 18:13:54.349
83, 42246.58, 49647.38, -187500.02, -187500.02, -187500.02, -187500.02, -187500.02, -187500.02, 0.000, 0.000, 0.000, 18:13:54.349
84, 42016.54, 49378.00, -187500.02, -187500.02, -187500.02, -187500.02, -187500.02, -187500.02, 0.000, 0.000, 0.000, 18:13:54.349
85, 41880.98, 49306.34, -187500.02, -187500.02, -187500.02, -187500.02, -187500.02, -187500.02, 0.000, 0.000, 0.000, 18:13:54.349
86, 42154.18, 49624.94, -187500.02, -187500.02, -187500.02, -187500.02, -187500.02, -187500.02, 0.000, 0.000, 0.000, 18:13:54.349
87, 42314.69, 49741.26, -187500.02, -187500.02, -187500.02, -187500.02, -187500.02, -187500.02, 0.000, 0.000, 0.000, 18:13:54.349
88, 42255.50, 49656.05, -187500.02, -187500.02, -187500.02, -187500.02, -187500.02, -187500.02, 0.000, 0.000, 0.000, 18:13:54.350
89, 42021.99, 49387.14, -187500.02, -187500.02, -187500.02, -187500.02, -187500.02, -187500.02, 0.000, 0.000, 0.000, 18:13:54.350
90, 41887.86, 49310.56, -187500.02, -187500.02, -187500.02, -187500.02, -187500.02, -187500.02, 0.002, -0.020, 1.024, 18:13:54.350
91, 42157.98, 49623.53, -187500.02, -187500.02, -187500.02, -187500.02, -187500.02, -187500.02, 0.000, 0.000, 0.000, 18:13:54.350
92, 42311.25, 49736.50, -187500.02, -187500.02, -187500.02, -187500.02, -187500.02, -187500.02, 0.000, 0.000, 0.000, 18:13:54.350
93, 42255.59, 49653.57, -187500.02, -187500.02, -187500.02, -187500.02, -187500.02, -187500.02, 0.000, 0.000, 0.000, 18:13:54.351
94, 42019.38, 49381.33, -187500.02, -187500.02, -187500.02, -187500.02, -187500.02, -187500.02, 0.000, 0.000, 0.000, 18:13:54.351
95, 41876.24, 49300.30, -187500.02, -187500.02, -187500.02, -187500.02, -187500.02, -187500.02, 0.000, 0.000, 0.000, 18:13:54.351
96, 42139.56, 49607.66, -187500.02, -187500.02, -187500.02, -187500.02, -187500.02, -187500.02, 0.000, 0.000, 0.000, 18:13:54.351
97, 42294.46, 49724.20, -187500.02, -187500.02, -187500.02, -187500.02, -187500.02, -187500.02, 0.000, 0.000, 0.000, 18:13:54.351
98, 42238.94, 49642.11, -187500.02, -187500.02, -187500.02, -187500.02, -187500.02, -187500.02, 0.000, 0.000, 0.000, 18:13:54.351
99, 42014.91, 49376.23, -187500.02, -187500.02, -187500.02, -187500.02, -187500.02, -187500.02, 0.000, 0.000, 0.000, 18:13:54.351
100, 41881.11, 49307.97, -187500.02, -187500.02, -187500.02, -187500.02, -187500.02, -187500.02, 0.002, -0.020, 1.036, 18:13:54.351
101, 42149.98, 49620.38, -187500.02, -187500.02, -187500.02, -187500.02, -187500.02, -187500.02, 0.000, 0.000, 0.000, 18:13:54.351
102, 42309.53, 49738.22, -187500.02, -187500.02, -187500.02, -187500.02, -187500.02, -187500.02, 0.000, 0.000, 0.000, 18:13:54.352
103, 42251.68, 49648.23, -187500.02, -187500.02, -187500.02, -187500.02, -187500.02, -187500.02, 0.000, 0.000, 0.000, 18:13:54.352
104, 42025.19, 49385.24, -187500.02, -187500.02, -187500.02, -187500.02, -187500.02, -187500.02, 0.000, 0.000, 0.000, 18:13:54.352
105, 41888.04, 49309.87, -187500.02, -187500.02, -187500.02, -187500.02, -187500.02, -187500.02, 0.000, 0.000, 0.000, 18:13:54.352
106, 42154.27, 49624.78, -187500.02, -187500.02, -187500.02, -187500.02, -187500.02, -187500.02, 0.000, 0.000, 0.000, 18:13:54.352
107, 42318.80, 49749.24, -187500.02, -187500.02, -187500.02, -187500.02, -187500.02, -187500.02, 0.000, 0.000, 0.000, 18:13:54.352
108, 42262.07, 49665.26, -187500.02, -187500.02, -187500.02, -187500.02, -187500.02, -187500.02, 0.000, 0.000, 0.000, 18:13:54.352
109, 42036.03, 49399.10, -187500.02, -187500.02, -187500.02, -187500.02, -187500.02, -187500.02, 0.000, 0.000, 0.000, 18:13:54.352
110, 41887.61, 49308.35, -187500.02, -187500.02, -187500.02, -187500.02, -187500.02, -187500.02, 0.002, -0.022, 1.024, 18:13:54.352
111, 42148.10, 49616.71, -187500.02, -187500.02, -187500.02, -187500.02, -187500.02, -187500.02, 0.000, 0.000, 0.000, 18:13:54.818
112, 42310.13, 49738.96, -187500.02, -187500.02, -187500.02, -187500.02, -187500.02, -187500.02, 0.000, 0.000, 0.000, 18:13:54.818
113, 42256.73, 49657.77, -187500.02, -187500.02, -187500.02, -187500.02, -187500.02, -187500.02, 0.000, 0.000, 0.000, 18:13:54.818
114, 42032.63, 49389.98, -187500.02, -187500.02, -187500.02, -187500.02, -187500.02, -187500.02, 0.000, 0.000, 0.000, 18:13:54.818
115, 41881.36, 49305.46, -187500.02, -187500.02, -187500.02, -187500.02, -187500.02, -187500.02, 0.000, 0.000, 0.000, 18:13:54.819
116, 42152.33, 49623.57, -187500.02, -187500.02, -187500.02, -187500.02, -187500.02, -187500.02, 0.000, 0.000, 0.000, 18:13:54.819
117, 42320.08, 49750.20, -187500.02, -187500.02, -187500.02, -187500.02, -187500.02, -187500.02, 0.000, 0.000, 0.000, 18:13:54.819
118, 42262.77, 49668.35, -187500.02, -187500.02, -187500.02, -187500.02, -187500.02, -187500.02, 0.000, 0.000, 0.000, 18:13:54.819
119, 42034.67, 49399.10, -187500.02, -187500.02, -187500.02, -187500.02, -187500.02, -187500.02, 0.000, 0.000, 0.000, 18:13:54.819
120, 41888.20, 49308.28, -187500.02, -187500.02, -187500.02, -187500.02, -187500.02, -187500.02, 0.004, -0.022, 1.026, 18:13:54.819
121, 42165.74, 49630.48, -187500.02, -187500.02, -187500.02, -187500.02, -187500.02, -187500.02, 0.000, 0.000, 0.000, 18:13:54.820
122, 42332.30, 49761.55, -187500.02, -187500.02, -187500.02, -187500.02, -187500.02, -187500.02, 0.000, 0.000, 0.000, 18:13:54.820
123, 42269.07, 49665.38, -187500.02, -187500.02, -187500.02, -187500.02, -187500.02, -187500.02, 0.000, 0.000, 0.000, 18:13:54.820
124, 42041.08, 49397.27, -187500.02, -187500.02, -187500.02, -187500.02, -187500.02, -187500.02, 0.000, 0.000, 0.000, 18:13:54.820
125, 41888.15, 49304.06, -187500.02, -187500.02, -187500.02, -187500.02, -187500.02, -187500.02, 0.000, 0.000, 0.000, 18:13:54.820
126, 42155.97, 49619.06, -187500.02, -187500.02, -187500.02, -187500.02, -187500.02, -187500.02, 0.000, 0.000, 0.000, 18:13:54.820
127, 42327.63, 49745.23, -187500.02, -187500.02, -187500.02, -187500.02, -187500.02, -187500.02, 0.000, 0.000, 0.000, 18:13:54.821
128, 42272.55, 49665.91, -187500.02, -187500.02, -187500.02, -187500.02, -187500.02, -187500.02, 0.000, 0.000, 0.000, 18:13:54.821
129, 42045.21, 49398.02, -187500.02, -187500.02, -187500.02, -187500.02, -187500.02, -187500.02, 0.000, 0.000, 0.000, 18:13:54.821
130, 41891.26, 49306.09, -187500.02, -187500.02, -187500.02, -187500.02, -187500.02, -187500.02, 0.002, -0.018, 1.026, 18:13:54.821
131, 42163.64, 49626.19, -187500.02, -187500.02, -187500.02, -187500.02, -187500.02, -187500.02, 0.000, 0.000, 0.000, 18:13:54.821
132, 42330.76, 49754.04, -187500.02, -187500.02, -187500.02, -187500.02, -187500.02, -187500.02, 0.000, 0.000, 0.000, 18:13:54.821
133, 42265.49, 49665.60, -187500.02, -187500.02, -187500.02, -187500.02, -187500.02, -187500.02, 0.000, 0.000, 0.000, 18:13:54.822
134, 42045.04, 49405.87, -187500.02, -187500.02, -187500.02, -187500.02, -187500.02, -187500.02, 0.000, 0.000, 0.000, 18:13:54.822
135, 41889.94, 49304.46, -187500.02, -187500.02, -187500.02, -187500.02, -187500.02, -187500.02, 0.000, 0.000, 0.000, 18:13:54.822
136, 42150.20, 49610.99, -187500.02, -187500.02, -187500.02, -187500.02, -187500.02, -187500.02, 0.000, 0.000, 0.000, 18:13:54.822
137, 42317.55, 49743.49, -187500.02, -187500.02, -187500.02, -187500.02, -187500.02, -187500.02, 0.000, 0.000, 0.000, 18:13:54.822
138, 42259.84, 49659.90, -187500.02, -187500.02, -187500.02, -187500.02, -187500.02, -187500.02, 0.000, 0.000, 0.000, 18:13:54.822
139, 42039.52, 49399.95, -187500.02, -187500.02, -187500.02, -187500.02, -187500.02, -187500.02, 0.000, 0.000, 0.000, 18:13:54.823
140, 41889.96, 49308.64, -187500.02, -187500.02, -187500.02, -187500.02, -187500.02, -187500.02, -0.002, -0.014, 1.028, 18:13:54.823
141, 42169.16, 49643.40, -187500.02, -187500.02, -187500.02, -187500.02, -187500.02, -187500.02, 0.000, 0.000, 0.000, 18:13:54.823
142, 42357.16, 49790.05, -187500.02, -187500.02, -187500.02, -187500.02, -187500.02, -187500.02, 0.000, 0.000, 0.000, 18:13:54.823
143, 42291.09, 49678.00, -187500.02, -187500.02, -187500.02, -187500.02, -187500.02, -187500.02, 0.000, 0.000, 0.000, 18:13:54.823
144, 42051.27, 49400.80, -187500.02, -187500.02, -187500.02, -187500.02, -187500.02, -187500.02, 0.000, 0.000, 0.000, 18:13:54.823
145, 41900.27, 49307.57, -187500.02, -187500.02, -187500.02, -187500.02, -187500.02, -187500.02, 0.000, 0.000, 0.000, 18:13:54.824
146, 42154.36, 49609.41, -187500.02, -187500.02, -187500.02, -187500.02, -187500.02, -187500.02, 0.000, 0.000, 0.000, 18:13:54.824
147, 42324.03, 49734.95, -187500.02, -187500.02, -187500.02, -187500.02, -187500.02, -187500.02, 0.000, 0.000, 0.000, 18:13:54.824
148, 42268.91, 49655.36, -187500.02, -187500.02, -187500.02, -187500.02, -187500.02, -187500.02, 0.000, 0.000, 0.000, 18:13:54.824
149, 42043.25, 49391.03, -187500.02, -187500.02, -187500.02, -187500.02, -187500.02, -187500.02, 0.000, 0.000, 0.000, 18:13:54.824
150, 41882.14, 49281.73, -187500.02, -187500.02, -187500.02, -187500.02, -187500.02, -187500.02, 0.002, -0.012, 1.026, 18:13:54.825
151, 42138.58, 49589.02, -187500.02, -187500.02, -187500.02, -187500.02, -187500.02, -187500.02, 0.000, 0.000, 0.000, 18:13:54.825
152, 42306.33, 49719.69, -187500.02, -187500.02, -187500.02, -187500.02, -187500.02, -187500.02, 0.000, 0.000, 0.000, 18:13:54.825
153, 42256.15, 49643.09, -187500.02, -187500.02, -187500.02, -187500.02, -187500.02, -187500.02, 0.000, 0.000, 0.000, 18:13:54.825
154, 42039.18, 49383.96, -187500.02, -187500.02, -187500.02, -187500.02, -187500.02, -187500.02, 0.000, 0.000, 0.000, 18:13:54.825
155, 41886.23, 49281.48, -187500.02, -187500.02, -187500.02, -187500.02, -187500.02, -187500.02, 0.000, 0.000, 0.000, 18:13:54.825
156, 42143.41, 49588.53, -187500.02, -187500.02, -187500.02, -187500.02, -187500.02, -187500.02, 0.000, 0.000, 0.000, 18:13:54.826
157, 42321.15, 49732.65, -187500.02, -187500.02, -187500.02, -187500.02, -187500.02, -187500.02, 0.000, 0.000, 0.000, 18:13:54.826
158, 42274.23, 49659.96, -187500.02, -187500.02, -187500.02, -187500.02, -187500.02, -187500.02, 0.000, 0.000, 0.000, 18:13:54.826
159, 42053.46, 49395.03, -187500.02, -187500.02, -187500.02, -187500.02, -187500.02, -187500.02, -0.004, -0.018, 1.020, 18:13:54.826
160, 41890.59, 49283.88, -187500.02, -187500.02, -187500.02, -187500.02, -187500.02, -187500.02, 0.000, 0.000, 0.000, 18:13:54.826
161, 42149.29, 49602.92, -187500.02, -187500.02, -187500.02, -187500.02, -187500.02, -187500.02, 0.000, 0.000, 0.000, 18:13:54.827
162, 42331.54, 49746.36, -187500.02, -187500.02, -187500.02, -187500.02, -187500.02, -187500.02, 0.000, 0.000, 0.000, 18:13:54.827
163, 42279.93, 49667.99, -187500.02, -187500.02, -187500.02, -187500.02, -187500.02, -187500.02, 0.000, 0.000, 0.000, 18:13:54.827
164, 42062.00, 49406.16, -187500.02, -187500.02, -187500.02, -187500.02, -187500.02, -187500.02, 0.000, 0.000, 0.000, 18:13:54.827
165, 41896.06, 49291.12, -187500.02, -187500.02, -187500.02, -187500.02, -187500.02, -187500.02, 0.000, 0.000, 0.000, 18:13:54.827
166, 42145.06, 49596.86, -187500.02, -187500.02, -187500.02, -187500.02, -187500.02, -187500.02, 0.000, 0.000, 0.000, 18:13:54.827
167, 42327.95, 49738.96, -187500.02, -187500.02, -187500.02, -187500.02, -187500.02, -187500.02, 0.000, 0.000, 0.000, 18:13:54.828
168, 42279.73, 49664.25, -187500.02, -187500.02, -187500.02, -187500.02, -187500.02, -187500.02, 0.000, 0.000, 0.000, 18:13:54.828
169, 42067.19, 49413.65, -187500.02, -187500.02, -187500.02, -187500.02, -187500.02, -187500.02, -0.004, -0.020, 1.026, 18:13:54.828
170, 41903.60, 49302.02, -187500.02, -187500.02, -187500.02, -187500.02, -187500.02, -187500.02, 0.000, 0.000, 0.000, 18:13:54.828
171, 42159.61, 49607.32, -187500.02, -187500.02, -187500.02, -187500.02, -187500.02, -187500.02, 0.000, 0.000, 0.000, 18:13:54.828
172, 42346.45, 49753.06, -187500.02, -187500.02, -187500.02, -187500.02, -187500.02, -187500.02, 0.000, 0.000, 0.000, 18:13:54.829
173, 42297.28, 49677.82, -187500.02, -187500.02, -187500.02, -187500.02, -187500.02, -187500.02, 0.000, 0.000, 0.000, 18:13:54.829
174, 42083.95, 49423.71, -187500.02, -187500.02, -187500.02, -187500.02, -187500.02, -187500.02, 0.000, 0.000, 0.000, 18:13:54.829
175, 41910.75, 49302.38, -187500.02, -187500.02, -187500.02, -187500.02, -187500.02, -187500.02, 0.000, 0.000, 0.000, 18:13:54.829
176, 42168.26, 49613.99, -187500.02, -187500.02, -187500.02, -187500.02, -187500.02, -187500.02, 0.000, 0.000, 0.000, 18:13:54.829
177, 42357.56, 49763.88, -187500.02, -187500.02, -187500.02, -187500.02, -187500.02, -187500.02, 0.000, 0.000, 0.000, 18:13:54.829
178, 42310.55, 49695.79, -187500.02, -187500.02, -187500.02, -187500.02, -187500.02, -187500.02, 0.000, 0.000, 0.000, 18:13:54.830
179, 42091.30, 49433.23, -187500.02, -187500.02, -187500.02, -187500.02, -187500.02, -187500.02, -0.004, -0.016, 1.032, 18:13:54.830
180, 41925.23, 49317.31, -187500.02, -187500.02, -187500.02, -187500.02, -187500.02, -187500.02, 0.000, 0.000, 0.000, 18:13:54.830
181, 42179.28, 49627.38, -187500.02, -187500.02, -187500.02, -187500.02, -187500.02, -187500.02, 0.000, 0.000, 0.000, 18:13:54.830
182, 42363.35, 49769.98, -187500.02, -187500.02, -187500.02, -187500.02, -187500.02, -187500.02, 0.000, 0.000, 0.000, 18:13:54.830
183, 42314.11, 49694.09, -187500.02, -187500.02, -187500.02, -187500.02, -187500.02, -187500.02, 0.000, 0.000, 0.000, 18:13:54.831
184, 42096.67, 49431.26, -187500.02, -187500.02, -187500.02, -187500.02, -187500.02, -187500.02, 0.000, 0.000, 0.000, 18:13:54.831
185, 41922.68, 49303.23, -187500.02, -187500.02, -187500.02, -187500.02, -187500.02, -187500.02, 0.000, 0.000, 0.000, 18:13:54.831
186, 42171.64, 49614.34, -187500.02, -187500.02, -187500.02, -187500.02, -187500.02, -187500.02, 0.000, 0.000, 0.000, 18:13:54.831
187, 42356.15, 49767.59, -187500.02, -187500.02, -187500.02, -187500.02, -187500.02, -187500.02, 0.000, 0.000, 0.000, 18:13:54.831
188, 42309.01, 49691.32, -187500.02, -187500.02, -187500.02, -187500.02, -187500.02, -187500.02, 0.000, 0.000, 0.000, 18:13:54.831
189, 42098.26, 49440.85, -187500.02, -187500.02, -187500.02, -187500.02, -187500.02, -187500.02, 0.002, -0.012, 1.026, 18:13:54.832
190, 41920.88, 49313.85, -187500.02, -187500.02, -187500.02, -187500.02, -187500.02, -187500.02, 0.000, 0.000, 0.000, 18:13:54.832
191, 42171.28, 49620.02, -187500.02, -187500.02, -187500.02, -187500.02, -187500.02, -187500.02, 0.000, 0.000, 0.000, 18:13:54.832
192, 42357.92, 49766.70, -187500.02, -187500.02, -187500.02, -187500.02, -187500.02, -187500.02, 0.000, 0.000, 0.000, 18:13:54.832
193, 42307.38, 49689.04, -187500.02, -187500.02, -187500.02, -187500.02, -187500.02, -187500.02, 0.000, 0.000, 0.000, 18:13:54.832
194, 42096.89, 49438.97, -187500.02, -187500.02, -187500.02, -187500.02, -187500.02, -187500.02, 0.000, 0.000, 0.000, 18:13:54.832
195, 41918.73, 49312.55, -187500.02, -187500.02, -187500.02, -187500.02, -187500.02, -187500.02, 0.000, 0.000, 0.000, 18:13:54.833
196, 42167.93, 49612.11, -187500.02, -187500.02, -187500.02, -187500.02, -187500.02, -187500.02, 0.000, 0.000, 0.000, 18:13:54.833
197, 42355.75, 49764.48, -187500.02, -187500.02, -187500.02, -187500.02, -187500.02, -187500.02, 0.000, 0.000, 0.000, 18:13:54.833
198, 42314.13, 49700.64, -187500.02, -187500.02, -187500.02, -187500.02, -187500.02, -187500.02, 0.000, 0.000, 0.000, 18:13:54.833
199, 42099.35, 49441.61, -187500.02, -187500.02, -187500.02, -187500.02, -187500.02, -187500.02, 0.006, -0.018, 1.032, 18:13:54.833
200, 41918.44, 49310.90, -187500.02, -187500.02, -187500.02, -187500.02, -187500.02, -187500.02, 0.000, 0.000, 0.000, 18:13:54.833
201, 42166.61, 49615.24, -187500.02, -187500.02, -187500.02, -187500.02, -187500.02, -187500.02, 0.000, 0.000, 0.000, 18:13:54.833
202, 42360.04, 49769.49, -187500.02, -187500.02, -187500.02, -187500.02, -187500.02, -187500.02, 0.000, 0.000, 0.000, 18:13:54.834
203, 42323.63, 49704.89, -187500.02, -187500.02, -187500.02, -187500.02, -187500.02, -187500.02, 0.000, 0.000, 0.000, 18:13:54.834
204, 42103.91, 49448.81, -187500.02, -187500.02, -187500.02, -187500.02, -187500.02, -187500.02, 0.000, 0.000, 0.000, 18:13:54.834
205, 41920.20, 49309.69, -187500.02, -187500.02, -187500.02, -187500.02, -187500.02, -187500.02, 0.000, 0.000, 0.000, 18:13:54.834
206, 42161.25, 49609.09, -187500.02, -187500.02, -187500.02, -187500.02, -187500.02, -187500.02, 0.000, 0.000, 0.000, 18:13:54.834
207, 42355.01, 49762.67, -187500.02, -187500.02, -187500.02, -187500.02, -187500.02, -187500.02, 0.000, 0.000, 0.000, 18:13:54.834
208, 42318.31, 49695.61, -187500.02, -187500.02, -187500.02, -187500.02, -187500.02, -187500.02, 0.000, 0.000, 0.000, 18:13:54.834
209, 42108.11, 49448.00, -187500.02, -187500.02, -187500.02, -187500.02, -187500.02, -187500.02, 0.000, -0.020, 1.026, 18:13:54.834
210, 41924.00, 49309.33, -187500.02, -187500.02, -187500.02, -187500.02, -187500.02, -187500.02, 0.000, 0.000, 0.000, 18:13:54.835
211, 42169.16, 49612.46, -187500.02, -187500.02, -187500.02, -187500.02, -187500.02, -187500.02, 0.000, 0.000, 0.000, 18:13:54.835
212, 42362.88, 49768.77, -187500.02, -187500.02, -187500.02, -187500.02, -187500.02, -187500.02, 0.000, 0.000, 0.000, 18:13:54.835
213, 42319.88, 49702.19, -187500.02, -187500.02, -187500.02, -187500.02, -187500.02, -187500.02, 0.000, 0.000, 0.000, 18:13:54.835
214, 42108.16, 49451.29, -187500.02, -187500.02, -187500.02, -187500.02, -187500.02, -187500.02, 0.000, 0.000, 0.000, 18:13:54.835
215, 41928.63, 49321.60, -187500.02, -187500.02, -187500.02, -187500.02, -187500.02, -187500.02, 0.000, 0.000, 0.000, 18:13:54.835
216, 42172.67, 49621.56, -187500.02, -187500.02, -187500.02, -187500.02, -187500.02, -187500.02, 0.000, 0.000, 0.000, 18:13:54.835
217, 42373.61, 49782.16, -187500.02, -187500.02, -187500.02, -187500.02, -187500.02, -187500.02, 0.000, 0.000, 0.000, 18:13:54.835
218, 42326.89, 49709.96, -187500.02, -187500.02, -187500.02, -187500.02, -187500.02, -187500.02, 0.000, 0.000, 0.000, 18:13:54.836
219, 42107.98, 49455.16, -187500.02, -187500.02, -187500.02, -187500.02, -187500.02, -187500.02, 0.000, -0.020, 1.026, 18:13:54.836
220, 41921.90, 49312.21, -187500.02, -187500.02, -187500.02, -187500.02, -187500.02, -187500.02, 0.000, 0.000, 0.000, 18:13:54.836
221, 42172.02, 49615.15, -187500.02, -187500.02, -187500.02, -187500.02, -187500.02, -187500.02, 0.000, 0.000, 0.000, 18:13:54.836
222, 42368.58, 49775.50, -187500.02, -187500.02, -187500.02, -187500.02, -187500.02, -187500.02, 0.000, 0.000, 0.000, 18:13:54.836
223, 42323.12, 49700.71, -187500.02, -187500.02, -187500.02, -187500.02, -187500.02, -187500.02, 0.000, 0.000, 0.000, 18:13:54.836
224, 42115.07, 49451.18, -187500.02, -187500.02, -187500.02, -187500.02, -187500.02, -187500.02, 0.000, 0.000, 0.000, 18:13:54.836
225, 41921.95, 49305.29, -187500.02, -187500.02, -187500.02, -187500.02, -187500.02, -187500.02, 0.000, 0.000, 0.000, 18:13:54.836
226, 42154.96, 49606.39, -187500.02, -187500.02, -187500.02, -187500.02, -187500.02, -187500.02, 0.000, 0.000, 0.000, 18:13:54.836
227, 42360.49, 49772.84, -187500.02, -187500.02, -187500.02, -187500.02, -187500.02, -187500.02, 0.000, 0.000, 0.000, 18:13:54.837
228, 42323.16, 49699.64, -187500.02, -187500.02, -187500.02, -187500.02, -187500.02, -187500.02, 0.000, 0.000, 0.000, 18:13:54.837
229, 42115.56, 49457.77, -187500.02, -187500.02, -187500.02, -187500.02, -187500.02, -187500.02, 0.000, -0.018, 1.026, 18:13:54.837
230, 41926.64, 49319.50, -187500.02, -187500.02, -187500.02, -187500.02, -187500.02, -187500.02, 0.000, 0.000, 0.000, 18:13:54.837
231, 42169.78, 49615.91, -187500.02, -187500.02, -187500.02, -187500.02, -187500.02, -187500.02, 0.000, 0.000, 0.000, 18:13:55.297
232, 42368.31, 49780.08, -187500.02, -187500.02, -187500.02, -187500.02, -187500.02, -187500.02, 0.000, 0.000, 0.000, 18:13:55.297
233, 42322.18, 49709.61, -187500.02, -187500.02, -187500.02, -187500.02, -187500.02, -187500.02, 0.000, 0.000, 0.000, 18:13:55.297
234, 42115.22, 49458.91, -187500.02, -187500.02, -187500.02, -187500.02, -187500.02, -187500.02, 0.000, 0.000, 0.000, 18:13:55.297
235, 41924.92, 49315.03, -187500.02, -187500.02, -187500.02, -187500.02, -187500.02, -187500.02, 0.000, 0.000, 0.000, 18:13:55.298
236, 42158.25, 49609.74, -187500.02, -187500.02, -187500.02, -187500.02, -187500.02, -187500.02, 0.000, 0.000, 0.000, 18:13:55.298
237, 42355.50, 49764.59, -187500.02, -187500.02, -187500.02, -187500.02, -187500.02, -187500.02, 0.000, 0.000, 0.000, 18:13:55.298
238, 42311.47, 49695.26, -187500.02, -187500.02, -187500.02, -187500.02, -187500.02, -187500.02, 0.000, 0.000, 0.000, 18:13:55.298
239, 42108.58, 49452.18, -187500.02, -187500.02, -187500.02, -187500.02, -187500.02, -187500.02, 0.000, -0.016, 1.028, 18:13:55.298
240, 41923.94, 49311.59, -187500.02, -187500.02, -187500.02, -187500.02, -187500.02, -187500.02, 0.000, 0.000, 0.000, 18:13:55.299
241, 42156.53, 49607.04, -187500.02, -187500.02, -187500.02, -187500.02, -187500.02, -187500.02, 0.000, 0.000, 0.000, 18:13:55.299
242, 42353.96, 49764.88, -187500.02, -187500.02, -187500.02, -187500.02, -187500.02, -187500.02, 0.000, 0.000, 0.000, 18:13:55.299
243, 42313.39, 49693.27, -187500.02, -187500.02, -187500.02, -187500.02, -187500.02, -187500.02, 0.000, 0.000, 0.000, 18:13:55.299
244, 42107.98, 49451.24, -187500.02, -187500.02, -187500.02, -187500.02, -187500.02, -187500.02, 0.000, 0.000, 0.000, 18:13:55.299
245, 41915.13, 49299.43, -187500.02, -187500.02, -187500.02, -187500.02, -187500.02, -187500.02, 0.000, 0.000, 0.000, 18:13:55.300
246, 42151.54, 49595.01, -187500.02, -187500.02, -187500.02, -187500.02, -187500.02, -187500.02, 0.000, 0.000, 0.000, 18:13:55.300
247, 42358.36, 49765.91, -187500.02, -187500.02, -187500.02, -187500.02, -187500.02, -187500.02, 0.000, 0.000, 0.000, 18:13:55.300
248, 42319.07, 49700.71, -187500.02, -187500.02, -187500.02, -187500.02, -187500.02, -187500.02, 0.000, 0.000, 0.000, 18:13:55.300
249, 42111.42, 49453.99, -187500.02, -187500.02, -187500.02, -187500.02, -187500.02, -187500.02, -0.002, -0.016, 1.026, 18:13:55.300
250, 41912.45, 49296.61, -187500.02, -187500.02, -187500.02, -187500.02, -187500.02, -187500.02, 0.000, 0.000, 0.000, 18:13:55.300
251, 42150.94, 49594.34, -187500.02, -187500.02, -187500.02, -187500.02, -187500.02, -187500.02, 0.000, 0.000, 0.000, 18:13:55.301
252, 42349.67, 49759.23, -187500.02, -187500.02, -187500.02, -187500.02, -187500.02, -187500.02, 0.000, 0.000, 0.000, 18:13:55.301
253, 42316.97, 49700.87, -187500.02, -187500.02, -187500.02, -187500.02, -187500.02, -187500.02, 0.000, 0.000, 0.000, 18:13:55.301
254, 42122.55, 49458.95, -187500.02, -187500.02, -187500.02, -187500.02, -187500.02, -187500.02, 0.000, 0.000, 0.000, 18:13:55.301
255, 41922.39, 49304.10, -187500.02, -187500.02, -187500.02, -187500.02, -187500.02, -187500.02, 0.000, 0.000, 0.000, 18:13:55.301
0, 42149.42, 49595.46, -187500.02, -187500.02, -187500.02, -187500.02, -187500.02, -187500.02, 0.000, 0.000, 0.000, 18:13:55.301
1, 42351.14, 49763.12, -187500.02, -187500.02, -187500.02, -187500.02, -187500.02, -187500.02, 0.000, 0.000, 0.000, 18:13:55.302
2, 42316.41, 49704.24, -187500.02, -187500.02, -187500.02, -187500.02, -187500.02, -187500.02, 0.000, 0.000, 0.000, 18:13:55.302
3, 42109.59, 49452.70, -187500.02, -187500.02, -187500.02, -187500.02, -187500.02, -187500.02, 0.002, -0.020, 1.022, 18:13:55.302
4, 41910.14, 49299.59, -187500.02, -187500.02, -187500.02, -187500.02, -187500.02, -187500.02, 0.000, 0.000, 0.000, 18:13:55.302
5, 42148.30, 49599.19, -187500.02, -187500.02, -187500.02, -187500.02, -187500.02, -187500.02, 0.000, 0.000, 0.000, 18:13:55.302
6, 42356.58, 49769.58, -187500.02, -187500.02, -187500.02, -187500.02, -187500.02, -187500.02, 0.000, 0.000, 0.000, 18:13:55.302
7, 42320.43, 49703.15, -187500.02, -187500.02, -187500.02, -187500.02, -187500.02, -187500.02, 0.000, 0.000, 0.000, 18:13:55.303
8, 42115.02, 49460.77, -187500.02, -187500.02, -187500.02, -187500.02, -187500.02, -187500.02, 0.000, 0.000, 0.000, 18:13:55.303
9, 41912.49, 49301.40, -187500.02, -187500.02, -187500.02, -187500.02, -187500.02, -187500.02, 0.000, 0.000, 0.000, 18:13:55.303
10, 42138.16, 49588.86, -187500.02, -187500.02, -187500.02, -187500.02, -187500.02, -187500.02, 0.000, 0.000, 0.000, 18:13:55.303
11, 42341.33, 49753.11, -187500.02, -187500.02, -187500.02, -187500.02, -187500.02, -187500.02, 0.000, 0.000, 0.000, 18:13:55.303
12, 42311.14, 49695.26, -187500.02, -187500.02, -187500.02, -187500.02, -187500.02, -187500.02, 0.000, 0.000, 0.000, 18:13:55.303
13, 42110.91, 49453.97, -187500.02, -187500.02, -187500.02, -187500.02, -187500.02, -187500.02, 0.000, -0.018, 1.028, 18:13:55.304
14, 41910.17, 49294.25, -187500.02, -187500.02, -187500.02, -187500.02, -187500.02, -187500.02, 0.000, 0.000, 0.000, 18:13:55.304
15, 42139.54, 49589.69, -187500.02, -187500.02, -187500.02, -187500.02, -187500.02, -187500.02, 0.000, 0.000, 0.000, 18:13:55.304
16, 42352.48, 49763.30, -187500.02, -187500.02, -187500.02, -187500.02, -187500.02, -187500.02, 0.000, 0.000, 0.000, 18:13:55.304
17, 42312.36, 49700.60, -187500.02, -187500.02, -187500.02, -187500.02, -187500.02, -187500.02, 0.000, 0.000, 0.000, 18:13:55.304
18, 42107.54, 49452.50, -187500.02, -187500.02, -187500.02, -187500.02, -187500.02, -187500.02, 0.000, 0.000, 0.000, 18:13:55.304
19, 41905.25, 49291.27, -187500.02, -187500.02, -187500.02, -187500.02, -187500.02, -187500.02, 0.000, 0.000, 0.000, 18:13:55.305
20, 42125.23, 49574.18, -187500.02, -187500.02, -187500.02, -187500.02, -187500.02, -187500.02, 0.000, 0.000, 0.000, 18:13:55.305
21, 42332.93, 49744.68, -187500.02, -187500.02, -187500.02, -187500.02, -187500.02, -187500.02, 0.000, 0.000, 0.000, 18:13:55.305
22, 42304.00, 49687.30, -187500.02, -187500.02, -187500.02, -187500.02, -187500.02, -187500.02, 0.002, -0.016, 1.022, 18:13:55.305
23, 42109.99, 49454.11, -187500.02, -187500.02, -187500.02, -187500.02, -187500.02, -187500.02, 0.000, 0.000, 0.000, 18:13:55.305
24, 41908.80, 49297.38, -187500.02, -187500.02, -187500.02, -187500.02, -187500.02, -187500.02, 0.000, 0.000, 0.000, 18:13:55.305
25, 42142.40, 49593.16, -187500.02, -187500.02, -187500.02, -187500.02, -187500.02, -187500.02, 0.000, 0.000, 0.000, 18:13:55.306
26, 42351.73, 49763.23, -187500.02, -187500.02, -187500.02, -187500.02, -187500.02, -187500.02, 0.000, 0.000, 0.000, 18:13:55.306
27, 42316.12, 49702.72, -187500.02, -187500.02, -187500.02, -187500.02, -187500.02, -187500.02, 0.000, 0.000, 0.000, 18:13:55.306
28, 42115.51, 49466.15, -187500.02, -187500.02, -187500.02, -187500.02, -187500.02, -187500.02, 0.000, 0.000, 0.000, 18:13:55.306
29, 41907.08, 49297.06, -187500.02, -187500.02, -187500.02, -187500.02, -187500.02, -187500.02, 0.000, 0.000, 0.000, 18:13:55.306
30, 42127.02, 49575.54, -187500.02, -187500.02, -187500.02, -187500.02, -187500.02, -187500.02, 0.000, 0.000, 0.000, 18:13:55.306
31, 42335.23, 49747.14, -187500.02, -187500.02, -187500.02, -187500.02, -187500.02, -187500.02, 0.000, 0.000, 0.000, 18:13:55.307
32, 42308.99, 49694.50, -187500.02, -187500.02, -187500.02, -187500.02, -187500.02, -187500.02, 0.002, -0.018, 1.026, 18:13:55.307
33, 42113.59, 49458.87, -187500.02, -187500.02, -187500.02, -187500.02, -187500.02, -187500.02, 0.000, 0.000, 0.000, 18:13:55.307
34, 41907.87, 49291.56, -187500.02, -187500.02, -187500.02, -187500.02, -187500.02, -187500.02, 0.000, 0.000, 0.000, 18:13:55.307
35, 42133.37, 49580.48, -187500.02, -187500.02, -187500.02, -187500.02, -187500.02, -187500.02, 0.000, 0.000, 0.000, 18:13:55.307
36, 42347.23, 49760.48, -187500.02, -187500.02, -187500.02, -187500.02, -187500.02, -187500.02, 0.000, 0.000, 0.000, 18:13:55.307
37, 42312.59, 49702.32, -187500.02, -187500.02, -187500.02, -187500.02, -187500.02, -187500.02, 0.000, 0.000, 0.000, 18:13:55.307
38, 42115.34, 49457.05, -187500.02, -187500.02, -187500.02, -187500.02, -187500.02, -187500.02, 0.000, 0.000, 0.000, 18:13:55.307
39, 41906.48, 49293.29, -187500.02, -187500.02, -187500.02, -187500.02, -187500.02, -187500.02, 0.000, 0.000, 0.000, 18:13:55.307
40, 42129.33, 49578.45, -187500.02, -187500.02, -187500.02, -187500.02, -187500.02, -187500.02, 0.000, 0.000, 0.000, 18:13:55.308
41, 42349.16, 49763.72, -187500.02, -187500.02, -187500.02, -187500.02, -187500.02, -187500.02, 0.000, 0.000, 0.000, 18:13:55.308
42, 42317.75, 49708.22, -187500.02, -187500.02, -187500.02, -187500.02, -187500.02, -187500.02, 0.004, -0.022, 1.032, 18:13:55.308
43, 42122.53, 49470.80, -187500.02, -187500.02, -187500.02, -187500.02, -187500.02, -187500.02, 0.000, 0.000, 0.000, 18:13:55.308
44, 41910.05, 49293.89, -187500.02, -187500.02, -187500.02, -187500.02, -187500.02, -187500.02, 0.000, 0.000, 0.000, 18:13:55.308
45, 42126.87, 49576.37, -187500.02, -187500.02, -187500.02, -187500.02, -187500.02, -187500.02, 0.000, 0.000, 0.000, 18:13:55.308
46, 42348.44, 49762.27, -187500.02, -187500.02, -187500.02, -187500.02, -187500.02, -187500.02, 0.000, 0.000, 0.000, 18:13:55.308
47, 42324.70, 49706.14, -187500.02, -187500.02, -187500.02, -187500.02, -187500.02, -187500.02, 0.000, 0.000, 0.000, 18:13:55.309
48, 42125.59, 49461.28, -187500.02, -187500.02, -187500.02, -187500.02, -187500.02, -187500.02, 0.000, 0.000, 0.000, 18:13:55.309
49, 41912.40, 49286.18, -187500.02, -187500.02, -187500.02, -187500.02, -187500.02, -187500.02, 0.000, 0.000, 0.000, 18:13:55.309
50, 42122.38, 49567.45, -187500.02, -187500.02, -187500.02, -187500.02, -187500.02, -187500.02, 0.000, 0.000, 0.000, 18:13:55.309
51, 42338.96, 49745.66, -187500.02, -187500.02, -187500.02, -187500.02, -187500.02, -187500.02, 0.000, 0.000, 0.000, 18:13:55.309
52, 42310.04, 49691.48, -187500.02, -187500.02, -187500.02, -187500.02, -187500.02, -187500.02, 0.004, -0.018, 1.028, 18:13:55.309
53, 42114.89, 49454.66, -187500.02, -187500.02, -187500.02, -187500.02, -187500.02, -187500.02, 0.000, 0.000, 0.000, 18:13:55.310
54, 41905.23, 49282.15, -187500.02, -187500.02, -187500.02, -187500.02, -187500.02, -187500.02, 0.000, 0.000, 0.000, 18:13:55.310
55, 42127.74, 49571.50, -187500.02, -187500.02, -187500.02, -187500.02, -187500.02, -187500.02, 0.000, 0.000, 0.000, 18:13:55.310
56, 42346.56, 49757.02, -187500.02, -187500.02, -187500.02, -187500.02, -187500.02, -187500.02, 0.000, 0.000, 0.000, 18:13:55.310
57, 42312.72, 49693.22, -187500.02, -187500.02, -187500.02, -187500.02, -187500.02, -187500.02, 0.000, 0.000, 0.000, 18:13:55.310
58, 42118.08, 49459.04, -187500.02, -187500.02, -187500.02, -187500.02, -187500.02, -187500.02, 0.000, 0.000, 0.000, 18:13:55.310
59, 41902.10, 49278.64, -187500.02, -187500.02, -187500.02, -187500.02, -187500.02, -187500.02, 0.000, 0.000, 0.000, 18:13:55.311
60, 42107.96, 49554.84, -187500.02, -187500.02, -187500.02, -187500.02, -187500.02, -187500.02, 0.000, 0.000, 0.000, 18:13:55.311
61, 42330.40, 49744.16, -187500.02, -187500.02, -187500.02, -187500.02, -187500.02, -187500.02, 0.000, 0.000, 0.000, 18:13:55.311
62, 42305.70, 49689.63, -187500.02, -187500.02, -187500.02, -187500.02, -187500.02, -187500.02, 0.004, -0.014, 1.028, 18:13:55.311
63, 42114.75, 49460.77, -187500.02, -187500.02, -187500.02, -187500.02, -187500.02, -187500.02, 0.000, 0.000, 0.000, 18:13:55.311
64, 41901.74, 49287.81, -187500.02, -187500.02, -187500.02, -187500.02, -187500.02, -187500.02, 0.000, 0.000, 0.000, 18:13:55.312
65, 42118.80, 49567.52, -187500.02, -187500.02, -187500.02, -187500.02, -187500.02, -187500.02, 0.000, 0.000, 0.000, 18:13:55.312
66, 42347.08, 49758.85, -187500.02, -187500.02, -187500.02, -187500.02, -187500.02, -187500.02, 0.000, 0.000, 0.000, 18:13:55.312
67, 42321.24, 49706.93, -187500.02, -187500.02, -187500.02, -187500.02, -187500.02, -187500.02, 0.000, 0.000, 0.000, 18:13:55.312
68, 42135.54, 49479.36, -187500.02, -187500.02, -187500.02, -187500.02, -187500.02, -187500.02, 0.000, 0.000, 0.000, 18:13:55.312
69, 41922.04, 49299.23, -187500.02, -187500.02, -187500.02, -187500.02, -187500.02, -187500.02, 0.000, 0.000, 0.000, 18:13:55.312
70, 42127.74, 49574.29, -187500.02, -187500.02, -187500.02, -187500.02, -187500.02, -187500.02, 0.000, 0.000, 0.000, 18:13:55.313
71, 42348.95, 49770.34, -187500.02, -187500.02, -187500.02, -187500.02, -187500.02, -187500.02, 0.000, 0.000, 0.000, 18:13:55.313
72, 42323.16, 49714.14, -187500.02, -187500.02, -187500.02, -187500.02, -187500.02, -187500.02, 0.000, -0.012, 1.026, 18:13:55.313
73, 42128.93, 49473.17, -187500.02, -187500.02, -187500.02, -187500.02, -187500.02, -187500.02, 0.000, 0.000, 0.000, 18:13:55.313
74, 41918.84, 49298.65, -187500.02, -187500.02, -187500.02, -187500.02, -187500.02, -187500.02, 0.000, 0.000, 0.000, 18:13:55.313
75, 42132.21, 49580.64, -187500.02, -187500.02, -187500.02, -187500.02, -187500.02, -187500.02, 0.000, 0.000, 0.000, 18:13:55.313
76, 42345.47, 49766.74, -187500.02, -187500.02, -187500.02, -187500.02, -187500.02, -187500.02, 0.000, 0.000, 0.000, 18:13:55.313
77, 42315.72, 49708.80, -187500.02, -187500.02, -187500.02, -187500.02, -187500.02, -187500.02, 0.000, 0.000, 0.000, 18:13:55.314
78, 42126.29, 49475.81, -187500.02, -187500.02, -187500.02, -187500.02, -187500.02, -187500.02, 0.000, 0.000, 0.000, 18:13:55.314
79, 41907.17, 49289.62, -187500.02, -187500.02, -187500.02, -187500.02, -187500.02, -187500.02, 0.000, 0.000, 0.000, 18:13:55.314
80, 42111.56, 49562.33, -187500.02, -187500.02, -187500.02, -187500.02, -187500.02, -187500.02, 0.000, 0.000, 0.000, 18:13:55.314
81, 42343.07, 49758.69, -187500.02, -187500.02, -187500.02, -187500.02, -187500.02, -187500.02, 0.000, 0.000, 0.000, 18:13:55.314
82, 42321.86, 49707.21, -187500.02, -187500.02, -187500.02, -187500.02, -187500.02, -187500.02, 0.004, -0.018, 1.026, 18:13:55.315
83, 42127.54, 49475.14, -187500.02, -187500.02, -187500.02, -187500.02, -187500.02, -187500.02, 0.000, 0.000, 0.000, 18:13:55.315
84, 41902.37, 49285.80, -187500.02, -187500.02, -187500.02, -187500.02, -187500.02, -187500.02, 0.000, 0.000, 0.000, 18:13:55.315
85, 42114.95, 49564.32, -187500.02, -187500.02, -187500.02, -187500.02, -187500.02, -187500.02, 0.000, 0.000, 0.000, 18:13:55.315
86, 42345.69, 49763.74, -187500.02, -187500.02, -187500.02, -187500.02, -187500.02, -187500.02, 0.000, 0.000, 0.000, 18:13:55.315
87, 42317.50, 49706.16, -187500.02, -187500.02, -187500.02, -187500.02, -187500.02, -187500.02, 0.000, 0.000, 0.000, 18:13:55.315
88, 42126.96, 49473.21, -187500.02, -187500.02, -187500.02, -187500.02, -187500.02, -187500.02, 0.000, 0.000, 0.000, 18:13:55.316
89, 41907.42, 49288.59, -187500.02, -187500.02, -187500.02, -187500.02, -187500.02, -187500.02, 0.000, 0.000, 0.000, 18:13:55.316
90, 42113.08, 49558.53, -187500.02, -187500.02, -187500.02, -187500.02, -187500.02, -187500.02, 0.000, 0.000, 0.000, 18:13:55.316
91, 42344.17, 49756.95, -187500.02, -187500.02, -187500.02, -187500.02, -187500.02, -187500.02, 0.000, 0.000, 0.000, 18:13:55.316
92, 42317.84, 49705.79, -187500.02, -187500.02, -187500.02, -187500.02, -187500.02, -187500.02, 0.002, -0.018, 1.026, 18:13:55.316
93, 42128.43, 49475.38, -187500.02, -187500.02, -187500.02, -187500.02, -187500.02, -187500.02, 0.000, 0.000, 0.000, 18:13:55.316
94, 41909.61, 49289.64, -187500.02, -187500.02, -187500.02, -187500.02, -187500.02, -187500.02, 0.000, 0.000, 0.000, 18:13:55.317
95, 42111.87, 49555.52, -187500.02, -187500.02, -187500.02, -187500.02, -187500.02, -187500.02, 0.000, 0.000, 0.000, 18:13:55.317
96, 42341.04, 49751.38, -187500.02, -187500.02, -187500.02, -187500.02, -187500.02, -187500.02, 0.000, 0.000, 0.000, 18:13:55.777
97, 42319.61, 49705.85, -187500.02, -187500.02, -187500.02, -187500.02, -187500.02, -187500.02, 0.000, 0.000, 0.000, 18:13:55.777
98, 42133.21, 49479.14, -187500.02, -187500.02, -187500.02, -187500.02, -187500.02, -187500.02, 0.000, 0.000, 0.000, 18:13:55.777
99, 41912.00, 49291.23, -187500.02, -187500.02, -187500.02, -187500.02, -187500.02, -187500.02, 0.000, 0.000, 0.000, 18:13:55.777
100, 42110.89, 49555.96, -187500.02, -187500.02, -187500.02, -187500.02, -187500.02, -187500.02, 0.000, 0.000, 0.000, 18:13:55.777
101, 42337.13, 49754.33, -187500.02, -187500.02, -187500.02, -187500.02, -187500.02, -187500.02, 0.000, 0.000, 0.000, 18:13:55.777
102, 42318.63, 49711.64, -187500.02, -187500.02, -187500.02, -187500.02, -187500.02, -187500.02, 0.002, -0.022, 1.024, 18:13:55.777
103, 42135.50, 49482.80, -187500.02, -187500.02, -187500.02, -187500.02, -187500.02, -187500.02, 0.000, 0.000, 0.000, 18:13:55.778
104, 41914.79, 49292.30, -187500.02, -187500.02, -187500.02, -187500.02, -187500.02, -187500.02, 0.000, 0.000, 0.000, 18:13:55.778
105, 42111.27, 49559.54, -187500.02, -187500.02, -187500.02, -187500.02, -187500.02, -187500.02, 0.000, 0.000, 0.000, 18:13:55.778
106, 42349.20, 49768.53, -187500.02, -187500.02, -187500.02, -187500.02, -187500.02, -187500.02, 0.000, 0.000, 0.000, 18:13:55.778
107, 42332.23, 49724.27, -187500.02, -187500.02, -187500.02, -187500.02, -187500.02, -187500.02, 0.000, 0.000, 0.000, 18:13:55.778
108, 42153.62, 49501.31, -187500.02, -187500.02, -187500.02, -187500.02, -187500.02, -187500.02, 0.000, 0.000, 0.000, 18:13:55.778
109, 41929.08, 49303.19, -187500.02, -187500.02, -187500.02, -187500.02, -187500.02, -187500.02, 0.000, 0.000, 0.000, 18:13:55.778
110, 42121.30, 49564.03, -187500.02, -187500.02, -187500.02, -187500.02, -187500.02, -187500.02, 0.000, 0.000, 0.000, 18:13:55.778
111, 42352.60, 49769.51, -187500.02, -187500.02, -187500.02, -187500.02, -187500.02, -187500.02, 0.000, 0.000, 0.000, 18:13:55.779
112, 42330.98, 49718.50, -187500.02, -187500.02, -187500.02, -187500.02, -187500.02, -187500.02, 0.004, -0.016, 1.034, 18:13:55.779
113, 42149.55, 49498.68, -187500.02, -187500.02, -187500.02, -187500.02, -187500.02, -187500.02, 0.000, 0.000, 0.000, 18:13:55.779
114, 41924.52, 49309.54, -187500.02, -187500.02, -187500.02, -187500.02, -187500.02, -187500.02, 0.000, 0.000, 0.000, 18:13:55.779
115, 42117.10, 49571.83, -187500.02, -187500.02, -187500.02, -187500.02, -187500.02, -187500.02, 0.000, 0.000, 0.000, 18:13:55.779
116, 42352.29, 49772.26, -187500.02, -187500.02, -187500.02, -187500.02, -187500.02, -187500.02, 0.000, 0.000, 0.000, 18:13:55.779
117, 42331.95, 49720.29, -187500.02, -187500.02, -187500.02, -187500.02, -187500.02, -187500.02, 0.000, 0.000, 0.000, 18:13:55.780
118, 42148.15, 49494.89, -187500.02, -187500.02, -187500.02, -187500.02, -187500.02, -187500.02, 0.000, 0.000, 0.000, 18:13:55.780
119, 41920.45, 49297.17, -187500.02, -187500.02, -187500.02, -187500.02, -187500.02, -187500.02, 0.000, 0.000, 0.000, 18:13:55.780
120, 42110.57, 49560.21, -187500.02, -187500.02, -187500.02, -187500.02, -187500.02, -187500.02, 0.000, 0.000, 0.000, 18:13:55.780
121, 42342.56, 49759.07, -187500.02, -187500.02, -187500.02, -187500.02, -187500.02, -187500.02, 0.000, 0.000, 0.000, 18:13:55.780
122, 42326.02, 49714.50, -187500.02, -187500.02, -187500.02, -187500.02, -187500.02, -187500.02, 0.002, -0.020, 1.028, 18:13:55.781
123, 42143.95, 49489.80, -187500.02, -187500.02, -187500.02, -187500.02, -187500.02, -187500.02, 0.000, 0.000, 0.000, 18:13:55.781
124, 41916.36, 49294.07, -187500.02, -187500.02, -187500.02, -187500.02, -187500.02, -187500.02, 0.000, 0.000, 0.000, 18:13:55.781
125, 42107.51, 49554.40, -187500.02, -187500.02, -187500.02, -187500.02, -187500.02, -187500.02, 0.000, 0.000, 0.000, 18:13:55.781
126, 42346.90, 49761.15, -187500.02, -187500.02, -187500.02, -187500.02, -187500.02, -187500.02, 0.000, 0.000, 0.000, 18:13:55.781
127, 42330.18, 49723.67, -187500.02, -187500.02, -187500.02, -187500.02, -187500.02, -187500.02, 0.000, 0.000, 0.000, 18:13:55.781
128, 42148.77, 49498.29, -187500.02, -187500.02, -187500.02, -187500.02, -187500.02, -187500.02, 0.000, 0.000, 0.000, 18:13:55.782
129, 41922.26, 49297.84, -187500.02, -187500.02, -187500.02, -187500.02, -187500.02, -187500.02, 0.000, 0.000, 0.000, 18:13:55.782
130, 42107.29, 49552.77, -187500.02, -187500.02, -187500.02, -187500.02, -187500.02, -187500.02, 0.000, 0.000, 0.000, 18:13:55.782
131, 42353.56, 49763.00, -187500.02, -187500.02, -187500.02, -187500.02, -187500.02, -187500.02, 0.000, 0.000, 0.000, 18:13:55.782
132, 42333.15, 49712.65, -187500.02, -187500.02, -187500.02, -187500.02, -187500.02, -187500.02, 0.004, -0.022, 1.030, 18:13:55.782
133, 42148.86, 49492.24, -187500.02, -187500.02, -187500.02, -187500.02, -187500.02, -187500.02, 0.000, 0.000, 0.000, 18:13:55.782
134, 41912.69, 49285.68, -187500.02, -187500.02, -187500.02, -187500.02, -187500.02, -187500.02, 0.000, 0.000, 0.000, 18:13:55.783
135, 42102.37, 49545.52, -187500.02, -187500.02, -187500.02, -187500.02, -187500.02, -187500.02, 0.000, 0.000, 0.000, 18:13:55.783
136, 42341.04, 49750.29, -187500.02, -187500.02, -187500.02, -187500.02, -187500.02, -187500.02, 0.000, 0.000, 0.000, 18:13:55.783
137, 42323.14, 49703.93, -187500.02, -187500.02, -187500.02, -187500.02, -187500.02, -187500.02, 0.000, 0.000, 0.000, 18:13:55.783
138, 42147.50, 49487.59, -187500.02, -187500.02, -187500.02, -187500.02, -187500.02, -187500.02, 0.000, 0.000, 0.000, 18:13:55.783
139, 41915.58, 49283.09, -187500.02, -187500.02, -187500.02, -187500.02, -187500.02, -187500.02, 0.000, 0.000, 0.000, 18:13:55.784
140, 42097.50, 49537.75, -187500.02, -187500.02, -187500.02, -187500.02, -187500.02, -187500.02, 0.000, 0.000, 0.000, 18:13:55.784
141, 42337.98, 49748.25, -187500.02, -187500.02, -187500.02, -187500.02, -187500.02, -187500.02, 0.000, 0.000, 0.000, 18:13:55.784
142, 42328.86, 49705.72, -187500.02, -187500.02, -187500.02, -187500.02, -187500.02, -187500.02, -0.004, -0.020, 1.020, 18:13:55.784
143, 42156.53, 49492.77, -187500.02, -187500.02, -187500.02, -187500.02, -187500.02, -187500.02, 0.000, 0.000, 0.000, 18:13:55.784
144, 41922.73, 49285.30, -187500.02, -187500.02, -187500.02, -187500.02, -187500.02, -187500.02, 0.000, 0.000, 0.000, 18:13:55.784
145, 42104.16, 49543.63, -187500.02, -187500.02, -187500.02, -187500.02, -187500.02, -187500.02, 0.000, 0.000, 0.000, 18:13:55.785
146, 42347.52, 49760.48, -187500.02, -187500.02, -187500.02, -187500.02, -187500.02, -187500.02, 0.000, 0.000, 0.000, 18:13:55.785
147, 42335.34, 49718.79, -187500.02, -187500.02, -187500.02, -187500.02, -187500.02, -187500.02, 0.000, 0.000, 0.000, 18:13:55.785
148, 42157.69, 49498.09, -187500.02, -187500.02, -187500.02, -187500.02, -187500.02, -187500.02, 0.000, 0.000, 0.000, 18:13:55.785
